timestamp,intensity
0,-285.0
0.06,-293.0
0.13,-283.0
0.19,-274.0
0.25,-275.0
0.32,-278.0
0.38,-279.0
0.44,-292.0
0.5,-291.0
0.57,-296.0
0.63,-314.0
0.69,-302.0
0.76,-296.0
0.82,-314.0
0.88,-306.0
0.94,-301.0
1.01,-320.0
1.07,-309.0
1.13,-294.0
1.2,-306.0
1.26,-296.0
1.32,-292.0
1.39,-304.0
1.45,-304.0
1.51,-306.0
1.57,-284.0
1.64,-290.0
1.7,-292.0
1.76,-300.0
1.83,-302.0
1.89,-272.0
1.95,-307.0
2.02,-308.0
2.08,-292.0
2.14,-302.0
2.2,-289.0
2.27,-276.0
2.33,-272.0
2.39,-287.0
2.46,-278.0
2.52,-277.0
2.58,-283.0
2.65,-283.0
2.71,-276.0
2.77,-273.0
2.84,-278.0
2.9,-272.0
2.96,-279.0
3.02,-285.0
3.09,-269.0
3.15,-275.0
3.21,-284.0
3.28,-271.0
3.34,-248.0
3.4,-246.0
3.47,-260.0
3.53,-265.0
3.59,-252.0
3.65,-261.0
3.72,-262.0
3.78,-266.0
3.84,-258.0
3.91,-273.0
3.97,-274.0
4.03,-261.0
4.1,-261.0
4.16,-269.0
4.22,-272.0
4.28,-265.0
4.35,-269.0
4.41,-306.0
4.47,-278.0
4.54,-304.0
4.6,-291.0
4.66,-308.0
4.73,-292.0
4.79,-281.0
4.85,-291.0
4.91,-277.0
4.98,-280.0
5.04,-287.0
5.1,-290.0
5.17,-292.0
5.23,-276.0
5.29,-289.0
5.35,-272.0
5.42,-292.0
5.48,-285.0
5.54,-269.0
5.61,-273.0
5.67,-272.0
5.73,-274.0
5.8,-273.0
5.86,-270.0
5.92,-285.0
5.98,-283.0
6.05,-265.0
6.11,-284.0
6.17,-305.0
6.24,-290.0
6.3,-293.0
6.36,-278.0
6.43,-291.0
6.49,-292.0
6.55,-284.0
6.61,-288.0
6.68,-288.0
6.74,-296.0
6.8,-278.0
6.87,-255.0
6.93,-270.0
6.99,-254.0
7.06,-247.0
7.12,-257.0
7.18,-257.0
7.24,-250.0
7.31,-254.0
7.37,-253.0
7.43,-257.0
7.5,-246.0
7.56,-236.0
7.62,-261.0
7.69,-252.0
7.75,-255.0
7.81,-250.0
7.87,-229.0
7.94,-236.0
8.0,-228.0
8.06,-251.0
8.13,-231.0
8.19,-222.0
8.25,-222.0
8.32,-234.0
8.38,-252.0
8.44,-244.0
8.5,-232.0
8.57,-212.0
8.63,-208.0
8.69,-194.0
8.76,-186.0
8.82,-207.0
8.88,-190.0
8.95,-201.0
9.01,-206.0
9.07,-191.0
9.13,-188.0
9.2,-192.0
9.26,-175.0
9.32,-186.0
9.39,-172.0
9.45,-162.0
9.51,-173.0
9.58,-163.0
9.64,-171.0
9.7,-153.0
9.77,-166.0
9.83,-177.0
9.89,-168.0
9.95,-166.0
10.02,-166.0
10.08,-161.0
10.14,-135.0
10.21,-142.0
10.27,-143.0
10.33,-147.0
10.4,-155.0
10.46,-161.0
10.52,-169.0
10.58,-145.0
10.65,-146.0
10.71,-135.0
10.77,-146.0
10.84,-163.0
10.9,-169.0
10.96,-164.0
11.03,-154.0
11.09,-173.0
11.15,-166.0
11.21,-175.0
11.28,-180.0
11.34,-181.0
11.4,-173.0
11.47,-168.0
11.53,-167.0
11.59,-193.0
11.66,-186.0
11.72,-175.0
11.78,-168.0
11.84,-192.0
11.91,-188.0
11.97,-189.0
12.03,-181.0
12.1,-177.0
12.16,-178.0
12.22,-190.0
12.29,-194.0
12.35,-171.0
12.41,-159.0
12.47,-173.0
12.54,-160.0
12.6,-174.0
12.66,-153.0
12.73,-147.0
12.79,-156.0
12.85,-186.0
12.92,-209.0
12.98,-193.0
13.04,-195.0
13.1,-190.0
13.17,-186.0
13.23,-200.0
13.29,-206.0
13.36,-214.0
13.42,-203.0
13.48,-215.0
13.55,-208.0
13.61,-203.0
13.67,-218.0
13.73,-212.0
13.8,-213.0
13.86,-217.0
13.92,-230.0
13.99,-217.0
14.05,-222.0
14.11,-198.0
14.18,-207.0
14.24,-234.0
14.3,-216.0
14.36,-220.0
14.43,-215.0
14.49,-193.0
14.55,-203.0
14.62,-192.0
14.68,-192.0
14.74,-213.0
14.81,-208.0
14.87,-192.0
14.93,-176.0
14.99,-190.0
15.06,-194.0
15.12,-212.0
15.18,-198.0
15.25,-187.0
15.31,-210.0
15.37,-206.0
15.44,-213.0
15.5,-218.0
15.56,-212.0
15.62,-194.0
15.69,-187.0
15.75,-189.0
15.81,-199.0
15.88,-196.0
15.94,-181.0
16.0,-200.0
16.07,-190.0
16.13,-193.0
16.19,-199.0
16.25,-184.0
16.32,-186.0
16.38,-186.0
16.44,-204.0
16.51,-188.0
16.57,-186.0
16.63,-182.0
16.7,-184.0
16.76,-191.0
16.82,-179.0
16.88,-222.0
16.95,-207.0
17.01,-212.0
17.07,-215.0
17.14,-214.0
17.2,-212.0
17.26,-215.0
17.33,-225.0
17.39,-237.0
17.45,-206.0
17.51,-239.0
17.58,-235.0
17.64,-233.0
17.7,-253.0
17.77,-210.0
17.83,-239.0
17.89,-208.0
17.96,-244.0
18.02,-205.0
18.08,-202.0
18.14,-236.0
18.21,-222.0
18.27,-227.0
18.33,-207.0
18.4,-213.0
18.46,-201.0
18.52,-191.0
18.59,-189.0
18.65,-208.0
18.71,-226.0
18.77,-234.0
18.84,-211.0
18.9,-232.0
18.96,-232.0
19.03,-229.0
19.09,-230.0
19.15,-187.0
19.22,-217.0
19.28,-184.0
19.34,-173.0
19.4,-190.0
19.47,-194.0
19.53,-202.0
19.59,-186.0
19.66,-215.0
19.72,-160.0
19.78,-206.0
19.84,-171.0
19.91,-239.0
19.97,-206.0
20.03,-166.0
20.1,-181.0
20.16,-172.0
20.22,-190.0
20.29,-192.0
20.35,-231.0
20.41,-225.0
20.47,-233.0
20.54,-212.0
20.6,-188.0
20.66,-232.0
20.73,-212.0
20.79,-228.0
20.85,-200.0
20.92,-206.0
20.98,-225.0
21.04,-223.0
21.1,-215.0
21.17,-260.0
21.23,-223.0
21.29,-242.0
21.36,-204.0
21.42,-232.0
21.48,-246.0
21.55,-235.0
21.61,-260.0
21.67,-211.0
21.73,-224.0
21.8,-207.0
21.86,-210.0
21.92,-227.0
21.99,-229.0
22.05,-215.0
22.11,-182.0
22.18,-218.0
22.24,-224.0
22.3,-249.0
22.36,-236.0
22.43,-207.0
22.49,-207.0
22.55,-225.0
22.62,-196.0
22.68,-236.0
22.74,-242.0
22.81,-252.0
22.87,-222.0
22.93,-231.0
22.99,-204.0
23.06,-221.0
23.12,-225.0
23.18,-238.0
23.25,-222.0
23.31,-182.0
23.37,-218.0
23.44,-230.0
23.5,-216.0
23.56,-204.0
23.62,-192.0
23.69,-207.0
23.75,-163.0
23.81,-178.0
23.88,-179.0
23.94,-183.0
24.0,-202.0
24.07,-173.0
24.13,-200.0
24.19,-202.0
24.25,-208.0
24.32,-192.0
24.38,-192.0
24.44,-188.0
24.51,-194.0
24.57,-156.0
24.63,-162.0
24.7,-155.0
24.76,-148.0
24.82,-159.0
24.88,-136.0
24.95,-175.0
25.01,-200.0
25.07,-189.0
25.14,-173.0
25.2,-174.0
25.26,-192.0
25.33,-175.0
25.39,-162.0
25.45,-176.0
25.51,-154.0
25.58,-138.0
25.64,-170.0
25.7,-168.0
25.77,-148.0
25.83,-160.0
25.89,-155.0
25.96,-159.0
26.02,-158.0
26.08,-129.0
26.14,-129.0
26.21,-137.0
26.27,-138.0
26.33,-140.0
26.4,-154.0
26.46,-158.0
26.52,-132.0
26.59,-135.0
26.65,-131.0
26.71,-124.0
26.77,-138.0
26.84,-131.0
26.9,-84.0
26.96,-123.0
27.03,-139.0
27.09,-150.0
27.15,-139.0
27.22,-143.0
27.28,-150.0
27.34,-141.0
27.4,-165.0
27.47,-163.0
27.53,-160.0
27.59,-135.0
27.66,-131.0
27.72,-121.0
27.78,-114.0
27.85,-131.0
27.91,-115.0
27.97,-153.0
28.03,-165.0
28.1,-137.0
28.16,-165.0
28.22,-145.0
28.29,-152.0
28.35,-153.0
28.41,-151.0
28.48,-154.0
28.54,-160.0
28.6,-160.0
28.66,-148.0
28.73,-168.0
28.79,-174.0
28.85,-184.0
28.92,-162.0
28.98,-167.0
29.04,-160.0
29.11,-183.0
29.17,-195.0
29.23,-177.0
29.29,-170.0
29.36,-161.0
29.42,-182.0
29.48,-159.0
29.55,-186.0
29.61,-166.0
29.67,-166.0
29.74,-168.0
29.8,-167.0
29.86,-180.0
29.92,-167.0
29.99,-170.0
30.05,-168.0
30.11,-157.0
30.18,-156.0
30.24,-179.0
30.3,-171.0
30.37,-166.0
30.43,-185.0
30.49,-172.0
30.55,-157.0
30.62,-177.0
30.68,-186.0
30.74,-176.0
30.81,-176.0
30.87,-183.0
30.93,-186.0
31.0,-187.0
31.06,-214.0
31.12,-199.0
31.18,-195.0
31.25,-211.0
31.31,-186.0
31.37,-170.0
31.44,-183.0
31.5,-196.0
31.56,-194.0
31.63,-215.0
31.69,-215.0
31.75,-236.0
31.81,-233.0
31.88,-212.0
31.94,-231.0
32.0,-214.0
32.07,-218.0
32.13,-229.0
32.19,-207.0
32.26,-234.0
32.32,-218.0
32.38,-210.0
32.44,-203.0
32.51,-209.0
32.57,-208.0
32.63,-203.0
32.7,-238.0
32.76,-200.0
32.82,-229.0
32.89,-212.0
32.95,-234.0
33.01,-229.0
33.07,-204.0
33.14,-215.0
33.2,-218.0
33.26,-239.0
33.33,-213.0
33.39,-167.0
33.45,-213.0
33.52,-182.0
33.58,-194.0
33.64,-184.0
33.7,-180.0
33.77,-190.0
33.83,-185.0
33.89,-188.0
33.96,-198.0
34.02,-190.0
34.08,-181.0
34.15,-199.0
34.21,-230.0
34.27,-219.0
34.33,-199.0
34.4,-212.0
34.46,-207.0
34.52,-205.0
34.59,-209.0
34.65,-219.0
34.71,-212.0
34.78,-230.0
34.84,-221.0
34.9,-202.0
34.96,-211.0
35.03,-237.0
35.09,-220.0
35.15,-206.0
35.22,-196.0
35.28,-222.0
35.34,-217.0
35.41,-238.0
35.47,-220.0
35.53,-224.0
35.59,-230.0
35.66,-197.0
35.72,-223.0
35.78,-212.0
35.85,-223.0
35.91,-230.0
35.97,-184.0
36.04,-197.0
36.1,-189.0
36.16,-188.0
36.22,-182.0
36.29,-208.0
36.35,-172.0
36.41,-182.0
36.48,-198.0
36.54,-213.0
36.6,-218.0
36.67,-216.0
36.73,-200.0
36.79,-213.0
36.85,-225.0
36.92,-225.0
36.98,-183.0
37.04,-204.0
37.11,-188.0
37.17,-173.0
37.23,-177.0
37.3,-170.0
37.36,-199.0
37.42,-174.0
37.48,-170.0
37.55,-165.0
37.61,-162.0
37.67,-177.0
37.74,-162.0
37.8,-176.0
37.86,-187.0
37.93,-177.0
37.99,-167.0
38.05,-188.0
38.12,-185.0
38.18,-174.0
38.24,-180.0
38.3,-192.0
38.37,-197.0
38.43,-199.0
38.49,-187.0
38.56,-184.0
38.62,-182.0
38.68,-195.0
38.75,-197.0
38.81,-204.0
38.87,-189.0
38.93,-194.0
39.0,-175.0
39.06,-186.0
39.12,-173.0
39.19,-177.0
39.25,-191.0
39.31,-174.0
39.38,-173.0
39.44,-154.0
39.5,-135.0
39.56,-161.0
39.63,-161.0
39.69,-156.0
39.75,-184.0
39.82,-144.0
39.88,-155.0
39.94,-150.0
40.01,-171.0
40.07,-144.0
40.13,-131.0
40.19,-147.0
40.26,-139.0
40.32,-134.0
40.38,-125.0
40.45,-104.0
40.51,-117.0
40.57,-98.0
40.64,-106.0
40.7,-83.0
40.76,-92.0
40.82,-89.0
40.89,-90.0
40.95,-83.0
41.01,-89.0
41.08,-97.0
41.14,-92.0
41.2,-96.0
41.27,-79.0
41.33,-59.0
41.39,-82.0
41.45,-99.0
41.52,-86.0
41.58,-55.0
41.64,-48.0
41.71,-54.0
41.77,-51.0
41.83,-62.0
41.9,-28.0
41.96,-47.0
42.02,-12.0
42.08,-4.0
42.15,-9.0
42.21,11.0
42.27,19.0
42.34,1.0
42.4,-5.0
42.46,-5.0
42.53,-8.0
42.59,-12.0
42.65,-5.0
42.71,7.0
42.78,15.0
42.84,1.0
42.9,-9.0
42.97,10.0
43.03,-1.0
43.09,-10.0
43.16,2.0
43.22,-24.0
43.28,-2.0
43.34,-7.0
43.41,0.0
43.47,12.0
43.53,5.0
43.6,6.0
43.66,1.0
43.72,3.0
43.79,4.0
43.85,-13.0
43.91,-11.0
43.97,-7.0
44.04,3.0
44.1,40.0
44.16,23.0
44.23,-6.0
44.29,21.0
44.35,20.0
44.42,5.0
44.48,12.0
44.54,-15.0
44.6,-14.0
44.67,6.0
44.73,-8.0
44.79,17.0
44.86,-3.0
44.92,-25.0
44.98,2.0
45.05,6.0
45.11,0.0
45.17,-17.0
45.23,-11.0
45.3,-5.0
45.36,20.0
45.42,8.0
45.49,1.0
45.55,-5.0
45.61,17.0
45.68,2.0
45.74,-23.0
45.8,-7.0
45.86,-4.0
45.93,23.0
45.99,-8.0
46.05,-17.0
46.12,12.0
46.18,22.0
46.24,16.0
46.31,-8.0
46.37,-19.0
46.43,5.0
46.49,-4.0
46.56,-2.0
46.62,-11.0
46.68,-13.0
46.75,-35.0
46.81,-39.0
46.87,-34.0
46.94,-45.0
47.0,-42.0
47.06,-34.0
47.12,-34.0
47.19,-19.0
47.25,-16.0
47.31,-26.0
47.38,-16.0
47.44,-13.0
47.5,-30.0
47.57,-50.0
47.63,-51.0
47.69,-30.0
47.75,-32.0
47.82,-5.0
47.88,-29.0
47.94,-29.0
48.01,-33.0
48.07,-20.0
48.13,-27.0
48.2,-28.0
48.26,-16.0
48.32,-34.0
48.38,-62.0
48.45,-66.0
48.51,-61.0
48.57,-65.0
48.64,-62.0
48.7,-49.0
48.76,-54.0
48.83,-63.0
48.89,-48.0
48.95,-55.0
49.01,-56.0
49.08,-47.0
49.14,-83.0
49.2,-71.0
49.27,-74.0
49.33,-94.0
49.39,-67.0
49.46,-66.0
49.52,-72.0
49.58,-70.0
49.64,-71.0
49.71,-77.0
49.77,-71.0
49.83,-79.0
49.9,-64.0
49.96,-72.0
50.02,-66.0
50.09,-66.0
50.15,-88.0
50.21,-64.0
50.27,-63.0
50.34,-69.0
50.4,-78.0
50.46,-83.0
50.53,-97.0
50.59,-103.0
50.65,-95.0
50.72,-110.0
50.78,-93.0
50.84,-109.0
50.9,-99.0
50.97,-96.0
51.03,-126.0
51.09,-109.0
51.16,-109.0
51.22,-103.0
51.28,-112.0
51.35,-112.0
51.41,-104.0
51.47,-91.0
51.53,-90.0
51.6,-86.0
51.66,-88.0
51.72,-82.0
51.79,-97.0
51.85,-78.0
51.91,-97.0
51.98,-89.0
52.04,-109.0
52.1,-97.0
52.16,-84.0
52.23,-80.0
52.29,-70.0
52.35,-75.0
52.42,-69.0
52.48,-72.0
52.54,-69.0
52.61,-80.0
52.67,-74.0
52.73,-85.0
52.79,-109.0
52.86,-90.0
52.92,-102.0
52.98,-94.0
53.05,-98.0
53.11,-81.0
53.17,-92.0
53.24,-81.0
53.3,-88.0
53.36,-117.0
53.42,-113.0
53.49,-113.0
53.55,-114.0
53.61,-129.0
53.68,-114.0
53.74,-111.0
53.8,-126.0
53.87,-123.0
53.93,-114.0
53.99,-125.0
54.05,-121.0
54.12,-125.0
54.18,-111.0
54.24,-122.0
54.31,-122.0
54.37,-129.0
54.43,-109.0
54.5,-115.0
54.56,-106.0
54.62,-111.0
54.68,-99.0
54.75,-116.0
54.81,-113.0
54.87,-75.0
54.94,-112.0
55.0,-83.0
55.06,-83.0
55.13,-104.0
55.19,-113.0
55.25,-109.0
55.31,-128.0
55.38,-94.0
55.44,-107.0
55.5,-94.0
55.57,-101.0
55.63,-106.0
55.69,-98.0
55.76,-106.0
55.82,-98.0
55.88,-129.0
55.94,-105.0
56.01,-109.0
56.07,-91.0
56.13,-86.0
56.2,-85.0
56.26,-101.0
56.32,-96.0
56.39,-87.0
56.45,-110.0
56.51,-101.0
56.57,-107.0
56.64,-84.0
56.7,-87.0
56.76,-81.0
56.83,-45.0
56.89,-66.0
56.95,-56.0
57.02,-46.0
57.08,-47.0
57.14,-22.0
57.2,-52.0
57.27,-43.0
57.33,-71.0
57.39,-61.0
57.46,-39.0
57.52,-31.0
57.58,-28.0
57.65,-15.0
57.71,-25.0
57.77,-21.0
57.83,-21.0
57.9,-25.0
57.96,-45.0
58.02,-40.0
58.09,-36.0
58.15,-31.0
58.21,-25.0
58.28,-37.0
58.34,-42.0
58.4,-22.0
58.46,1.0
58.53,-21.0
58.59,15.0
58.65,16.0
58.72,-9.0
58.78,1.0
58.84,10.0
58.91,16.0
58.97,12.0
59.03,-2.0
59.09,20.0
59.16,46.0
59.22,56.0
59.28,23.0
59.35,24.0
59.41,30.0
59.47,14.0
59.54,18.0
59.6,-7.0
59.66,23.0
59.72,50.0
59.79,13.0
59.85,21.0
59.91,11.0
59.98,31.0
60.04,46.0
60.1,18.0
60.17,-23.0
60.23,5.0
60.29,38.0
60.35,-3.0
60.42,2.0
60.48,-14.0
60.54,-1.0
60.61,-32.0
60.67,-25.0
60.73,-16.0
60.8,-2.0
60.86,-21.0
60.92,-11.0
60.98,-15.0
61.05,-24.0
61.11,15.0
61.17,4.0
61.24,-18.0
61.3,2.0
61.36,-20.0
61.43,-10.0
61.49,-13.0
61.55,12.0
61.61,-1.0
61.68,-14.0
61.74,-10.0
61.8,-16.0
61.87,-11.0
61.93,3.0
61.99,-23.0
62.06,-6.0
62.12,-16.0
62.18,-47.0
62.24,-33.0
62.31,-40.0
62.37,-30.0
62.43,-24.0
62.5,-31.0
62.56,-35.0
62.62,-20.0
62.69,-22.0
62.75,-20.0
62.81,-23.0
62.87,0.0
62.94,11.0
63.0,20.0
63.06,24.0
63.13,22.0
63.19,41.0
63.25,31.0
63.32,10.0
63.38,16.0
63.44,43.0
63.5,-25.0
63.57,-17.0
63.63,-3.0
63.69,-14.0
63.76,5.0
63.82,9.0
63.88,-16.0
63.95,-4.0
64.01,-29.0
64.07,-36.0
64.13,-38.0
64.2,-45.0
64.26,-66.0
64.32,-36.0
64.39,-72.0
64.45,-56.0
64.51,-28.0
64.58,-37.0
64.64,-47.0
64.7,-47.0
64.76,-62.0
64.83,-30.0
64.89,-40.0
64.95,-51.0
65.02,-51.0
65.08,-38.0
65.14,-39.0
65.21,-5.0
65.27,-19.0
65.33,-43.0
65.39,-14.0
65.46,-37.0
65.52,-27.0
65.58,-31.0
65.65,-24.0
65.71,-39.0
65.77,-36.0
65.84,-46.0
65.9,-47.0
65.96,-53.0
66.02,-7.0
66.09,-52.0
66.15,-32.0
66.21,-34.0
66.28,-32.0
66.34,-18.0
66.4,-11.0
66.47,-22.0
66.53,-62.0
66.59,-33.0
66.65,-49.0
66.72,-46.0
66.78,-33.0
66.84,-45.0
66.91,-58.0
66.97,-27.0
67.03,-54.0
67.1,-47.0
67.16,-71.0
67.22,-33.0
67.28,-46.0
67.35,-25.0
67.41,-52.0
67.47,-41.0
67.54,-30.0
67.6,-14.0
67.66,9.0
67.73,-4.0
67.79,1.0
67.85,12.0
67.91,-22.0
67.98,-18.0
68.04,-10.0
68.1,-5.0
68.17,-1.0
68.23,-28.0
68.29,-21.0
68.36,-41.0
68.42,-11.0
68.48,-21.0
68.54,-6.0
68.61,-22.0
68.67,-14.0
68.73,-8.0
68.8,-7.0
68.86,-20.0
68.92,-20.0
68.99,17.0
69.05,-3.0
69.11,-22.0
69.17,4.0
69.24,-23.0
69.3,-21.0
69.36,-9.0
69.43,-31.0
69.49,-8.0
69.55,-1.0
69.62,-52.0
69.68,6.0
69.74,-31.0
69.8,-31.0
69.87,-28.0
69.93,-30.0
69.99,-48.0
70.06,-2.0
70.12,-21.0
70.18,-32.0
70.25,-34.0
70.31,-22.0
70.37,-25.0
70.43,-34.0
70.5,-25.0
70.56,16.0
70.62,8.0
70.69,-2.0
70.75,10.0
70.81,11.0
70.88,10.0
70.94,-22.0
71.0,-14.0
71.06,-29.0
71.13,-19.0
71.19,-28.0
71.25,-18.0
71.32,-8.0
71.38,-14.0
71.44,-19.0
71.51,-29.0
71.57,-43.0
71.63,-33.0
71.69,-26.0
71.76,-42.0
71.82,-40.0
71.88,-54.0
71.95,-47.0
72.01,-40.0
72.07,-30.0
72.14,-33.0
72.2,-48.0
72.26,-37.0
72.32,-47.0
72.39,-54.0
72.45,-33.0
72.51,-31.0
72.58,-42.0
72.64,-49.0
72.7,-48.0
72.77,-33.0
72.83,-33.0
72.89,-21.0
72.95,-28.0
73.02,-9.0
73.08,-14.0
73.14,-20.0
73.21,-17.0
73.27,1.0
73.33,-19.0
73.4,-28.0
73.46,-8.0
73.52,-37.0
73.58,-33.0
73.65,-47.0
73.71,-48.0
73.77,-35.0
73.84,-44.0
73.9,-49.0
73.96,-24.0
74.03,-19.0
74.09,-17.0
74.15,-12.0
74.21,-26.0
74.28,-2.0
74.34,-15.0
74.4,17.0
74.47,27.0
74.53,24.0
74.59,27.0
74.66,37.0
74.72,16.0
74.78,39.0
74.84,38.0
74.91,21.0
74.97,33.0
75.03,23.0
75.1,22.0
75.16,36.0
75.22,42.0
75.29,3.0
75.35,6.0
75.41,20.0
75.47,19.0
75.54,36.0
75.6,19.0
75.66,32.0
75.73,27.0
75.79,32.0
75.85,20.0
75.92,-2.0
75.98,6.0
76.04,37.0
76.1,47.0
76.17,71.0
76.23,62.0
76.29,66.0
76.36,47.0
76.42,51.0
76.48,64.0
76.55,44.0
76.61,49.0
76.67,37.0
76.73,55.0
76.8,50.0
76.86,45.0
76.92,60.0
76.99,41.0
77.05,38.0
77.11,19.0
77.18,42.0
77.24,42.0
77.3,53.0
77.36,27.0
77.43,33.0
77.49,23.0
77.55,23.0
77.62,40.0
77.68,40.0
77.74,30.0
77.81,15.0
77.87,34.0
77.93,18.0
77.99,31.0
78.06,30.0
78.12,22.0
78.18,44.0
78.25,45.0
78.31,31.0
78.37,10.0
78.44,31.0
78.5,43.0
78.56,56.0
78.62,63.0
78.69,44.0
78.75,29.0
78.81,53.0
78.88,37.0
78.94,22.0
79.0,36.0
79.07,31.0
79.13,49.0
79.19,50.0
79.25,26.0
79.32,6.0
79.38,29.0
79.44,20.0
79.51,35.0
79.57,37.0
79.63,22.0
79.7,35.0
79.76,21.0
79.82,30.0
79.88,11.0
79.95,3.0
80.01,-12.0
80.07,20.0
80.14,-11.0
80.2,1.0
80.26,26.0
80.33,10.0
80.39,0.0
80.45,-19.0
80.51,-15.0
80.58,-19.0
80.64,-22.0
80.7,-15.0
80.77,3.0
80.83,-9.0
80.89,-13.0
80.96,1.0
81.02,13.0
81.08,-17.0
81.14,-6.0
81.21,12.0
81.27,-10.0
81.33,-8.0
81.4,-1.0
81.46,-20.0
81.52,-26.0
81.59,1.0
81.65,16.0
81.71,-3.0
81.77,-4.0
81.84,-22.0
81.9,2.0
81.96,7.0
82.03,-2.0
82.09,-14.0
82.15,-14.0
82.22,1.0
82.28,1.0
82.34,2.0
82.4,-3.0
82.47,9.0
82.53,-5.0
82.59,3.0
82.66,-16.0
82.72,-7.0
82.78,14.0
82.85,-14.0
82.91,7.0
82.97,-6.0
83.03,9.0
83.1,-9.0
83.16,18.0
83.22,8.0
83.29,15.0
83.35,-6.0
83.41,-14.0
83.48,43.0
83.54,3.0
83.6,1.0
83.66,-2.0
83.73,6.0
83.79,18.0
83.85,-16.0
83.92,-3.0
83.98,6.0
84.04,36.0
84.11,25.0
84.17,-11.0
84.23,-10.0
84.29,2.0
84.36,15.0
84.42,14.0
84.48,-8.0
84.55,19.0
84.61,18.0
84.67,-1.0
84.74,-1.0
84.8,0.0
84.86,-3.0
84.92,22.0
84.99,10.0
85.05,-9.0
85.11,15.0
85.18,10.0
85.24,4.0
85.3,-14.0
85.37,22.0
85.43,2.0
85.49,-5.0
85.55,-7.0
85.62,0.0
85.68,12.0
85.74,-2.0
85.81,-6.0
85.87,23.0
85.93,-1.0
86.0,6.0
86.06,15.0
86.12,14.0
86.18,4.0
86.25,22.0
86.31,16.0
86.37,27.0
86.44,30.0
86.5,14.0
86.56,39.0
86.63,12.0
86.69,17.0
86.75,34.0
86.81,16.0
86.88,6.0
86.94,-1.0
87.0,-18.0
87.07,-29.0
87.13,-19.0
87.19,-25.0
87.26,-20.0
87.32,-28.0
87.38,-27.0
87.44,-52.0
87.51,-52.0
87.57,-42.0
87.63,-35.0
87.7,-32.0
87.76,-39.0
87.82,-41.0
87.89,-36.0
87.95,-30.0
88.01,-53.0
88.07,-57.0
88.14,-58.0
88.2,-71.0
88.26,-51.0
88.33,-65.0
88.39,-65.0
88.45,-56.0
88.52,-102.0
88.58,-90.0
88.64,-61.0
88.7,-54.0
88.77,-90.0
88.83,-73.0
88.89,-82.0
88.96,-82.0
89.02,-88.0
89.08,-72.0
89.15,-92.0
89.21,-82.0
89.27,-80.0
89.33,-88.0
89.4,-97.0
89.46,-99.0
89.52,-85.0
89.59,-85.0
89.65,-86.0
89.71,-96.0
89.78,-77.0
89.84,-76.0
89.9,-81.0
89.96,-60.0
90.03,-47.0
90.09,-69.0
90.15,-77.0
90.22,-69.0
90.28,-82.0
90.34,-67.0
90.41,-67.0
90.47,-75.0
90.53,-80.0
90.59,-84.0
90.66,-71.0
90.72,-74.0
90.78,-93.0
90.85,-77.0
90.91,-68.0
90.97,-83.0
91.04,-100.0
91.1,-83.0
91.16,-71.0
91.22,-84.0
91.29,-60.0
91.35,-75.0
91.41,-54.0
91.48,-46.0
91.54,-56.0
91.6,-51.0
91.67,-57.0
91.73,-53.0
91.79,-28.0
91.85,-46.0
91.92,-40.0
91.98,-17.0
92.04,-11.0
92.11,-6.0
92.17,-6.0
92.23,7.0
92.3,11.0
92.36,5.0
92.42,19.0
92.48,9.0
92.55,17.0
92.61,29.0
92.67,33.0
92.74,45.0
92.8,64.0
92.86,43.0
92.93,47.0
92.99,69.0
93.05,44.0
93.11,41.0
93.18,49.0
93.24,36.0
93.3,34.0
93.37,64.0
93.43,84.0
93.49,68.0
93.56,73.0
93.62,58.0
93.68,78.0
93.74,82.0
93.81,92.0
93.87,93.0
93.93,89.0
94.0,85.0
94.06,74.0
94.12,78.0
94.19,85.0
94.25,78.0
94.31,78.0
94.37,78.0
94.44,89.0
94.5,84.0
94.56,95.0
94.63,89.0
94.69,89.0
94.75,108.0
94.82,98.0
94.88,97.0
94.94,129.0
95.0,113.0
95.07,100.0
95.13,119.0
95.19,97.0
95.26,88.0
95.32,88.0
95.38,89.0
95.45,105.0
95.51,109.0
95.57,94.0
95.63,106.0
95.7,112.0
95.76,104.0
95.82,124.0
95.89,81.0
95.95,82.0
96.01,100.0
96.08,98.0
96.14,124.0
96.2,119.0
96.26,111.0
96.33,104.0
96.39,124.0
96.45,107.0
96.52,117.0
96.58,115.0
96.64,128.0
96.71,121.0
96.77,121.0
96.83,116.0
96.89,105.0
96.96,134.0
97.02,130.0
97.08,116.0
97.15,122.0
97.21,125.0
97.27,126.0
97.34,111.0
97.4,81.0
97.46,72.0
97.52,87.0
97.59,85.0
97.65,72.0
97.71,62.0
97.78,74.0
97.84,58.0
97.9,44.0
97.97,60.0
98.03,71.0
98.09,81.0
98.15,57.0
98.22,59.0
98.28,63.0
98.34,56.0
98.41,64.0
98.47,67.0
98.53,78.0
98.6,91.0
98.66,54.0
98.72,46.0
98.78,56.0
98.85,59.0
98.91,61.0
98.97,60.0
99.04,66.0
99.1,83.0
99.16,75.0
99.23,44.0
99.29,62.0
99.35,64.0
99.41,59.0
99.48,48.0
99.54,57.0
99.6,63.0
99.67,52.0
99.73,74.0
99.79,55.0
99.86,50.0
99.92,63.0
99.98,59.0
100.04,45.0
100.11,55.0
100.17,64.0
100.23,66.0
100.3,56.0
100.36,78.0
100.42,80.0
100.49,84.0
100.55,79.0
100.61,78.0
100.67,53.0
100.74,69.0
100.8,72.0
100.86,67.0
100.93,82.0
100.99,83.0
101.05,51.0
101.12,66.0
101.18,58.0
101.24,32.0
101.3,44.0
101.37,42.0
101.43,23.0
101.49,21.0
101.56,53.0
101.62,40.0
101.68,55.0
101.75,53.0
101.81,23.0
101.87,36.0
101.93,30.0
102.0,24.0
102.06,37.0
102.12,35.0
102.19,26.0
102.25,11.0
102.31,15.0
102.38,2.0
102.44,15.0
102.5,8.0
102.56,-5.0
102.63,22.0
102.69,13.0
102.75,23.0
102.82,23.0
102.88,15.0
102.94,15.0
103.01,0.0
103.07,20.0
103.13,15.0
103.19,26.0
103.26,4.0
103.32,20.0
103.38,23.0
103.45,23.0
103.51,20.0
103.57,35.0
103.64,46.0
103.7,31.0
103.76,22.0
103.82,29.0
103.89,20.0
103.95,11.0
104.01,-3.0
104.08,5.0
104.14,18.0
104.2,13.0
104.27,39.0
104.33,14.0
104.39,4.0
104.45,-1.0
104.52,6.0
104.58,13.0
104.64,5.0
104.71,29.0
104.77,4.0
104.83,-5.0
104.9,-5.0
104.96,8.0
105.02,-8.0
105.08,6.0
105.15,2.0
105.21,-5.0
105.27,-12.0
105.34,-9.0
105.4,-4.0
105.46,2.0
105.53,9.0
105.59,-2.0
105.65,-8.0
105.71,-38.0
105.78,-32.0
105.84,-42.0
105.9,-20.0
105.97,-28.0
106.03,-51.0
106.09,-40.0
106.16,-54.0
106.22,-63.0
106.28,-38.0
106.34,-41.0
106.41,-58.0
106.47,-37.0
106.53,-49.0
106.6,-41.0
106.66,-37.0
106.72,-40.0
106.79,-28.0
106.85,-13.0
106.91,-42.0
106.97,-48.0
107.04,-39.0
107.1,-40.0
107.16,-11.0
107.23,-13.0
107.29,-29.0
107.35,-7.0
107.42,-3.0
107.48,-15.0
107.54,-4.0
107.6,-15.0
107.67,-22.0
107.73,8.0
107.79,14.0
107.86,-2.0
107.92,5.0
107.98,7.0
108.05,27.0
108.11,39.0
108.17,21.0
108.23,29.0
108.3,44.0
108.36,30.0
108.42,28.0
108.49,29.0
108.55,24.0
108.61,27.0
108.68,25.0
108.74,55.0
108.8,55.0
108.86,61.0
108.93,75.0
108.99,65.0
109.05,85.0
109.12,86.0
109.18,74.0
109.24,66.0
109.31,59.0
109.37,58.0
109.43,99.0
109.49,93.0
109.56,81.0
109.62,70.0
109.68,99.0
109.75,97.0
109.81,83.0
109.87,77.0
109.94,105.0
110.0,92.0
110.06,110.0
110.12,99.0
110.19,90.0
110.25,99.0
110.31,60.0
110.38,92.0
110.44,102.0
110.5,83.0
110.57,93.0
110.63,85.0
110.69,70.0
110.75,94.0
110.82,94.0
110.88,101.0
110.94,80.0
111.01,82.0
111.07,75.0
111.13,70.0
111.2,64.0
111.26,98.0
111.32,96.0
111.38,81.0
111.45,74.0
111.51,90.0
111.57,83.0
111.64,86.0
111.7,103.0
111.76,91.0
111.83,95.0
111.89,88.0
111.95,105.0
112.01,114.0
112.08,114.0
112.14,97.0
112.2,121.0
112.27,102.0
112.33,119.0
112.39,143.0
112.46,121.0
112.52,125.0
112.58,111.0
112.64,141.0
112.71,129.0
112.77,137.0
112.83,143.0
112.9,139.0
112.96,132.0
113.02,132.0
113.09,116.0
113.15,127.0
113.21,135.0
113.27,138.0
113.34,110.0
113.4,110.0
113.46,114.0
113.53,96.0
113.59,113.0
113.65,90.0
113.72,95.0
113.78,77.0
113.84,62.0
113.9,81.0
113.97,90.0
114.03,75.0
114.09,67.0
114.16,66.0
114.22,74.0
114.28,69.0
114.35,75.0
114.41,93.0
114.47,71.0
114.53,65.0
114.6,73.0
114.66,73.0
114.72,76.0
114.79,65.0
114.85,64.0
114.91,85.0
114.98,66.0
115.04,69.0
115.1,81.0
115.16,75.0
115.23,85.0
115.29,88.0
115.35,74.0
115.42,77.0
115.48,76.0
115.54,77.0
115.61,84.0
115.67,76.0
115.73,77.0
115.79,66.0
115.86,77.0
115.92,92.0
115.98,80.0
116.05,69.0
116.11,85.0
116.17,63.0
116.24,62.0
116.3,56.0
116.36,44.0
116.42,50.0
116.49,33.0
116.55,49.0
116.61,66.0
116.68,56.0
116.74,60.0
116.8,49.0
116.87,49.0
116.93,58.0
116.99,53.0
117.05,44.0
117.12,47.0
117.18,44.0
117.24,37.0
117.31,44.0
117.37,23.0
117.43,25.0
117.5,42.0
117.56,31.0
117.62,33.0
117.68,33.0
117.75,39.0
117.81,13.0
117.87,17.0
117.94,9.0
118.0,12.0
118.06,37.0
118.13,35.0
118.19,42.0
118.25,26.0
118.31,36.0
118.38,38.0
118.44,37.0
118.5,55.0
118.57,44.0
118.63,56.0
118.69,62.0
118.76,33.0
118.82,35.0
118.88,39.0
118.94,48.0
119.01,57.0
119.07,37.0
119.13,60.0
119.2,68.0
119.26,77.0
119.32,82.0
119.39,71.0
119.45,55.0
119.51,67.0
119.57,60.0
119.64,80.0
119.7,83.0
119.76,77.0
119.83,67.0
119.89,74.0
119.95,83.0
120.02,67.0
120.08,48.0
120.14,54.0
120.2,44.0
120.27,38.0
120.33,53.0
120.39,59.0
120.46,68.0
120.52,61.0
120.58,62.0
120.65,38.0
120.71,26.0
120.77,31.0
120.83,18.0
120.9,26.0
120.96,10.0
121.02,8.0
121.09,14.0
121.15,28.0
121.21,9.0
121.28,15.0
121.34,19.0
121.4,26.0
121.46,20.0
121.53,-5.0
121.59,2.0
121.65,10.0
121.72,2.0
121.78,-22.0
121.84,-11.0
121.91,-19.0
121.97,-43.0
122.03,-25.0
122.09,-18.0
122.16,-14.0
122.22,0.0
122.28,-8.0
122.35,1.0
122.41,0.0
122.47,10.0
122.54,9.0
122.6,-10.0
122.66,3.0
122.72,-10.0
122.79,4.0
122.85,8.0
122.91,15.0
122.98,25.0
123.04,21.0
123.1,22.0
123.17,15.0
123.23,12.0
123.29,-10.0
123.35,6.0
123.42,11.0
123.48,20.0
123.54,10.0
123.61,6.0
123.67,4.0
123.73,9.0
123.8,14.0
123.86,6.0
123.92,8.0
123.98,13.0
124.05,4.0
124.11,-10.0
124.17,0.0
124.24,20.0
124.3,15.0
124.36,17.0
124.43,15.0
124.49,34.0
124.55,23.0
124.61,18.0
124.68,23.0
124.74,46.0
124.8,37.0
124.87,48.0
124.93,46.0
124.99,63.0
125.06,62.0
125.12,28.0
125.18,42.0
125.24,20.0
125.31,29.0
125.37,39.0
125.43,38.0
125.5,35.0
125.56,30.0
125.62,25.0
125.69,50.0
125.75,42.0
125.81,47.0
125.87,78.0
125.94,79.0
126.0,61.0
126.06,83.0
126.13,92.0
126.19,81.0
126.25,95.0
126.32,85.0
126.38,86.0
126.44,83.0
126.5,70.0
126.57,87.0
126.63,108.0
126.69,99.0
126.76,98.0
126.82,81.0
126.88,87.0
126.95,93.0
127.01,90.0
127.07,100.0
127.13,84.0
127.2,69.0
127.26,82.0
127.32,98.0
127.39,100.0
127.45,106.0
127.51,112.0
127.58,118.0
127.64,109.0
127.7,96.0
127.76,108.0
127.83,120.0
127.89,108.0
127.95,106.0
128.02,113.0
128.08,99.0
128.14,117.0
128.21,109.0
128.27,89.0
128.33,89.0
128.39,100.0
128.46,83.0
128.52,93.0
128.58,100.0
128.65,76.0
128.71,80.0
128.77,82.0
128.84,86.0
128.9,89.0
128.96,80.0
129.02,91.0
129.09,90.0
129.15,90.0
129.21,75.0
129.28,83.0
129.34,85.0
129.4,91.0
129.47,62.0
129.53,76.0
129.59,64.0
129.65,52.0
129.72,51.0
129.78,77.0
129.84,63.0
129.91,64.0
129.97,72.0
130.03,89.0
130.1,87.0
130.16,87.0
130.22,76.0
130.28,86.0
130.35,87.0
130.41,83.0
130.47,77.0
130.54,72.0
130.6,93.0
130.66,87.0
130.73,93.0
130.79,88.0
130.85,85.0
130.91,89.0
130.98,70.0
131.04,63.0
131.1,72.0
131.17,58.0
131.23,49.0
131.29,61.0
131.36,39.0
131.42,28.0
131.48,62.0
131.54,46.0
131.61,36.0
131.67,36.0
131.73,47.0
131.8,25.0
131.86,23.0
131.92,43.0
131.99,39.0
132.05,23.0
132.11,36.0
132.17,32.0
132.24,41.0
132.3,49.0
132.36,58.0
132.43,57.0
132.49,69.0
132.55,54.0
132.62,59.0
132.68,57.0
132.74,58.0
132.8,62.0
132.87,54.0
132.93,77.0
132.99,78.0
133.06,63.0
133.12,68.0
133.18,82.0
133.25,69.0
133.31,54.0
133.37,43.0
133.43,71.0
133.5,68.0
133.56,42.0
133.62,65.0
133.69,40.0
133.75,45.0
133.81,68.0
133.88,60.0
133.94,87.0
134.0,113.0
134.06,94.0
134.13,84.0
134.19,59.0
134.25,57.0
134.32,82.0
134.38,89.0
134.44,83.0
134.51,83.0
134.57,68.0
134.63,48.0
134.69,57.0
134.76,44.0
134.82,64.0
134.88,57.0
134.95,28.0
135.01,56.0
135.07,58.0
135.14,39.0
135.2,30.0
135.26,40.0
135.32,45.0
135.39,48.0
135.45,64.0
135.51,65.0
135.58,43.0
135.64,34.0
135.7,48.0
135.77,43.0
135.83,24.0
135.89,29.0
135.95,26.0
136.02,17.0
136.08,13.0
136.14,16.0
136.21,29.0
136.27,25.0
136.33,24.0
136.4,43.0
136.46,43.0
136.52,30.0
136.58,21.0
136.65,21.0
136.71,12.0
136.77,32.0
136.84,31.0
136.9,31.0
136.96,27.0
137.03,39.0
137.09,47.0
137.15,42.0
137.21,43.0
137.28,38.0
137.34,47.0
137.4,50.0
137.47,34.0
137.53,29.0
137.59,39.0
137.66,41.0
137.72,62.0
137.78,52.0
137.84,40.0
137.91,35.0
137.97,61.0
138.03,54.0
138.1,35.0
138.16,17.0
138.22,28.0
138.29,18.0
138.35,6.0
138.41,-6.0
138.47,6.0
138.54,-3.0
138.6,-6.0
138.66,19.0
138.73,26.0
138.79,16.0
138.85,3.0
138.92,25.0
138.98,22.0
139.04,26.0
139.1,29.0
139.17,2.0
139.23,-10.0
139.29,-22.0
139.36,0.0
139.42,-7.0
139.48,-5.0
139.55,-8.0
139.61,-5.0
139.67,-9.0
139.73,-8.0
139.8,-1.0
139.86,15.0
139.92,5.0
139.99,18.0
140.05,16.0
140.11,11.0
140.18,19.0
140.24,-4.0
140.3,10.0
140.36,2.0
140.43,-17.0
140.49,-11.0
140.55,7.0
140.62,12.0
140.68,26.0
140.74,10.0
140.81,12.0
140.87,40.0
140.93,39.0
140.99,51.0
141.06,41.0
141.12,31.0
141.18,29.0
141.25,53.0
141.31,35.0
141.37,44.0
141.44,44.0
141.5,56.0
141.56,63.0
141.62,48.0
141.69,42.0
141.75,65.0
141.81,59.0
141.88,37.0
141.94,53.0
142.0,62.0
142.07,54.0
142.13,48.0
142.19,30.0
142.25,30.0
142.32,33.0
142.38,31.0
142.44,36.0
142.51,40.0
142.57,41.0
142.63,54.0
142.7,51.0
142.76,43.0
142.82,44.0
142.88,52.0
142.95,55.0
143.01,77.0
143.07,83.0
143.14,62.0
143.2,47.0
143.26,56.0
143.33,72.0
143.39,66.0
143.45,83.0
143.51,99.0
143.58,91.0
143.64,88.0
143.7,86.0
143.77,69.0
143.83,71.0
143.89,86.0
143.96,82.0
144.02,73.0
144.08,79.0
144.14,60.0
144.21,77.0
144.27,84.0
144.33,82.0
144.4,84.0
144.46,64.0
144.52,75.0
144.59,53.0
144.65,64.0
144.71,66.0
144.77,52.0
144.84,43.0
144.9,55.0
144.96,58.0
145.03,74.0
145.09,80.0
145.15,67.0
145.22,84.0
145.28,55.0
145.34,63.0
145.4,72.0
145.47,82.0
145.53,76.0
145.59,60.0
145.66,85.0
145.72,87.0
145.78,57.0
145.85,93.0
145.91,76.0
145.97,87.0
146.03,96.0
146.1,73.0
146.16,96.0
146.22,110.0
146.29,104.0
146.35,88.0
146.41,98.0
146.47,103.0
146.54,98.0
146.6,95.0
146.66,56.0
146.73,59.0
146.79,62.0
146.85,59.0
146.92,62.0
146.98,47.0
147.04,47.0
147.1,46.0
147.17,50.0
147.23,26.0
147.29,44.0
147.36,32.0
147.42,21.0
147.48,42.0
147.55,36.0
147.61,41.0
147.67,45.0
147.73,52.0
147.8,46.0
147.86,33.0
147.92,52.0
147.99,70.0
148.05,59.0
148.11,33.0
148.18,37.0
148.24,40.0
148.3,37.0
148.36,48.0
148.43,22.0
148.49,33.0
148.55,30.0
148.62,61.0
148.68,51.0
148.74,54.0
148.81,88.0
148.87,54.0
148.93,43.0
148.99,63.0
149.06,69.0
149.12,59.0
149.18,74.0
149.25,87.0
149.31,108.0
149.37,105.0
149.44,99.0
149.5,111.0
149.56,109.0
149.62,99.0
149.69,112.0
149.75,120.0
149.81,114.0
149.88,112.0
149.94,124.0
150.0,89.0
150.07,88.0
150.13,105.0
150.19,107.0
150.25,77.0
150.32,112.0
150.38,101.0
150.44,113.0
150.51,111.0
150.57,123.0
150.63,117.0
150.7,114.0
150.76,119.0
150.82,99.0
150.88,131.0
150.95,141.0
151.01,137.0
151.07,128.0
151.14,135.0
151.2,144.0
151.26,166.0
151.33,123.0
151.39,154.0
151.45,150.0
151.51,134.0
151.58,128.0
151.64,134.0
151.7,130.0
151.77,128.0
151.83,127.0
151.89,119.0
151.96,118.0
152.02,128.0
152.08,108.0
152.14,91.0
152.21,125.0
152.27,97.0
152.33,77.0
152.4,87.0
152.46,67.0
152.52,64.0
152.59,74.0
152.65,80.0
152.71,95.0
152.77,99.0
152.84,84.0
152.9,86.0
152.96,90.0
153.03,61.0
153.09,65.0
153.15,90.0
153.22,93.0
153.28,83.0
153.34,57.0
153.4,53.0
153.47,52.0
153.53,64.0
153.59,66.0
153.66,58.0
153.72,68.0
153.78,59.0
153.85,57.0
153.91,59.0
153.97,62.0
154.03,56.0
154.1,49.0
154.16,46.0
154.22,46.0
154.29,51.0
154.35,65.0
154.41,46.0
154.48,46.0
154.54,47.0
154.6,54.0
154.66,50.0
154.73,42.0
154.79,40.0
154.85,19.0
154.92,14.0
154.98,9.0
155.04,15.0
155.11,25.0
155.17,26.0
155.23,18.0
155.29,1.0
155.36,-10.0
155.42,-3.0
155.48,-31.0
155.55,-11.0
155.61,-38.0
155.67,-31.0
155.74,13.0
155.8,13.0
155.86,-5.0
155.92,-9.0
155.99,4.0
156.05,-3.0
156.11,1.0
156.18,5.0
156.24,13.0
156.3,-3.0
156.37,-8.0
156.43,-5.0
156.49,12.0
156.55,-4.0
156.62,12.0
156.68,1.0
156.74,8.0
156.81,-16.0
156.87,-24.0
156.93,-2.0
157.0,11.0
157.06,4.0
157.12,-16.0
157.18,10.0
157.25,-10.0
157.31,-21.0
157.37,-5.0
157.44,-6.0
157.5,8.0
157.56,-5.0
157.63,-5.0
157.69,16.0
157.75,23.0
157.81,24.0
157.88,5.0
157.94,34.0
158.0,26.0
158.07,35.0
158.13,43.0
158.19,57.0
158.26,41.0
158.32,21.0
158.38,35.0
158.44,69.0
158.51,76.0
158.57,73.0
158.63,67.0
158.7,74.0
158.76,65.0
158.82,56.0
158.89,63.0
158.95,94.0
159.01,87.0
159.07,91.0
159.14,83.0
159.2,84.0
159.26,68.0
159.33,63.0
159.39,71.0
159.45,68.0
159.52,67.0
159.58,78.0
159.64,65.0
159.7,68.0
159.77,76.0
159.83,73.0
159.89,88.0
159.96,76.0
160.02,86.0
160.08,95.0
160.15,94.0
160.21,99.0
160.27,102.0
160.33,109.0
160.4,122.0
160.46,131.0
160.52,116.0
160.59,110.0
160.65,97.0
160.71,93.0
160.78,108.0
160.84,106.0
160.9,127.0
160.96,103.0
161.03,93.0
161.09,126.0
161.15,113.0
161.22,116.0
161.28,118.0
161.34,110.0
161.41,122.0
161.47,101.0
161.53,98.0
161.59,92.0
161.66,98.0
161.72,71.0
161.78,89.0
161.85,96.0
161.91,110.0
161.97,128.0
162.04,90.0
162.1,92.0
162.16,98.0
162.22,113.0
162.29,135.0
162.35,110.0
162.41,104.0
162.48,109.0
162.54,98.0
162.6,95.0
162.67,127.0
162.73,115.0
162.79,109.0
162.85,108.0
162.92,104.0
162.98,132.0
163.04,124.0
163.11,120.0
163.17,131.0
163.23,119.0
163.3,100.0
163.36,105.0
163.42,110.0
163.48,121.0
163.55,124.0
163.61,113.0
163.67,89.0
163.74,95.0
163.8,97.0
163.86,84.0
163.93,85.0
163.99,72.0
164.05,55.0
164.11,58.0
164.18,63.0
164.24,54.0
164.3,56.0
164.37,65.0
164.43,63.0
164.49,28.0
164.56,64.0
164.62,65.0
164.68,65.0
164.74,71.0
164.81,55.0
164.87,66.0
164.93,56.0
165.0,71.0
165.06,60.0
165.12,61.0
165.19,61.0
165.25,48.0
165.31,74.0
165.37,42.0
165.44,41.0
165.5,51.0
165.56,52.0
165.63,74.0
165.69,47.0
165.75,41.0
165.82,50.0
165.88,44.0
165.94,80.0
166.0,63.0
166.07,50.0
166.13,46.0
166.19,40.0
166.26,47.0
166.32,47.0
166.38,48.0
166.45,46.0
166.51,61.0
166.57,46.0
166.63,20.0
166.7,26.0
166.76,54.0
166.82,50.0
166.89,45.0
166.95,52.0
167.01,55.0
167.08,50.0
167.14,29.0
167.2,54.0
167.26,47.0
167.33,47.0
167.39,60.0
167.45,48.0
167.52,41.0
167.58,53.0
167.64,66.0
167.71,48.0
167.77,55.0
167.83,43.0
167.89,58.0
167.96,52.0
168.02,47.0
168.08,27.0
168.15,26.0
168.21,28.0
168.27,38.0
168.34,48.0
168.4,41.0
168.46,43.0
168.52,58.0
168.59,57.0
168.65,60.0
168.71,62.0
168.78,67.0
168.84,77.0
168.9,76.0
168.97,68.0
169.03,75.0
169.09,79.0
169.15,88.0
169.22,87.0
169.28,65.0
169.34,58.0
169.41,55.0
169.47,58.0
169.53,40.0
169.6,37.0
169.66,49.0
169.72,45.0
169.78,59.0
169.85,57.0
169.91,47.0
169.97,65.0
170.04,75.0
170.1,44.0
170.16,43.0
170.23,56.0
170.29,51.0
170.35,49.0
170.41,53.0
170.48,50.0
170.54,65.0
170.6,81.0
170.67,66.0
170.73,48.0
170.79,57.0
170.86,65.0
170.92,63.0
170.98,73.0
171.04,72.0
171.11,68.0
171.17,77.0
171.23,71.0
171.3,70.0
171.36,57.0
171.42,50.0
171.49,54.0
171.55,34.0
171.61,28.0
171.67,29.0
171.74,45.0
171.8,17.0
171.86,19.0
171.93,11.0
171.99,36.0
172.05,22.0
172.12,31.0
172.18,35.0
172.24,36.0
172.3,29.0
172.37,-8.0
172.43,2.0
172.49,-9.0
172.56,-16.0
172.62,-11.0
172.68,-17.0
172.75,-12.0
172.81,-17.0
172.87,-21.0
172.93,-35.0
173.0,-29.0
173.06,-23.0
173.12,-45.0
173.19,-23.0
173.25,-21.0
173.31,-33.0
173.38,-25.0
173.44,-23.0
173.5,-7.0
173.56,-9.0
173.63,-10.0
173.69,2.0
173.75,-16.0
173.82,-9.0
173.88,7.0
173.94,8.0
174.01,0.0
174.07,8.0
174.13,3.0
174.19,19.0
174.26,7.0
174.32,-5.0
174.38,-1.0
174.45,-3.0
174.51,-20.0
174.57,0.0
174.64,3.0
174.7,9.0
174.76,17.0
174.82,-15.0
174.89,9.0
174.95,16.0
175.01,22.0
175.08,42.0
175.14,31.0
175.2,18.0
175.27,33.0
175.33,50.0
175.39,36.0
175.45,39.0
175.52,51.0
175.58,58.0
175.64,66.0
175.71,67.0
175.77,64.0
175.83,80.0
175.9,111.0
175.96,91.0
176.02,84.0
176.08,110.0
176.15,110.0
176.21,95.0
176.27,126.0
176.34,121.0
176.4,110.0
176.46,109.0
176.53,94.0
176.59,102.0
176.65,124.0
176.71,132.0
176.78,146.0
176.84,137.0
176.9,119.0
176.97,112.0
177.03,124.0
177.09,121.0
177.16,139.0
177.22,150.0
177.28,151.0
177.34,155.0
177.41,151.0
177.47,147.0
177.53,153.0
177.6,173.0
177.66,144.0
177.72,125.0
177.79,135.0
177.85,135.0
177.91,131.0
177.97,161.0
178.04,138.0
178.1,130.0
178.16,141.0
178.23,138.0
178.29,150.0
178.35,142.0
178.42,158.0
178.48,143.0
178.54,132.0
178.6,147.0
178.67,147.0
178.73,135.0
178.79,136.0
178.86,150.0
178.92,141.0
178.98,151.0
179.05,132.0
179.11,139.0
179.17,133.0
179.23,144.0
179.3,141.0
179.36,136.0
179.42,139.0
179.49,151.0
179.55,141.0
179.61,137.0
179.68,109.0
179.74,135.0
179.8,128.0
179.86,122.0
179.93,147.0
179.99,118.0
180.05,135.0
180.12,130.0
180.18,124.0
180.24,136.0
180.31,125.0
180.37,133.0
180.43,130.0
180.49,150.0
180.56,144.0
180.62,150.0
180.68,134.0
180.75,139.0
180.81,119.0
180.87,122.0
180.94,142.0
181.0,124.0
181.06,116.0
181.12,102.0
181.19,120.0
181.25,104.0
181.31,110.0
181.38,113.0
181.44,105.0
181.5,111.0
181.57,99.0
181.63,101.0
181.69,106.0
181.75,126.0
181.82,107.0
181.88,91.0
181.94,84.0
182.01,97.0
182.07,114.0
182.13,114.0
182.2,111.0
182.26,120.0
182.32,119.0
182.38,98.0
182.45,92.0
182.51,109.0
182.57,105.0
182.64,103.0
182.7,94.0
182.76,62.0
182.83,74.0
182.89,54.0
182.95,74.0
183.01,83.0
183.08,88.0
183.14,73.0
183.2,86.0
183.27,94.0
183.33,92.0
183.39,77.0
183.46,50.0
183.52,55.0
183.58,46.0
183.64,58.0
183.71,51.0
183.77,71.0
183.83,84.0
183.9,67.0
183.96,76.0
184.02,60.0
184.09,67.0
184.15,57.0
184.21,62.0
184.27,69.0
184.34,84.0
184.4,95.0
184.46,64.0
184.53,78.0
184.59,54.0
184.65,56.0
184.72,68.0
184.78,56.0
184.84,62.0
184.9,72.0
184.97,67.0
185.03,77.0
185.09,80.0
185.16,89.0
185.22,96.0
185.28,94.0
185.35,88.0
185.41,91.0
185.47,105.0
185.53,73.0
185.6,111.0
185.66,103.0
185.72,97.0
185.79,106.0
185.85,99.0
185.91,89.0
185.98,100.0
186.04,129.0
186.1,117.0
186.16,120.0
186.23,109.0
186.29,104.0
186.35,113.0
186.42,91.0
186.48,85.0
186.54,74.0
186.61,70.0
186.67,60.0
186.73,85.0
186.79,43.0
186.86,25.0
186.92,47.0
186.98,46.0
187.05,58.0
187.11,40.0
187.17,51.0
187.24,44.0
187.3,45.0
187.36,30.0
187.42,36.0
187.49,30.0
187.55,26.0
187.61,25.0
187.68,39.0
187.74,20.0
187.8,33.0
187.87,41.0
187.93,36.0
187.99,38.0
188.05,34.0
188.12,34.0
188.18,22.0
188.24,21.0
188.31,7.0
188.37,0.0
188.43,-5.0
188.5,3.0
188.56,-7.0
188.62,-13.0
188.68,-4.0
188.75,-24.0
188.81,-17.0
188.87,-8.0
188.94,-24.0
189.0,-26.0
189.06,-16.0
189.13,-12.0
189.19,-12.0
189.25,-5.0
189.31,-9.0
189.38,-21.0
189.44,-40.0
189.5,-44.0
189.57,-44.0
189.63,-60.0
189.69,-50.0
189.76,-58.0
189.82,-49.0
189.88,-41.0
189.94,-46.0
190.01,-46.0
190.07,-54.0
190.13,-23.0
190.2,-22.0
190.26,-33.0
190.32,-37.0
190.39,-44.0
190.45,-62.0
190.51,-31.0
190.57,-43.0
190.64,-34.0
190.7,-48.0
190.76,-35.0
190.83,-10.0
190.89,-31.0
190.95,-12.0
191.02,-30.0
191.08,-21.0
191.14,-21.0
191.2,-21.0
191.27,-10.0
191.33,-4.0
191.39,-12.0
191.46,5.0
191.52,5.0
191.58,-24.0
191.65,-10.0
191.71,-1.0
191.77,-9.0
191.83,-19.0
191.9,-7.0
191.96,19.0
192.02,1.0
192.09,8.0
192.15,16.0
192.21,17.0
192.28,19.0
192.34,13.0
192.4,16.0
192.46,22.0
192.53,34.0
192.59,28.0
192.65,48.0
192.72,49.0
192.78,52.0
192.84,41.0
192.91,52.0
192.97,62.0
193.03,36.0
193.09,48.0
193.16,65.0
193.22,65.0
193.28,51.0
193.35,52.0
193.41,59.0
193.47,72.0
193.54,69.0
193.6,66.0
193.66,66.0
193.72,61.0
193.79,45.0
193.85,53.0
193.91,49.0
193.98,53.0
194.04,62.0
194.1,39.0
194.17,36.0
194.23,43.0
194.29,65.0
194.35,74.0
194.42,63.0
194.48,85.0
194.54,82.0
194.61,85.0
194.67,101.0
194.73,86.0
194.8,98.0
194.86,99.0
194.92,106.0
194.98,94.0
195.05,96.0
195.11,75.0
195.17,78.0
195.24,102.0
195.3,99.0
195.36,114.0
195.43,85.0
195.49,83.0
195.55,91.0
195.61,82.0
195.68,78.0
195.74,63.0
195.8,81.0
195.87,91.0
195.93,91.0
195.99,82.0
196.06,84.0
196.12,91.0
196.18,103.0
196.24,94.0
196.31,87.0
196.37,93.0
196.43,78.0
196.5,96.0
196.56,81.0
196.62,86.0
196.69,94.0
196.75,120.0
196.81,102.0
196.87,107.0
196.94,106.0
197.0,111.0
197.06,120.0
197.13,102.0
197.19,83.0
197.25,72.0
197.32,91.0
197.38,88.0
197.44,79.0
197.5,91.0
197.57,76.0
197.63,78.0
197.69,114.0
197.76,131.0
197.82,111.0
197.88,127.0
197.95,93.0
198.01,97.0
198.07,102.0
198.13,95.0
198.2,98.0
198.26,97.0
198.32,108.0
198.39,92.0
198.45,85.0
198.51,102.0
198.58,96.0
198.64,96.0
198.7,103.0
198.76,97.0
198.83,101.0
198.89,108.0
198.95,122.0
199.02,107.0
199.08,99.0
199.14,91.0
199.21,95.0
199.27,74.0
199.33,92.0
199.39,93.0
199.46,92.0
199.52,82.0
199.58,68.0
199.65,93.0
199.71,101.0
199.77,96.0
199.84,96.0
199.9,106.0
199.96,111.0
200.02,100.0
200.09,116.0
200.15,108.0
200.21,114.0
200.28,98.0
200.34,110.0
200.4,105.0
200.47,105.0
200.53,115.0
200.59,124.0
200.65,118.0
200.72,94.0
200.78,93.0
200.84,103.0
200.91,96.0
200.97,100.0
201.03,119.0
201.1,118.0
201.16,131.0
201.22,105.0
201.28,132.0
201.35,150.0
201.41,148.0
201.47,159.0
201.54,151.0
201.6,162.0
201.66,177.0
201.73,155.0
201.79,154.0
201.85,157.0
201.91,160.0
201.98,151.0
202.04,183.0
202.1,185.0
202.17,173.0
202.23,170.0
202.29,174.0
202.36,150.0
202.42,157.0
202.48,150.0
202.54,133.0
202.61,164.0
202.67,131.0
202.73,159.0
202.8,140.0
202.86,144.0
202.92,161.0
202.99,153.0
203.05,169.0
203.11,170.0
203.17,149.0
203.24,158.0
203.3,155.0
203.36,167.0
203.43,150.0
203.49,136.0
203.55,146.0
203.62,153.0
203.68,156.0
203.74,158.0
203.8,143.0
203.87,139.0
203.93,115.0
203.99,129.0
204.06,116.0
204.12,113.0
204.18,129.0
204.25,116.0
204.31,111.0
204.37,113.0
204.43,106.0
204.5,109.0
204.56,101.0
204.62,118.0
204.69,129.0
204.75,113.0
204.81,96.0
204.88,105.0
204.94,102.0
205.0,118.0
205.06,126.0
205.13,123.0
205.19,92.0
205.25,94.0
205.32,90.0
205.38,83.0
205.44,101.0
205.51,92.0
205.57,94.0
205.63,98.0
205.69,82.0
205.76,86.0
205.82,91.0
205.88,80.0
205.95,51.0
206.01,61.0
206.07,79.0
206.14,64.0
206.2,65.0
206.26,52.0
206.32,44.0
206.39,66.0
206.45,48.0
206.51,50.0
206.58,56.0
206.64,44.0
206.7,38.0
206.77,49.0
206.83,38.0
206.89,37.0
206.95,45.0
207.02,24.0
207.08,26.0
207.14,34.0
207.21,60.0
207.27,38.0
207.33,50.0
207.4,45.0
207.46,45.0
207.52,50.0
207.58,59.0
207.65,49.0
207.71,52.0
207.77,64.0
207.84,76.0
207.9,75.0
207.96,49.0
208.03,74.0
208.09,57.0
208.15,45.0
208.21,74.0
208.28,58.0
208.34,63.0
208.4,68.0
208.47,52.0
208.53,67.0
208.59,63.0
208.66,63.0
208.72,54.0
208.78,69.0
208.84,64.0
208.91,68.0
208.97,57.0
209.03,60.0
209.1,52.0
209.16,64.0
209.22,81.0
209.29,74.0
209.35,75.0
209.41,41.0
209.47,60.0
209.54,42.0
209.6,33.0
209.66,43.0
209.73,42.0
209.79,41.0
209.85,37.0
209.92,59.0
209.98,80.0
210.04,76.0
210.1,70.0
210.17,63.0
210.23,28.0
210.29,36.0
210.36,58.0
210.42,55.0
210.48,70.0
210.55,83.0
210.61,80.0
210.67,93.0
210.73,81.0
210.8,108.0
210.86,98.0
210.92,97.0
210.99,101.0
211.05,95.0
211.11,88.0
211.18,85.0
211.24,88.0
211.3,92.0
211.36,95.0
211.43,100.0
211.49,74.0
211.55,77.0
211.62,89.0
211.68,98.0
211.74,100.0
211.81,113.0
211.87,113.0
211.93,99.0
211.99,107.0
212.06,121.0
212.12,144.0
212.18,129.0
212.25,132.0
212.31,115.0
212.37,115.0
212.44,109.0
212.5,111.0
212.56,114.0
212.62,125.0
212.69,140.0
212.75,130.0
212.81,133.0
212.88,147.0
212.94,129.0
213.0,123.0
213.07,121.0
213.13,118.0
213.19,137.0
213.25,131.0
213.32,153.0
213.38,144.0
213.44,154.0
213.51,130.0
213.57,99.0
213.63,113.0
213.7,117.0
213.76,135.0
213.82,113.0
213.88,82.0
213.95,107.0
214.01,95.0
214.07,94.0
214.14,108.0
214.2,109.0
214.26,100.0
214.33,88.0
214.39,66.0
214.45,83.0
214.51,94.0
214.58,82.0
214.64,82.0
214.7,62.0
214.77,77.0
214.83,89.0
214.89,82.0
214.96,74.0
215.02,70.0
215.08,67.0
215.14,75.0
215.21,54.0
215.27,54.0
215.33,50.0
215.4,52.0
215.46,67.0
215.52,63.0
215.59,78.0
215.65,68.0
215.71,60.0
215.77,52.0
215.84,37.0
215.9,70.0
215.96,77.0
216.03,59.0
216.09,68.0
216.15,82.0
216.22,99.0
216.28,84.0
216.34,83.0
216.4,82.0
216.47,85.0
216.53,85.0
216.59,83.0
216.66,97.0
216.72,114.0
216.78,117.0
216.85,109.0
216.91,128.0
216.97,126.0
217.03,117.0
217.1,95.0
217.16,100.0
217.22,118.0
217.29,118.0
217.35,104.0
217.41,93.0
217.48,114.0
217.54,89.0
217.6,91.0
217.66,105.0
217.73,98.0
217.79,82.0
217.85,85.0
217.92,97.0
217.98,82.0
218.04,74.0
218.11,85.0
218.17,82.0
218.23,78.0
218.29,79.0
218.36,84.0
218.42,86.0
218.48,88.0
218.55,79.0
218.61,81.0
218.67,64.0
218.74,71.0
218.8,97.0
218.86,85.0
218.92,89.0
218.99,82.0
219.05,88.0
219.11,88.0
219.18,81.0
219.24,72.0
219.3,78.0
219.37,67.0
219.43,84.0
219.49,88.0
219.55,82.0
219.62,93.0
219.68,85.0
219.74,98.0
219.81,88.0
219.87,63.0
219.93,80.0
220.0,91.0
220.06,82.0
220.12,67.0
220.18,74.0
220.25,80.0
220.31,83.0
220.37,84.0
220.44,88.0
220.5,92.0
220.56,88.0
220.63,94.0
220.69,94.0
220.75,78.0
220.81,93.0
220.88,82.0
220.94,79.0
221.0,85.0
221.07,72.0
221.13,77.0
221.19,74.0
221.26,78.0
221.32,85.0
221.38,79.0
221.44,88.0
221.51,85.0
221.57,82.0
221.63,69.0
221.7,56.0
221.76,59.0
221.82,62.0
221.89,52.0
221.95,59.0
222.01,45.0
222.07,41.0
222.14,43.0
222.2,41.0
222.26,23.0
222.33,26.0
222.39,42.0
222.45,30.0
222.52,10.0
222.58,-3.0
222.64,24.0
222.7,12.0
222.77,34.0
222.83,25.0
222.89,20.0
222.96,18.0
223.02,18.0
223.08,14.0
223.15,18.0
223.21,25.0
223.27,23.0
223.33,39.0
223.4,39.0
223.46,42.0
223.52,46.0
223.59,31.0
223.65,19.0
223.71,36.0
223.78,17.0
223.84,5.0
223.9,5.0
223.96,-8.0
224.03,3.0
224.09,-23.0
224.15,-15.0
224.22,5.0
224.28,-14.0
224.34,-4.0
224.41,-10.0
224.47,-21.0
224.53,-22.0
224.59,-14.0
224.66,-20.0
224.72,-3.0
224.78,-4.0
224.85,-19.0
224.91,-9.0
224.97,-9.0
225.04,-11.0
225.1,-33.0
225.16,-28.0
225.22,-8.0
225.29,-8.0
225.35,1.0
225.41,-11.0
225.48,9.0
225.54,9.0
225.6,10.0
225.67,35.0
225.73,19.0
225.79,12.0
225.85,25.0
225.92,30.0
225.98,39.0
226.04,56.0
226.11,63.0
226.17,69.0
226.23,55.0
226.3,58.0
226.36,61.0
226.42,49.0
226.48,63.0
226.55,45.0
226.61,44.0
226.67,46.0
226.74,63.0
226.8,51.0
226.86,62.0
226.93,74.0
226.99,72.0
227.05,103.0
227.11,98.0
227.18,103.0
227.24,93.0
227.3,98.0
227.37,97.0
227.43,89.0
227.49,104.0
227.56,102.0
227.62,92.0
227.68,80.0
227.74,89.0
227.81,101.0
227.87,83.0
227.93,93.0
228.0,84.0
228.06,85.0
228.12,89.0
228.19,99.0
228.25,92.0
228.31,113.0
228.37,118.0
228.44,108.0
228.5,121.0
228.56,111.0
228.63,123.0
228.69,109.0
228.75,124.0
228.82,111.0
228.88,106.0
228.94,112.0
229.0,109.0
229.07,107.0
229.13,93.0
229.19,90.0
229.26,111.0
229.32,130.0
229.38,133.0
229.45,119.0
229.51,118.0
229.57,118.0
229.63,122.0
229.7,134.0
229.76,130.0
229.82,114.0
229.89,118.0
229.95,140.0
230.01,135.0
230.08,161.0
230.14,163.0
230.2,143.0
230.26,144.0
230.33,147.0
230.39,147.0
230.45,152.0
230.52,147.0
230.58,143.0
230.64,139.0
230.71,178.0
230.77,173.0
230.83,177.0
230.89,190.0
230.96,194.0
231.02,199.0
231.08,166.0
231.15,168.0
231.21,165.0
231.27,172.0
231.34,168.0
231.4,172.0
231.46,161.0
231.52,154.0
231.59,155.0
231.65,163.0
231.71,136.0
231.78,149.0
231.84,155.0
231.9,143.0
231.97,159.0
232.03,152.0
232.09,146.0
232.15,125.0
232.22,129.0
232.28,139.0
232.34,119.0
232.41,113.0
232.47,133.0
232.53,107.0
232.6,109.0
232.66,140.0
232.72,136.0
232.78,121.0
232.85,125.0
232.91,118.0
232.97,120.0
233.04,121.0
233.1,136.0
233.16,134.0
233.23,121.0
233.29,114.0
233.35,133.0
233.41,130.0
233.48,144.0
233.54,145.0
233.6,131.0
233.67,143.0
233.73,152.0
233.79,173.0
233.86,174.0
233.92,166.0
233.98,141.0
234.04,151.0
234.11,149.0
234.17,155.0
234.23,151.0
234.3,137.0
234.36,140.0
234.42,143.0
234.49,169.0
234.55,171.0
234.61,158.0
234.67,155.0
234.74,149.0
234.8,125.0
234.86,135.0
234.93,149.0
234.99,146.0
235.05,139.0
235.12,135.0
235.18,124.0
235.24,124.0
235.3,115.0
235.37,111.0
235.43,113.0
235.49,100.0
235.56,125.0
235.62,107.0
235.68,107.0
235.75,110.0
235.81,115.0
235.87,130.0
235.93,125.0
236.0,123.0
236.06,147.0
236.12,147.0
236.19,131.0
236.25,110.0
236.31,118.0
236.38,128.0
236.44,124.0
236.5,122.0
236.56,115.0
236.63,120.0
236.69,107.0
236.75,110.0
236.82,103.0
236.88,100.0
236.94,114.0
237.01,98.0
237.07,119.0
237.13,107.0
237.19,88.0
237.26,101.0
237.32,103.0
237.38,83.0
237.45,87.0
237.51,77.0
237.57,97.0
237.64,90.0
237.7,92.0
237.76,64.0
237.82,74.0
237.89,68.0
237.95,75.0
238.01,58.0
238.08,50.0
238.14,65.0
238.2,51.0
238.27,45.0
238.33,34.0
238.39,41.0
238.45,27.0
238.52,21.0
238.58,19.0
238.64,43.0
238.71,33.0
238.77,39.0
238.83,31.0
238.9,11.0
238.96,12.0
239.02,7.0
239.08,0.0
239.15,-4.0
239.21,1.0
239.27,11.0
239.34,-6.0
239.4,-12.0
239.46,-8.0
239.53,-14.0
239.59,-6.0
239.65,-14.0
239.71,-5.0
239.78,-14.0
239.84,-31.0
239.9,-24.0
239.97,-7.0
240.03,-23.0
240.09,-4.0
240.16,-22.0
240.22,-24.0
240.28,-21.0
240.34,-44.0
240.41,-26.0
240.47,-17.0
240.53,-34.0
240.6,-32.0
240.66,-18.0
240.72,-40.0
240.79,-49.0
240.85,-56.0
240.91,-39.0
240.97,-42.0
241.04,-59.0
241.1,-31.0
241.16,-43.0
241.23,-44.0
241.29,-50.0
241.35,-51.0
241.42,-55.0
241.48,-34.0
241.54,-41.0
241.6,-50.0
241.67,-50.0
241.73,-41.0
241.79,-41.0
241.86,-29.0
241.92,-18.0
241.98,-30.0
242.05,-30.0
242.11,-43.0
242.17,-34.0
242.23,-26.0
242.3,-11.0
242.36,-33.0
242.42,-36.0
242.49,-16.0
242.55,-21.0
242.61,-12.0
242.68,-27.0
242.74,-10.0
242.8,-3.0
242.86,-2.0
242.93,24.0
242.99,5.0
243.05,5.0
243.12,-1.0
243.18,6.0
243.24,7.0
243.31,17.0
243.37,20.0
243.43,31.0
243.49,23.0
243.56,42.0
243.62,37.0
243.68,46.0
243.75,43.0
243.81,35.0
243.87,60.0
243.94,53.0
244.0,57.0
244.06,67.0
244.12,51.0
244.19,57.0
244.25,80.0
244.31,64.0
244.38,80.0
244.44,79.0
244.5,73.0
244.57,84.0
244.63,82.0
244.69,89.0
244.75,105.0
244.82,64.0
244.88,78.0
244.94,81.0
245.01,85.0
245.07,78.0
245.13,109.0
245.2,90.0
245.26,83.0
245.32,91.0
245.38,81.0
245.45,118.0
245.51,83.0
245.57,92.0
245.64,112.0
245.7,115.0
245.76,102.0
245.83,105.0
245.89,117.0
245.95,128.0
246.01,134.0
246.08,152.0
246.14,145.0
246.2,145.0
246.27,136.0
246.33,126.0
246.39,141.0
246.46,141.0
246.52,125.0
246.58,112.0
246.64,119.0
246.71,131.0
246.77,116.0
246.83,104.0
246.9,109.0
246.96,114.0
247.02,106.0
247.09,91.0
247.15,100.0
247.21,104.0
247.27,98.0
247.34,106.0
247.4,85.0
247.46,92.0
247.53,82.0
247.59,105.0
247.65,103.0
247.72,97.0
247.78,103.0
247.84,93.0
247.9,103.0
247.97,108.0
248.03,112.0
248.09,108.0
248.16,114.0
248.22,110.0
248.28,115.0
248.35,104.0
248.41,139.0
248.47,137.0
248.53,136.0
248.6,136.0
248.66,134.0
248.72,139.0
248.79,124.0
248.85,133.0
248.91,141.0
248.98,141.0
249.04,120.0
249.1,102.0
249.16,104.0
249.23,102.0
249.29,106.0
249.35,99.0
249.42,97.0
249.48,99.0
249.54,102.0
249.61,97.0
249.67,94.0
249.73,102.0
249.79,87.0
249.86,109.0
249.92,115.0
249.98,112.0
250.05,108.0
250.11,109.0
250.17,126.0
250.24,111.0
250.3,117.0
250.36,102.0
250.42,101.0
250.49,120.0
250.55,111.0
250.61,103.0
250.68,78.0
250.74,108.0
250.8,85.0
250.87,96.0
250.93,91.0
250.99,112.0
251.05,111.0
251.12,112.0
251.18,115.0
251.24,99.0
251.31,116.0
251.37,98.0
251.43,107.0
251.5,112.0
251.56,111.0
251.62,105.0
251.68,94.0
251.75,110.0
251.81,95.0
251.87,104.0
251.94,117.0
252.0,123.0
252.06,116.0
252.13,94.0
252.19,118.0
252.25,110.0
252.31,116.0
252.38,114.0
252.44,119.0
252.5,125.0
252.57,119.0
252.63,137.0
252.69,132.0
252.76,123.0
252.82,145.0
252.88,138.0
252.94,142.0
253.01,138.0
253.07,144.0
253.13,146.0
253.2,147.0
253.26,141.0
253.32,156.0
253.39,164.0
253.45,158.0
253.51,152.0
253.57,155.0
253.64,147.0
253.7,152.0
253.76,158.0
253.83,149.0
253.89,152.0
253.95,141.0
254.02,162.0
254.08,159.0
254.14,156.0
254.2,142.0
254.27,144.0
254.33,158.0
254.39,148.0
254.46,159.0
254.52,146.0
254.58,130.0
254.65,159.0
254.71,158.0
254.77,159.0
254.83,132.0
254.9,123.0
254.96,113.0
255.02,120.0
255.09,139.0
255.15,137.0
255.21,144.0
255.28,156.0
255.34,136.0
255.4,128.0
255.46,150.0
255.53,122.0
255.59,121.0
255.65,136.0
255.72,123.0
255.78,114.0
255.84,106.0
255.91,100.0
255.97,101.0
256.03,95.0
256.09,104.0
256.16,86.0
256.22,94.0
256.28,73.0
256.35,86.0
256.41,82.0
256.47,94.0
256.54,111.0
256.6,109.0
256.66,100.0
256.72,89.0
256.79,98.0
256.85,110.0
256.91,108.0
256.98,86.0
257.04,85.0
257.1,90.0
257.17,81.0
257.23,89.0
257.29,84.0
257.35,64.0
257.42,38.0
257.48,58.0
257.54,61.0
257.61,45.0
257.67,65.0
257.73,50.0
257.8,41.0
257.86,67.0
257.92,61.0
257.98,64.0
258.05,52.0
258.11,34.0
258.17,29.0
258.24,38.0
258.3,31.0
258.36,20.0
258.43,37.0
258.49,24.0
258.55,33.0
258.61,18.0
258.68,23.0
258.74,37.0
258.8,22.0
258.87,32.0
258.93,46.0
258.99,58.0
259.06,63.0
259.12,69.0
259.18,87.0
259.24,83.0
259.31,100.0
259.37,96.0
259.43,106.0
259.5,85.0
259.56,93.0
259.62,128.0
259.69,113.0
259.75,98.0
259.81,101.0
259.87,98.0
259.94,105.0
260.0,108.0
260.06,125.0
260.13,122.0
260.19,130.0
260.25,126.0
260.32,142.0
260.38,121.0
260.44,122.0
260.5,140.0
260.57,138.0
260.63,150.0
260.69,141.0
260.76,126.0
260.82,117.0
260.88,112.0
260.95,102.0
261.01,145.0
261.07,141.0
261.13,144.0
261.2,128.0
261.26,150.0
261.32,123.0
261.39,113.0
261.45,128.0
261.51,133.0
261.58,127.0
261.64,117.0
261.7,112.0
261.76,128.0
261.83,138.0
261.89,126.0
261.95,149.0
262.02,141.0
262.08,168.0
262.14,149.0
262.21,141.0
262.27,146.0
262.33,138.0
262.39,145.0
262.46,140.0
262.52,157.0
262.58,152.0
262.65,148.0
262.71,160.0
262.77,145.0
262.84,133.0
262.9,140.0
262.96,156.0
263.02,145.0
263.09,155.0
263.15,169.0
263.21,150.0
263.28,144.0
263.34,137.0
263.4,175.0
263.47,163.0
263.53,161.0
263.59,161.0
263.65,149.0
263.72,155.0
263.78,155.0
263.84,141.0
263.91,117.0
263.97,145.0
264.03,128.0
264.1,126.0
264.16,128.0
264.22,119.0
264.28,123.0
264.35,116.0
264.41,125.0
264.47,134.0
264.54,142.0
264.6,125.0
264.66,134.0
264.73,141.0
264.79,122.0
264.85,143.0
264.91,144.0
264.98,145.0
265.04,151.0
265.1,142.0
265.17,129.0
265.23,145.0
265.29,161.0
265.36,141.0
265.42,139.0
265.48,144.0
265.54,123.0
265.61,136.0
265.67,146.0
265.73,147.0
265.8,152.0
265.86,123.0
265.92,123.0
265.99,152.0
266.05,128.0
266.11,126.0
266.17,122.0
266.24,99.0
266.3,97.0
266.36,101.0
266.43,123.0
266.49,97.0
266.55,93.0
266.62,97.0
266.68,98.0
266.74,110.0
266.8,120.0
266.87,119.0
266.93,119.0
266.99,123.0
267.06,101.0
267.12,100.0
267.18,106.0
267.25,111.0
267.31,117.0
267.37,103.0
267.43,95.0
267.5,110.0
267.56,90.0
267.62,116.0
267.69,125.0
267.75,110.0
267.81,110.0
267.88,110.0
267.94,112.0
268.0,123.0
268.06,138.0
268.13,119.0
268.19,125.0
268.25,131.0
268.32,143.0
268.38,138.0
268.44,130.0
268.51,106.0
268.57,117.0
268.63,116.0
268.69,114.0
268.76,112.0
268.82,111.0
268.88,119.0
268.95,119.0
269.01,135.0
269.07,114.0
269.14,119.0
269.2,123.0
269.26,117.0
269.32,122.0
269.39,131.0
269.45,141.0
269.51,115.0
269.58,116.0
269.64,123.0
269.7,136.0
269.77,112.0
269.83,93.0
269.89,102.0
269.95,100.0
270.02,98.0
270.08,86.0
270.14,92.0
270.21,119.0
270.27,130.0
270.33,131.0
270.4,133.0
270.46,137.0
270.52,156.0
270.58,145.0
270.65,133.0
270.71,145.0
270.77,145.0
270.84,135.0
270.9,151.0
270.96,148.0
271.03,131.0
271.09,119.0
271.15,94.0
271.21,109.0
271.28,126.0
271.34,123.0
271.4,98.0
271.47,97.0
271.53,83.0
271.59,71.0
271.66,71.0
271.72,78.0
271.78,78.0
271.84,90.0
271.91,60.0
271.97,63.0
272.03,64.0
272.1,68.0
272.16,59.0
272.22,46.0
272.29,54.0
272.35,61.0
272.41,71.0
272.47,65.0
272.54,53.0
272.6,50.0
272.66,36.0
272.73,34.0
272.79,50.0
272.85,60.0
272.92,47.0
272.98,24.0
273.04,41.0
273.1,16.0
273.17,27.0
273.23,18.0
273.29,17.0
273.36,9.0
273.42,10.0
273.48,12.0
273.55,31.0
273.61,28.0
273.67,21.0
273.73,26.0
273.8,3.0
273.86,35.0
273.92,4.0
273.99,15.0
274.05,28.0
274.11,39.0
274.18,21.0
274.24,14.0
274.3,52.0
274.36,54.0
274.43,46.0
274.49,53.0
274.55,53.0
274.62,40.0
274.68,41.0
274.74,57.0
274.81,24.0
274.87,29.0
274.93,29.0
274.99,53.0
275.06,52.0
275.12,30.0
275.18,43.0
275.25,46.0
275.31,64.0
275.37,50.0
275.44,47.0
275.5,47.0
275.56,42.0
275.62,43.0
275.69,31.0
275.75,49.0
275.81,54.0
275.88,42.0
275.94,31.0
276.0,35.0
276.07,43.0
276.13,52.0
276.19,60.0
276.25,36.0
276.32,41.0
276.38,45.0
276.44,49.0
276.51,50.0
276.57,46.0
276.63,29.0
276.7,28.0
276.76,34.0
276.82,23.0
276.88,18.0
276.95,33.0
277.01,53.0
277.07,56.0
277.14,46.0
277.2,43.0
277.26,71.0
277.33,68.0
277.39,64.0
277.45,74.0
277.51,57.0
277.58,73.0
277.64,73.0
277.7,65.0
277.77,81.0
277.83,74.0
277.89,82.0
277.96,76.0
278.02,69.0
278.08,73.0
278.14,69.0
278.21,75.0
278.27,76.0
278.33,76.0
278.4,77.0
278.46,81.0
278.52,71.0
278.59,87.0
278.65,90.0
278.71,83.0
278.77,72.0
278.84,75.0
278.9,96.0
278.96,96.0
279.03,97.0
279.09,78.0
279.15,97.0
279.22,94.0
279.28,117.0
279.34,78.0
279.4,112.0
279.47,128.0
279.53,118.0
279.59,127.0
279.66,115.0
279.72,120.0
279.78,125.0
279.85,141.0
279.91,145.0
279.97,129.0
280.03,143.0
280.1,134.0
280.16,136.0
280.22,138.0
280.29,133.0
280.35,152.0
280.41,133.0
280.48,126.0
280.54,120.0
280.6,133.0
280.66,134.0
280.73,123.0
280.79,134.0
280.85,132.0
280.92,146.0
280.98,131.0
281.04,127.0
281.11,132.0
281.17,143.0
281.23,125.0
281.29,141.0
281.36,155.0
281.42,147.0
281.48,131.0
281.55,142.0
281.61,131.0
281.67,141.0
281.74,139.0
281.8,147.0
281.86,152.0
281.92,141.0
281.99,150.0
282.05,145.0
282.11,168.0
282.18,167.0
282.24,146.0
282.3,157.0
282.37,145.0
282.43,148.0
282.49,170.0
282.55,148.0
282.62,138.0
282.68,159.0
282.74,164.0
282.81,152.0
282.87,141.0
282.93,141.0
283.0,132.0
283.06,128.0
283.12,138.0
283.18,159.0
283.25,165.0
283.31,161.0
283.37,163.0
283.44,165.0
283.5,161.0
283.56,161.0
283.63,141.0
283.69,147.0
283.75,150.0
283.81,153.0
283.88,147.0
283.94,158.0
284.0,153.0
284.07,174.0
284.13,150.0
284.19,132.0
284.26,157.0
284.32,161.0
284.38,167.0
284.44,158.0
284.51,175.0
284.57,169.0
284.63,197.0
284.7,164.0
284.76,164.0
284.82,155.0
284.89,157.0
284.95,148.0
285.01,180.0
285.07,191.0
285.14,198.0
285.2,189.0
285.26,189.0
285.33,194.0
285.39,203.0
285.45,192.0
285.52,211.0
285.58,196.0
285.64,202.0
285.7,208.0
285.77,194.0
285.83,214.0
285.89,214.0
285.96,205.0
286.02,194.0
286.08,204.0
286.15,199.0
286.21,179.0
286.27,174.0
286.33,209.0
286.4,204.0
286.46,161.0
286.52,176.0
286.59,166.0
286.65,171.0
286.71,193.0
286.78,192.0
286.84,188.0
286.9,199.0
286.96,188.0
287.03,198.0
287.09,201.0
287.15,196.0
287.22,192.0
287.28,181.0
287.34,167.0
287.41,148.0
287.47,148.0
287.53,156.0
287.59,164.0
287.66,153.0
287.72,144.0
287.78,162.0
287.85,156.0
287.91,166.0
287.97,167.0
288.04,159.0
288.1,150.0
288.16,131.0
288.22,141.0
288.29,150.0
288.35,140.0
288.41,132.0
288.48,141.0
288.54,148.0
288.6,133.0
288.67,153.0
288.73,167.0
288.79,152.0
288.85,131.0
288.92,140.0
288.98,145.0
289.04,134.0
289.11,126.0
289.17,127.0
289.23,132.0
289.3,121.0
289.36,117.0
289.42,111.0
289.48,100.0
289.55,93.0
289.61,98.0
289.67,105.0
289.74,88.0
289.8,97.0
289.86,78.0
289.93,71.0
289.99,89.0
290.05,93.0
290.11,94.0
290.18,90.0
290.24,86.0
290.3,69.0
290.37,57.0
290.43,72.0
290.49,54.0
290.56,60.0
290.62,65.0
290.68,68.0
290.74,68.0
290.81,68.0
290.87,62.0
290.93,42.0
291.0,46.0
291.06,24.0
291.12,51.0
291.19,26.0
291.25,13.0
291.31,19.0
291.37,28.0
291.44,20.0
291.5,13.0
291.56,28.0
291.63,38.0
291.69,24.0
291.75,29.0
291.82,8.0
291.88,25.0
291.94,38.0
292.0,16.0
292.07,8.0
292.13,13.0
292.19,37.0
292.26,34.0
292.32,16.0
292.38,17.0
292.45,23.0
292.51,6.0
292.57,18.0
292.63,20.0
292.7,19.0
292.76,29.0
292.82,3.0
292.89,31.0
292.95,35.0
293.01,33.0
293.08,32.0
293.14,12.0
293.2,14.0
293.26,17.0
293.33,23.0
293.39,27.0
293.45,40.0
293.52,17.0
293.58,42.0
293.64,47.0
293.71,44.0
293.77,36.0
293.83,37.0
293.89,54.0
293.96,57.0
294.02,72.0
294.08,72.0
294.15,55.0
294.21,58.0
294.27,65.0
294.34,68.0
294.4,62.0
294.46,62.0
294.52,58.0
294.59,65.0
294.65,84.0
294.71,56.0
294.78,76.0
294.84,79.0
294.9,71.0
294.97,86.0
295.03,90.0
295.09,89.0
295.15,70.0
295.22,70.0
295.28,61.0
295.34,67.0
295.41,78.0
295.47,79.0
295.53,48.0
295.6,57.0
295.66,60.0
295.72,50.0
295.78,55.0
295.85,75.0
295.91,79.0
295.97,64.0
296.04,50.0
296.1,50.0
296.16,46.0
296.23,52.0
296.29,65.0
296.35,68.0
296.41,36.0
296.48,57.0
296.54,55.0
296.6,52.0
296.67,52.0
296.73,54.0
296.79,71.0
296.86,50.0
296.92,42.0
296.98,47.0
297.04,40.0
297.11,71.0
297.17,49.0
297.23,57.0
297.3,60.0
297.36,57.0
297.42,75.0
297.49,79.0
297.55,87.0
297.61,96.0
297.67,96.0
297.74,56.0
297.8,61.0
297.86,79.0
297.93,65.0
297.99,69.0
298.05,56.0
298.12,50.0
298.18,61.0
298.24,74.0
298.3,59.0
298.37,75.0
298.43,72.0
298.49,70.0
298.56,62.0
298.62,63.0
298.68,82.0
298.75,75.0
298.81,67.0
298.87,69.0
298.93,90.0
299.0,95.0
299.06,60.0
299.12,76.0
299.19,86.0
299.25,74.0
299.31,78.0
299.38,89.0
299.44,76.0
299.5,48.0
299.56,82.0
299.63,94.0
299.69,71.0
299.75,59.0
299.82,62.0
299.88,51.0
299.94,85.0
300.01,46.0
300.07,75.0
300.13,64.0
300.19,49.0
300.26,87.0
300.32,63.0
300.38,48.0
300.45,108.0
300.51,97.0
300.57,83.0
300.64,86.0
300.7,104.0
300.76,109.0
300.82,99.0
300.89,103.0
300.95,114.0
301.01,139.0
301.08,116.0
301.14,144.0
301.2,107.0
301.27,124.0
301.33,121.0
301.39,91.0
301.45,121.0
301.52,142.0
301.58,145.0
301.64,139.0
301.71,128.0
301.77,108.0
301.83,134.0
301.9,122.0
301.96,104.0
302.02,147.0
302.08,157.0
302.15,141.0
302.21,126.0
302.27,140.0
302.34,154.0
302.4,115.0
302.46,110.0
302.53,104.0
302.59,158.0
302.65,142.0
302.71,141.0
302.78,145.0
302.84,120.0
302.9,133.0
302.97,157.0
303.03,141.0
303.09,127.0
303.16,124.0
303.22,105.0
303.28,104.0
303.34,117.0
303.41,117.0
303.47,119.0
303.53,108.0
303.6,109.0
303.66,103.0
303.72,104.0
303.79,87.0
303.85,100.0
303.91,123.0
303.97,114.0
304.04,140.0
304.1,165.0
304.16,178.0
304.23,114.0
304.29,150.0
304.35,141.0
304.42,123.0
304.48,133.0
304.54,159.0
304.6,128.0
304.67,125.0
304.73,128.0
304.79,119.0
304.86,153.0
304.92,121.0
304.98,114.0
305.05,148.0
305.11,100.0
305.17,105.0
305.23,138.0
305.3,142.0
305.36,101.0
305.42,141.0
305.49,147.0
305.55,119.0
305.61,119.0
305.68,91.0
305.74,90.0
305.8,76.0
305.86,94.0
305.93,126.0
305.99,76.0
306.05,77.0
306.12,92.0
306.18,74.0
306.24,82.0
306.31,86.0
306.37,79.0
306.43,84.0
306.49,103.0
306.56,69.0
306.62,78.0
306.68,64.0
306.75,68.0
306.81,54.0
306.87,46.0
306.94,73.0
307.0,54.0
307.06,79.0
307.12,77.0
307.19,53.0
307.25,46.0
307.31,83.0
307.38,64.0
307.44,54.0
307.5,70.0
307.57,52.0
307.63,56.0
307.69,89.0
307.75,58.0
307.82,59.0
307.88,52.0
307.94,75.0
308.01,51.0
308.07,65.0
308.13,37.0
308.2,47.0
308.26,24.0
308.32,53.0
308.38,72.0
308.45,71.0
308.51,26.0
308.57,35.0
308.64,53.0
308.7,23.0
308.76,61.0
308.83,34.0
308.89,63.0
308.95,17.0
309.01,30.0
309.08,41.0
309.14,64.0
309.2,57.0
309.27,72.0
309.33,37.0
309.39,39.0
309.46,46.0
309.52,49.0
309.58,46.0
309.64,44.0
309.71,83.0
309.77,49.0
309.83,52.0
309.9,70.0
309.96,70.0
310.02,49.0
310.09,43.0
310.15,51.0
310.21,70.0
310.27,58.0
310.34,60.0
310.4,81.0
310.46,49.0
310.53,38.0
310.59,81.0
310.65,71.0
310.72,42.0
310.78,105.0
310.84,67.0
310.9,108.0
310.97,92.0
311.03,82.0
311.09,103.0
311.16,92.0
311.22,106.0
311.28,105.0
311.35,126.0
311.41,100.0
311.47,97.0
311.53,118.0
311.6,111.0
311.66,89.0
311.72,105.0
311.79,85.0
311.85,86.0
311.91,109.0
311.98,91.0
312.04,125.0
312.1,123.0
312.16,116.0
312.23,109.0
312.29,104.0
312.35,101.0
312.42,121.0
312.48,115.0
312.54,108.0
312.61,97.0
312.67,104.0
312.73,104.0
312.79,116.0
312.86,110.0
312.92,131.0
312.98,155.0
313.05,141.0
313.11,166.0
313.17,137.0
313.24,134.0
313.3,128.0
313.36,126.0
313.42,143.0
313.49,128.0
313.55,117.0
313.61,146.0
313.68,127.0
313.74,141.0
313.8,153.0
313.87,147.0
313.93,136.0
313.99,149.0
314.05,136.0
314.12,133.0
314.18,158.0
314.24,138.0
314.31,135.0
314.37,130.0
314.43,137.0
314.5,130.0
314.56,128.0
314.62,137.0
314.68,153.0
314.75,145.0
314.81,188.0
314.87,161.0
314.94,180.0
315.0,169.0
315.06,173.0
315.13,181.0
315.19,197.0
315.25,208.0
315.31,204.0
315.38,208.0
315.44,158.0
315.5,178.0
315.57,182.0
315.63,164.0
315.69,160.0
315.76,152.0
315.82,141.0
315.88,171.0
315.94,180.0
316.01,163.0
316.07,160.0
316.13,155.0
316.2,137.0
316.26,159.0
316.32,168.0
316.39,167.0
316.45,160.0
316.51,124.0
316.57,135.0
316.64,164.0
316.7,152.0
316.76,137.0
316.83,147.0
316.89,143.0
316.95,119.0
317.02,127.0
317.08,130.0
317.14,145.0
317.2,130.0
317.27,108.0
317.33,153.0
317.39,122.0
317.46,130.0
317.52,163.0
317.58,133.0
317.65,139.0
317.71,142.0
317.77,141.0
317.83,123.0
317.9,138.0
317.96,108.0
318.02,133.0
318.09,120.0
318.15,120.0
318.21,107.0
318.28,119.0
318.34,125.0
318.4,144.0
318.46,141.0
318.53,100.0
318.59,122.0
318.65,75.0
318.72,92.0
318.78,129.0
318.84,115.0
318.91,120.0
318.97,123.0
319.03,128.0
319.09,114.0
319.16,127.0
319.22,114.0
319.28,108.0
319.35,122.0
319.41,130.0
319.47,104.0
319.54,149.0
319.6,123.0
319.66,126.0
319.72,160.0
319.79,135.0
319.85,138.0
319.91,165.0
319.98,155.0
320.04,131.0
320.1,160.0
320.17,142.0
320.23,138.0
320.29,133.0
320.35,137.0
320.42,144.0
320.48,175.0
320.54,154.0
320.61,149.0
320.67,167.0
320.73,143.0
320.8,151.0
320.86,144.0
320.92,157.0
320.98,150.0
321.05,151.0
321.11,141.0
321.17,130.0
321.24,137.0
321.3,130.0
321.36,114.0
321.43,127.0
321.49,120.0
321.55,89.0
321.61,92.0
321.68,95.0
321.74,97.0
321.8,101.0
321.87,130.0
321.93,103.0
321.99,102.0
322.06,112.0
322.12,111.0
322.18,100.0
322.24,81.0
322.31,103.0
322.37,89.0
322.43,64.0
322.5,57.0
322.56,55.0
322.62,60.0
322.69,74.0
322.75,67.0
322.81,74.0
322.87,64.0
322.94,73.0
323.0,64.0
323.06,37.0
323.13,66.0
323.19,57.0
323.25,46.0
323.32,62.0
323.38,68.0
323.44,71.0
323.5,66.0
323.57,62.0
323.63,75.0
323.69,53.0
323.76,58.0
323.82,66.0
323.88,40.0
323.95,26.0
324.01,46.0
324.07,59.0
324.13,54.0
324.2,45.0
324.26,31.0
324.32,27.0
324.39,24.0
324.45,34.0
324.51,-10.0
324.58,-5.0
324.64,7.0
324.7,22.0
324.76,18.0
324.83,18.0
324.89,1.0
324.95,-4.0
325.02,10.0
325.08,23.0
325.14,2.0
325.21,2.0
325.27,10.0
325.33,0.0
325.39,-18.0
325.46,21.0
325.52,30.0
325.58,30.0
325.65,36.0
325.71,13.0
325.77,22.0
325.84,12.0
325.9,28.0
325.96,9.0
326.02,-1.0
326.09,11.0
326.15,24.0
326.21,39.0
326.28,33.0
326.34,39.0
326.4,29.0
326.47,6.0
326.53,2.0
326.59,52.0
326.65,33.0
326.72,26.0
326.78,62.0
326.84,53.0
326.91,13.0
326.97,16.0
327.03,22.0
327.1,31.0
327.16,42.0
327.22,37.0
327.28,40.0
327.35,21.0
327.41,2.0
327.47,13.0
327.54,24.0
327.6,31.0
327.66,28.0
327.73,63.0
327.79,68.0
327.85,44.0
327.91,63.0
327.98,65.0
328.04,55.0
328.1,54.0
328.17,49.0
328.23,31.0
328.29,50.0
328.36,38.0
328.42,48.0
328.48,56.0
328.54,85.0
328.61,53.0
328.67,52.0
328.73,81.0
328.8,57.0
328.86,58.0
328.92,54.0
328.99,64.0
329.05,73.0
329.11,54.0
329.17,70.0
329.24,25.0
329.3,39.0
329.36,46.0
329.43,70.0
329.49,80.0
329.55,69.0
329.62,80.0
329.68,69.0
329.74,68.0
329.8,90.0
329.87,90.0
329.93,108.0
329.99,87.0
330.06,96.0
330.12,116.0
330.18,117.0
330.25,93.0
330.31,101.0
330.37,121.0
330.43,126.0
330.5,126.0
330.56,132.0
330.62,106.0
330.69,116.0
330.75,129.0
330.81,132.0
330.88,134.0
330.94,156.0
331.0,154.0
331.06,146.0
331.13,120.0
331.19,125.0
331.25,138.0
331.32,135.0
331.38,159.0
331.44,156.0
331.51,149.0
331.57,162.0
331.63,162.0
331.69,167.0
331.76,141.0
331.82,178.0
331.88,181.0
331.95,172.0
332.01,158.0
332.07,165.0
332.14,150.0
332.2,149.0
332.26,167.0
332.32,129.0
332.39,149.0
332.45,129.0
332.51,148.0
332.58,124.0
332.64,127.0
332.7,138.0
332.77,123.0
332.83,98.0
332.89,107.0
332.95,118.0
333.02,109.0
333.08,85.0
333.14,118.0
333.21,97.0
333.27,114.0
333.33,128.0
333.4,95.0
333.46,116.0
333.52,105.0
333.58,105.0
333.65,101.0
333.71,96.0
333.77,113.0
333.84,123.0
333.9,127.0
333.96,90.0
334.03,112.0
334.09,141.0
334.15,127.0
334.21,133.0
334.28,116.0
334.34,127.0
334.4,144.0
334.47,152.0
334.53,133.0
334.59,160.0
334.66,167.0
334.72,176.0
334.78,177.0
334.84,173.0
334.91,174.0
334.97,165.0
335.03,150.0
335.1,167.0
335.16,157.0
335.22,182.0
335.29,199.0
335.35,180.0
335.41,192.0
335.47,214.0
335.54,214.0
335.6,192.0
335.66,215.0
335.73,208.0
335.79,210.0
335.85,227.0
335.92,209.0
335.98,221.0
336.04,192.0
336.1,192.0
336.17,211.0
336.23,170.0
336.29,200.0
336.36,187.0
336.42,183.0
336.48,173.0
336.55,201.0
336.61,160.0
336.67,173.0
336.73,171.0
336.8,145.0
336.86,194.0
336.92,174.0
336.99,179.0
337.05,175.0
337.11,195.0
337.18,188.0
337.24,198.0
337.3,189.0
337.36,190.0
337.43,182.0
337.49,180.0
337.55,188.0
337.62,180.0
337.68,192.0
337.74,186.0
337.81,196.0
337.87,189.0
337.93,181.0
337.99,201.0
338.06,187.0
338.12,179.0
338.18,167.0
338.25,170.0
338.31,183.0
338.37,160.0
338.44,159.0
338.5,171.0
338.56,181.0
338.62,184.0
338.69,187.0
338.75,171.0
338.81,186.0
338.88,171.0
338.94,192.0
339.0,180.0
339.07,174.0
339.13,185.0
339.19,184.0
339.25,171.0
339.32,175.0
339.38,176.0
339.44,186.0
339.51,189.0
339.57,174.0
339.63,186.0
339.7,160.0
339.76,158.0
339.82,171.0
339.88,157.0
339.95,144.0
340.01,137.0
340.07,164.0
340.14,142.0
340.2,138.0
340.26,156.0
340.33,134.0
340.39,140.0
340.45,148.0
340.51,111.0
340.58,107.0
340.64,102.0
340.7,102.0
340.77,86.0
340.83,96.0
340.89,118.0
340.96,106.0
341.02,101.0
341.08,107.0
341.14,108.0
341.21,97.0
341.27,82.0
341.33,90.0
341.4,80.0
341.46,93.0
341.52,123.0
341.59,88.0
341.65,82.0
341.71,105.0
341.77,118.0
341.84,123.0
341.9,96.0
341.96,63.0
342.03,41.0
342.09,36.0
342.15,75.0
342.22,88.0
342.28,82.0
342.34,53.0
342.4,63.0
342.47,35.0
342.53,33.0
342.59,74.0
342.66,31.0
342.72,34.0
342.78,41.0
342.85,52.0
342.91,69.0
342.97,50.0
343.03,34.0
343.1,17.0
343.16,57.0
343.22,53.0
343.29,67.0
343.35,75.0
343.41,49.0
343.48,42.0
343.54,54.0
343.6,29.0
343.66,41.0
343.73,33.0
343.79,44.0
343.85,40.0
343.92,55.0
343.98,53.0
344.04,74.0
344.11,36.0
344.17,62.0
344.23,25.0
344.29,31.0
344.36,53.0
344.42,16.0
344.48,6.0
344.55,17.0
344.61,27.0
344.67,5.0
344.74,35.0
344.8,-1.0
344.86,31.0
344.92,25.0
344.99,-8.0
345.05,31.0
345.11,12.0
345.18,31.0
345.24,11.0
345.3,15.0
345.37,26.0
345.43,39.0
345.49,36.0
345.55,12.0
345.62,6.0
345.68,15.0
345.74,27.0
345.81,45.0
345.87,48.0
345.93,22.0
346.0,23.0
346.06,23.0
346.12,34.0
346.18,17.0
346.25,30.0
346.31,33.0
346.37,27.0
346.44,91.0
346.5,72.0
346.56,52.0
346.63,51.0
346.69,34.0
346.75,37.0
346.81,53.0
346.88,60.0
346.94,34.0
347.0,34.0
347.07,60.0
347.13,26.0
347.19,34.0
347.26,63.0
347.32,64.0
347.38,39.0
347.44,36.0
347.51,68.0
347.57,63.0
347.63,39.0
347.7,82.0
347.76,51.0
347.82,61.0
347.89,60.0
347.95,87.0
348.01,60.0
348.07,92.0
348.14,85.0
348.2,62.0
348.26,96.0
348.33,77.0
348.39,63.0
348.45,68.0
348.52,64.0
348.58,53.0
348.64,91.0
348.7,59.0
348.77,49.0
348.83,50.0
348.89,46.0
348.96,37.0
349.02,56.0
349.08,49.0
349.15,45.0
349.21,52.0
349.27,57.0
349.33,60.0
349.4,72.0
349.46,78.0
349.52,89.0
349.59,93.0
349.65,91.0
349.71,94.0
349.78,79.0
349.84,60.0
349.9,53.0
349.96,77.0
350.03,73.0
350.09,52.0
350.15,69.0
350.22,86.0
350.28,69.0
350.34,60.0
350.41,70.0
350.47,53.0
350.53,33.0
350.59,69.0
350.66,69.0
350.72,34.0
350.78,53.0
350.85,45.0
350.91,63.0
350.97,82.0
351.04,65.0
351.1,61.0
351.16,64.0
351.22,40.0
351.29,66.0
351.35,59.0
351.41,60.0
351.48,90.0
351.54,51.0
351.6,68.0
351.67,37.0
351.73,65.0
351.79,94.0
351.85,89.0
351.92,72.0
351.98,69.0
352.04,67.0
352.11,44.0
352.17,70.0
352.23,95.0
352.3,110.0
352.36,98.0
352.42,122.0
352.48,125.0
352.55,134.0
352.61,117.0
352.67,131.0
352.74,103.0
352.8,127.0
352.86,115.0
352.93,132.0
352.99,129.0
353.05,110.0
353.11,103.0
353.18,116.0
353.24,113.0
353.3,120.0
353.37,141.0
353.43,119.0
353.49,111.0
353.56,127.0
353.62,127.0
353.68,129.0
353.74,144.0
353.81,141.0
353.87,143.0
353.93,143.0
354.0,143.0
354.06,116.0
354.12,125.0
354.19,151.0
354.25,147.0
354.31,163.0
354.37,154.0
354.44,122.0
354.5,145.0
354.56,151.0
354.63,164.0
354.69,180.0
354.75,171.0
354.82,165.0
354.88,140.0
354.94,125.0
355.0,161.0
355.07,161.0
355.13,155.0
355.19,136.0
355.26,133.0
355.32,161.0
355.38,136.0
355.45,140.0
355.51,150.0
355.57,129.0
355.63,149.0
355.7,176.0
355.76,144.0
355.82,156.0
355.89,122.0
355.95,121.0
356.01,142.0
356.08,162.0
356.14,154.0
356.2,143.0
356.26,148.0
356.33,135.0
356.39,153.0
356.45,173.0
356.52,166.0
356.58,154.0
356.64,141.0
356.71,154.0
356.77,167.0
356.83,165.0
356.89,151.0
356.96,157.0
357.02,154.0
357.08,142.0
357.15,136.0
357.21,154.0
357.27,124.0
357.34,116.0
357.4,153.0
357.46,145.0
357.52,130.0
357.59,150.0
357.65,147.0
357.71,148.0
357.78,159.0
357.84,136.0
357.9,125.0
357.97,133.0
358.03,133.0
358.09,127.0
358.15,105.0
358.22,122.0
358.28,116.0
358.34,99.0
358.41,119.0
358.47,102.0
358.53,111.0
358.6,114.0
358.66,110.0
358.72,114.0
358.78,100.0
358.85,99.0
358.91,105.0
358.97,96.0
359.04,81.0
359.1,56.0
359.16,49.0
359.23,68.0
359.29,63.0
359.35,63.0
359.41,55.0
359.48,32.0
359.54,30.0
359.6,47.0
359.67,30.0
359.73,23.0
359.79,17.0
359.86,21.0
359.92,7.0
359.98,37.0
360.04,47.0
360.11,42.0
360.17,46.0
360.23,28.0
360.3,38.0
360.36,59.0
360.42,42.0
360.49,41.0
360.55,19.0
360.61,28.0
360.67,23.0
360.74,57.0
360.8,56.0
360.86,30.0
360.93,70.0
360.99,60.0
361.05,51.0
361.12,34.0
361.18,37.0
361.24,36.0
361.3,69.0
361.37,52.0
361.43,70.0
361.49,49.0
361.56,41.0
361.62,50.0
361.68,75.0
361.75,58.0
361.81,89.0
361.87,74.0
361.93,55.0
362.0,48.0
362.06,69.0
362.12,67.0
362.19,78.0
362.25,87.0
362.31,104.0
362.38,99.0
362.44,123.0
362.5,109.0
362.56,104.0
362.63,108.0
362.69,96.0
362.75,99.0
362.82,114.0
362.88,97.0
362.94,89.0
363.01,88.0
363.07,109.0
363.13,117.0
363.19,121.0
363.26,118.0
363.32,137.0
363.38,127.0
363.45,133.0
363.51,145.0
363.57,137.0
363.64,149.0
363.7,136.0
363.76,143.0
363.82,158.0
363.89,147.0
363.95,169.0
364.01,154.0
364.08,136.0
364.14,150.0
364.2,140.0
364.27,125.0
364.33,141.0
364.39,147.0
364.45,149.0
364.52,138.0
364.58,131.0
364.64,148.0
364.71,126.0
364.77,141.0
364.83,143.0
364.9,135.0
364.96,147.0
365.02,144.0
365.08,157.0
365.15,137.0
365.21,122.0
365.27,155.0
365.34,164.0
365.4,147.0
365.46,151.0
365.53,123.0
365.59,156.0
365.65,153.0
365.71,162.0
365.78,154.0
365.84,135.0
365.9,177.0
365.97,155.0
366.03,166.0
366.09,169.0
366.16,157.0
366.22,144.0
366.28,143.0
366.34,129.0
366.41,144.0
366.47,157.0
366.53,151.0
366.6,149.0
366.66,143.0
366.72,107.0
366.79,96.0
366.85,105.0
366.91,101.0
366.97,90.0
367.04,115.0
367.1,127.0
367.16,118.0
367.23,117.0
367.29,110.0
367.35,105.0
367.42,123.0
367.48,117.0
367.54,122.0
367.6,125.0
367.67,122.0
367.73,105.0
367.79,138.0
367.86,147.0
367.92,134.0
367.98,156.0
368.05,148.0
368.11,138.0
368.17,162.0
368.23,157.0
368.3,108.0
368.36,111.0
368.42,129.0
368.49,111.0
368.55,145.0
368.61,149.0
368.68,145.0
368.74,135.0
368.8,129.0
368.86,139.0
368.93,140.0
368.99,134.0
369.05,110.0
369.12,110.0
369.18,117.0
369.24,134.0
369.31,122.0
369.37,92.0
369.43,110.0
369.49,137.0
369.56,121.0
369.62,144.0
369.68,134.0
369.75,128.0
369.81,133.0
369.87,125.0
369.94,140.0
370.0,152.0
370.06,133.0
370.12,126.0
370.19,117.0
370.25,107.0
370.31,100.0
370.38,109.0
370.44,125.0
370.5,136.0
370.57,99.0
370.63,100.0
370.69,124.0
370.75,112.0
370.82,136.0
370.88,136.0
370.94,118.0
371.01,123.0
371.07,134.0
371.13,143.0
371.2,129.0
371.26,136.0
371.32,158.0
371.38,163.0
371.45,163.0
371.51,145.0
371.57,168.0
371.64,151.0
371.7,170.0
371.76,146.0
371.83,147.0
371.89,135.0
371.95,151.0
372.01,114.0
372.08,86.0
372.14,102.0
372.2,153.0
372.27,142.0
372.33,122.0
372.39,127.0
372.46,105.0
372.52,113.0
372.58,89.0
372.64,98.0
372.71,108.0
372.77,109.0
372.83,130.0
372.9,118.0
372.96,133.0
373.02,120.0
373.09,111.0
373.15,130.0
373.21,131.0
373.27,119.0
373.34,96.0
373.4,91.0
373.46,99.0
373.53,94.0
373.59,74.0
373.65,82.0
373.72,82.0
373.78,88.0
373.84,82.0
373.9,74.0
373.97,99.0
374.03,62.0
374.09,61.0
374.16,63.0
374.22,77.0
374.28,62.0
374.35,79.0
374.41,49.0
374.47,58.0
374.53,56.0
374.6,71.0
374.66,56.0
374.72,38.0
374.79,37.0
374.85,51.0
374.91,33.0
374.98,22.0
375.04,51.0
375.1,42.0
375.16,30.0
375.23,31.0
375.29,44.0
375.35,29.0
375.42,30.0
375.48,23.0
375.54,17.0
375.61,5.0
375.67,-10.0
375.73,-11.0
375.79,11.0
375.86,25.0
375.92,-15.0
375.98,12.0
376.05,14.0
376.11,-5.0
376.17,-2.0
376.24,11.0
376.3,31.0
376.36,9.0
376.42,31.0
376.49,38.0
376.55,20.0
376.61,13.0
376.68,28.0
376.74,5.0
376.8,31.0
376.87,45.0
376.93,14.0
376.99,9.0
377.05,-5.0
377.12,23.0
377.18,-7.0
377.24,15.0
377.31,30.0
377.37,15.0
377.43,22.0
377.5,-7.0
377.56,9.0
377.62,22.0
377.68,13.0
377.75,5.0
377.81,11.0
377.87,24.0
377.94,-3.0
378.0,20.0
378.06,11.0
378.13,22.0
378.19,35.0
378.25,5.0
378.31,8.0
378.38,-16.0
378.44,1.0
378.5,-20.0
378.57,5.0
378.63,14.0
378.69,-10.0
378.76,31.0
378.82,23.0
378.88,33.0
378.94,24.0
379.01,15.0
379.07,26.0
379.13,26.0
379.2,20.0
379.26,26.0
379.32,6.0
379.39,22.0
379.45,34.0
379.51,24.0
379.57,31.0
379.64,31.0
379.7,24.0
379.76,3.0
379.83,27.0
379.89,39.0
379.95,49.0
380.02,38.0
380.08,29.0
380.14,34.0
380.2,23.0
380.27,44.0
380.33,48.0
380.39,46.0
380.46,66.0
380.52,78.0
380.58,57.0
380.65,71.0
380.71,69.0
380.77,67.0
380.83,85.0
380.9,86.0
380.96,110.0
381.02,121.0
381.09,87.0
381.15,83.0
381.21,78.0
381.28,82.0
381.34,66.0
381.4,58.0
381.46,76.0
381.53,86.0
381.59,107.0
381.65,88.0
381.72,98.0
381.78,111.0
381.84,85.0
381.91,101.0
381.97,122.0
382.03,103.0
382.09,111.0
382.16,99.0
382.22,101.0
382.28,113.0
382.35,108.0
382.41,127.0
382.47,132.0
382.54,119.0
382.6,127.0
382.66,131.0
382.72,125.0
382.79,123.0
382.85,143.0
382.91,132.0
382.98,139.0
383.04,145.0
383.1,127.0
383.17,139.0
383.23,133.0
383.29,121.0
383.35,139.0
383.42,129.0
383.48,124.0
383.54,125.0
383.61,134.0
383.67,117.0
383.73,116.0
383.8,115.0
383.86,112.0
383.92,102.0
383.98,114.0
384.05,152.0
384.11,134.0
384.17,135.0
384.24,114.0
384.3,121.0
384.36,120.0
384.43,128.0
384.49,117.0
384.55,122.0
384.61,124.0
384.68,158.0
384.74,153.0
384.8,141.0
384.87,147.0
384.93,144.0
384.99,157.0
385.06,144.0
385.12,165.0
385.18,135.0
385.24,158.0
385.31,158.0
385.37,154.0
385.43,141.0
385.5,165.0
385.56,140.0
385.62,143.0
385.69,161.0
385.75,189.0
385.81,147.0
385.87,126.0
385.94,146.0
386.0,157.0
386.06,169.0
386.13,174.0
386.19,188.0
386.25,180.0
386.32,199.0
386.38,183.0
386.44,180.0
386.5,210.0
386.57,212.0
386.63,207.0
386.69,190.0
386.76,188.0
386.82,170.0
386.88,169.0
386.95,226.0
387.01,231.0
387.07,190.0
387.13,243.0
387.2,214.0
387.26,180.0
387.32,180.0
387.39,190.0
387.45,201.0
387.51,211.0
387.58,192.0
387.64,197.0
387.7,209.0
387.76,213.0
387.83,242.0
387.89,259.0
387.95,254.0
388.02,239.0
388.08,210.0
388.14,224.0
388.21,217.0
388.27,207.0
388.33,224.0
388.39,210.0
388.46,231.0
388.52,217.0
388.58,187.0
388.65,203.0
388.71,204.0
388.77,188.0
388.84,207.0
388.9,224.0
388.96,197.0
389.02,181.0
389.09,193.0
389.15,208.0
389.21,195.0
389.28,188.0
389.34,195.0
389.4,201.0
389.47,186.0
389.53,197.0
389.59,191.0
389.65,160.0
389.72,171.0
389.78,182.0
389.84,166.0
389.91,165.0
389.97,174.0
390.03,154.0
390.1,169.0
390.16,182.0
390.22,161.0
390.28,168.0
390.35,183.0
390.41,159.0
390.47,141.0
390.54,156.0
390.6,132.0
390.66,147.0
390.73,151.0
390.79,154.0
390.85,156.0
390.91,157.0
390.98,135.0
391.04,161.0
391.1,162.0
391.17,158.0
391.23,161.0
391.29,188.0
391.36,162.0
391.42,150.0
391.48,154.0
391.54,136.0
391.61,142.0
391.67,125.0
391.73,136.0
391.8,130.0
391.86,111.0
391.92,113.0
391.99,112.0
392.05,94.0
392.11,103.0
392.17,95.0
392.24,129.0
392.3,121.0
392.36,92.0
392.43,113.0
392.49,103.0
392.55,111.0
392.62,110.0
392.68,110.0
392.74,121.0
392.8,107.0
392.87,109.0
392.93,95.0
392.99,87.0
393.06,93.0
393.12,94.0
393.18,92.0
393.25,83.0
393.31,95.0
393.37,71.0
393.43,80.0
393.5,94.0
393.56,88.0
393.62,75.0
393.69,92.0
393.75,84.0
393.81,77.0
393.88,70.0
393.94,66.0
394.0,88.0
394.06,78.0
394.13,79.0
394.19,77.0
394.25,70.0
394.32,70.0
394.38,76.0
394.44,73.0
394.51,78.0
394.57,87.0
394.63,64.0
394.69,83.0
394.76,70.0
394.82,78.0
394.88,79.0
394.95,73.0
395.01,82.0
395.07,66.0
395.14,36.0
395.2,35.0
395.26,52.0
395.32,55.0
395.39,45.0
395.45,51.0
395.51,52.0
395.58,38.0
395.64,10.0
395.7,49.0
395.77,54.0
395.83,59.0
395.89,40.0
395.95,33.0
396.02,40.0
396.08,37.0
396.14,59.0
396.21,50.0
396.27,58.0
396.33,55.0
396.4,50.0
396.46,55.0
396.52,74.0
396.58,66.0
396.65,49.0
396.71,49.0
396.77,49.0
396.84,33.0
396.9,47.0
396.96,41.0
397.03,60.0
397.09,40.0
397.15,34.0
397.21,36.0
397.28,46.0
397.34,58.0
397.4,67.0
397.47,33.0
397.53,56.0
397.59,37.0
397.66,47.0
397.72,58.0
397.78,42.0
397.84,66.0
397.91,50.0
397.97,46.0
398.03,66.0
398.1,63.0
398.16,73.0
398.22,66.0
398.29,65.0
398.35,65.0
398.41,75.0
398.47,69.0
398.54,75.0
398.6,68.0
398.66,61.0
398.73,99.0
398.79,80.0
398.85,81.0
398.92,81.0
398.98,103.0
399.04,75.0
399.1,50.0
399.17,62.0
399.23,75.0
399.29,91.0
399.36,97.0
399.42,81.0
399.48,74.0
399.55,78.0
399.61,64.0
399.67,88.0
399.73,83.0
399.8,105.0
399.86,101.0
399.92,60.0
399.99,75.0
400.05,67.0
400.11,65.0
400.18,77.0
400.24,39.0
400.3,66.0
400.36,60.0
400.43,62.0
400.49,65.0
400.55,38.0
400.62,50.0
400.68,48.0
400.74,58.0
400.81,53.0
400.87,34.0
400.93,36.0
400.99,55.0
401.06,65.0
401.12,59.0
401.18,67.0
401.25,70.0
401.31,69.0
401.37,51.0
401.44,73.0
401.5,58.0
401.56,64.0
401.62,61.0
401.69,77.0
401.75,91.0
401.81,97.0
401.88,94.0
401.94,98.0
402.0,94.0
402.07,92.0
402.13,88.0
402.19,74.0
402.25,81.0
402.32,66.0
402.38,72.0
402.44,84.0
402.51,92.0
402.57,84.0
402.63,74.0
402.7,98.0
402.76,79.0
402.82,91.0
402.88,110.0
402.95,114.0
403.01,122.0
403.07,108.0
403.14,114.0
403.2,121.0
403.26,106.0
403.33,106.0
403.39,91.0
403.45,94.0
403.51,83.0
403.58,110.0
403.64,107.0
403.7,81.0
403.77,79.0
403.83,107.0
403.89,114.0
403.96,105.0
404.02,117.0
404.08,109.0
404.14,83.0
404.21,79.0
404.27,77.0
404.33,77.0
404.4,81.0
404.46,83.0
404.52,97.0
404.59,106.0
404.65,94.0
404.71,81.0
404.77,79.0
404.84,94.0
404.9,93.0
404.96,95.0
405.03,91.0
405.09,83.0
405.15,80.0
405.22,67.0
405.28,92.0
405.34,91.0
405.4,108.0
405.47,82.0
405.53,97.0
405.59,110.0
405.66,114.0
405.72,114.0
405.78,118.0
405.85,110.0
405.91,91.0
405.97,96.0
406.03,95.0
406.1,101.0
406.16,96.0
406.22,112.0
406.29,121.0
406.35,127.0
406.41,117.0
406.48,122.0
406.54,111.0
406.6,103.0
406.66,119.0
406.73,102.0
406.79,103.0
406.85,103.0
406.92,103.0
406.98,98.0
407.04,103.0
407.11,106.0
407.17,86.0
407.23,121.0
407.29,103.0
407.36,81.0
407.42,83.0
407.48,88.0
407.55,92.0
407.61,77.0
407.67,78.0
407.74,81.0
407.8,94.0
407.86,92.0
407.92,102.0
407.99,64.0
408.05,56.0
408.11,89.0
408.18,74.0
408.24,97.0
408.3,94.0
408.37,91.0
408.43,64.0
408.49,71.0
408.55,87.0
408.62,86.0
408.68,85.0
408.74,104.0
408.81,99.0
408.87,97.0
408.93,81.0
409.0,85.0
409.06,73.0
409.12,63.0
409.18,87.0
409.25,79.0
409.31,57.0
409.37,36.0
409.44,41.0
409.5,56.0
409.56,44.0
409.63,70.0
409.69,49.0
409.75,67.0
409.81,81.0
409.88,68.0
409.94,53.0
410.0,38.0
410.07,34.0
410.13,37.0
410.19,40.0
410.26,48.0
410.32,33.0
410.38,16.0
410.44,39.0
410.51,39.0
410.57,39.0
410.63,50.0
410.7,41.0
410.76,10.0
410.82,26.0
410.89,37.0
410.95,39.0
411.01,42.0
411.07,27.0
411.14,25.0
411.2,26.0
411.26,27.0
411.33,36.0
411.39,20.0
411.45,7.0
411.52,26.0
411.58,2.0
411.64,4.0
411.7,15.0
411.77,15.0
411.83,37.0
411.89,34.0
411.96,40.0
412.02,42.0
412.08,23.0
412.15,18.0
412.21,2.0
412.27,1.0
412.33,8.0
412.4,23.0
412.46,22.0
412.52,14.0
412.59,17.0
412.65,22.0
412.71,12.0
412.78,26.0
412.84,10.0
412.9,23.0
412.96,50.0
413.03,52.0
413.09,40.0
413.15,50.0
413.22,52.0
413.28,61.0
413.34,42.0
413.41,37.0
413.47,67.0
413.53,47.0
413.59,48.0
413.66,30.0
413.72,28.0
413.78,40.0
413.85,51.0
413.91,40.0
413.97,46.0
414.04,51.0
414.1,34.0
414.16,44.0
414.22,49.0
414.29,41.0
414.35,55.0
414.41,50.0
414.48,53.0
414.54,66.0
414.6,67.0
414.67,69.0
414.73,67.0
414.79,70.0
414.85,77.0
414.92,73.0
414.98,82.0
415.04,91.0
415.11,71.0
415.17,75.0
415.23,78.0
415.3,90.0
415.36,96.0
415.42,103.0
415.48,105.0
415.55,97.0
415.61,100.0
415.67,92.0
415.74,107.0
415.8,114.0
415.86,89.0
415.93,97.0
415.99,103.0
416.05,99.0
416.11,112.0
416.18,98.0
416.24,132.0
416.3,119.0
416.37,115.0
416.43,111.0
416.49,113.0
416.56,104.0
416.62,105.0
416.68,121.0
416.74,101.0
416.81,116.0
416.87,108.0
416.93,114.0
417.0,103.0
417.06,112.0
417.12,105.0
417.19,125.0
417.25,115.0
417.31,102.0
417.37,103.0
417.44,124.0
417.5,127.0
417.56,113.0
417.63,123.0
417.69,105.0
417.75,108.0
417.82,121.0
417.88,119.0
417.94,125.0
418.0,99.0
418.07,104.0
418.13,114.0
418.19,113.0
418.26,131.0
418.32,133.0
418.38,123.0
418.45,114.0
418.51,136.0
418.57,140.0
418.63,119.0
418.7,119.0
418.76,112.0
418.82,136.0
418.89,123.0
418.95,105.0
419.01,121.0
419.08,94.0
419.14,107.0
419.2,120.0
419.26,114.0
419.33,125.0
419.39,132.0
419.45,125.0
419.52,136.0
419.58,142.0
419.64,132.0
419.71,120.0
419.77,145.0
419.83,138.0
419.89,136.0
419.96,146.0
420.02,153.0
420.08,144.0
420.15,145.0
420.21,160.0
420.27,153.0
420.34,143.0
420.4,142.0
420.46,157.0
420.52,155.0
420.59,150.0
420.65,163.0
420.71,145.0
420.78,162.0
420.84,173.0
420.9,177.0
420.97,139.0
421.03,165.0
421.09,174.0
421.15,158.0
421.22,187.0
421.28,187.0
421.34,169.0
421.41,180.0
421.47,161.0
421.53,158.0
421.6,160.0
421.66,188.0
421.72,204.0
421.78,191.0
421.85,177.0
421.91,198.0
421.97,172.0
422.04,184.0
422.1,187.0
422.16,180.0
422.23,193.0
422.29,182.0
422.35,182.0
422.41,180.0
422.48,182.0
422.54,173.0
422.6,174.0
422.67,157.0
422.73,165.0
422.79,183.0
422.86,160.0
422.92,155.0
422.98,155.0
423.04,162.0
423.11,170.0
423.17,181.0
423.23,164.0
423.3,160.0
423.36,176.0
423.42,154.0
423.49,158.0
423.55,168.0
423.61,173.0
423.67,158.0
423.74,174.0
423.8,158.0
423.86,140.0
423.93,153.0
423.99,154.0
424.05,157.0
424.12,166.0
424.18,157.0
424.24,158.0
424.3,149.0
424.37,154.0
424.43,135.0
424.49,128.0
424.56,143.0
424.62,125.0
424.68,126.0
424.75,137.0
424.81,137.0
424.87,129.0
424.93,127.0
425.0,121.0
425.06,105.0
425.12,127.0
425.19,150.0
425.25,127.0
425.31,118.0
425.38,152.0
425.44,147.0
425.5,119.0
425.56,113.0
425.63,105.0
425.69,113.0
425.75,105.0
425.82,95.0
425.88,95.0
425.94,92.0
426.01,82.0
426.07,70.0
426.13,77.0
426.19,86.0
426.26,86.0
426.32,94.0
426.38,103.0
426.45,95.0
426.51,87.0
426.57,110.0
426.64,77.0
426.7,90.0
426.76,99.0
426.82,85.0
426.89,78.0
426.95,85.0
427.01,81.0
427.08,69.0
427.14,47.0
427.2,60.0
427.27,72.0
427.33,66.0
427.39,88.0
427.45,88.0
427.52,94.0
427.58,79.0
427.64,69.0
427.71,66.0
427.77,63.0
427.83,91.0
427.9,92.0
427.96,88.0
428.02,78.0
428.08,67.0
428.15,74.0
428.21,72.0
428.27,67.0
428.34,69.0
428.4,69.0
428.46,91.0
428.53,90.0
428.59,76.0
428.65,95.0
428.71,98.0
428.78,88.0
428.84,97.0
428.9,89.0
428.97,71.0
429.03,70.0
429.09,62.0
429.16,72.0
429.22,54.0
429.28,67.0
429.34,62.0
429.41,71.0
429.47,59.0
429.53,81.0
429.6,96.0
429.66,81.0
429.72,77.0
429.79,85.0
429.85,109.0
429.91,78.0
429.97,69.0
430.04,86.0
430.1,79.0
430.16,89.0
430.23,105.0
430.29,100.0
430.35,87.0
430.42,64.0
430.48,81.0
430.54,70.0
430.6,70.0
430.67,71.0
430.73,78.0
430.79,86.0
430.86,91.0
430.92,88.0
430.98,78.0
431.05,92.0
431.11,77.0
431.17,76.0
431.23,78.0
431.3,72.0
431.36,81.0
431.42,70.0
431.49,67.0
431.55,75.0
431.61,68.0
431.68,80.0
431.74,77.0
431.8,79.0
431.86,99.0
431.93,111.0
431.99,113.0
432.05,105.0
432.12,109.0
432.18,110.0
432.24,80.0
432.31,83.0
432.37,69.0
432.43,82.0
432.49,95.0
432.56,108.0
432.62,105.0
432.68,92.0
432.75,101.0
432.81,100.0
432.87,119.0
432.94,114.0
433.0,107.0
433.06,107.0
433.12,101.0
433.19,121.0
433.25,109.0
433.31,120.0
433.38,126.0
433.44,127.0
433.5,137.0
433.57,130.0
433.63,128.0
433.69,137.0
433.75,110.0
433.82,131.0
433.88,121.0
433.94,107.0
434.01,103.0
434.07,97.0
434.13,108.0
434.2,104.0
434.26,117.0
434.32,114.0
434.38,111.0
434.45,135.0
434.51,125.0
434.57,127.0
434.64,124.0
434.7,119.0
434.76,114.0
434.83,137.0
434.89,126.0
434.95,151.0
435.01,139.0
435.08,148.0
435.14,158.0
435.2,175.0
435.27,170.0
435.33,173.0
435.39,172.0
435.46,174.0
435.52,176.0
435.58,166.0
435.64,203.0
435.71,225.0
435.77,209.0
435.83,196.0
435.9,193.0
435.96,171.0
436.02,178.0
436.09,191.0
436.15,206.0
436.21,191.0
436.27,172.0
436.34,176.0
436.4,158.0
436.46,146.0
436.53,180.0
436.59,189.0
436.65,177.0
436.72,181.0
436.78,167.0
436.84,172.0
436.9,171.0
436.97,165.0
437.03,141.0
437.09,168.0
437.16,176.0
437.22,151.0
437.28,148.0
437.35,149.0
437.41,146.0
437.47,150.0
437.53,140.0
437.6,166.0
437.66,152.0
437.72,163.0
437.79,172.0
437.85,177.0
437.91,161.0
437.98,170.0
438.04,194.0
438.1,182.0
438.16,175.0
438.23,183.0
438.29,192.0
438.35,191.0
438.42,179.0
438.48,161.0
438.54,170.0
438.61,146.0
438.67,167.0
438.73,185.0
438.79,195.0
438.86,190.0
438.92,177.0
438.98,201.0
439.05,190.0
439.11,199.0
439.17,171.0
439.24,188.0
439.3,194.0
439.36,193.0
439.42,184.0
439.49,174.0
439.55,195.0
439.61,183.0
439.68,177.0
439.74,181.0
439.8,196.0
439.87,191.0
439.93,180.0
439.99,190.0
440.05,184.0
440.12,164.0
440.18,179.0
440.24,182.0
440.31,158.0
440.37,176.0
440.43,177.0
440.5,188.0
440.56,169.0
440.62,169.0
440.68,167.0
440.75,162.0
440.81,171.0
440.87,174.0
440.94,171.0
441.0,156.0
441.06,147.0
441.13,168.0
441.19,166.0
441.25,171.0
441.31,157.0
441.38,153.0
441.44,143.0
441.5,132.0
441.57,130.0
441.63,135.0
441.69,141.0
441.76,114.0
441.82,136.0
441.88,142.0
441.94,137.0
442.01,119.0
442.07,123.0
442.13,111.0
442.2,121.0
442.26,129.0
442.32,130.0
442.39,108.0
442.45,119.0
442.51,115.0
442.57,125.0
442.64,131.0
442.7,125.0
442.76,115.0
442.83,117.0
442.89,113.0
442.95,121.0
443.02,114.0
443.08,100.0
443.14,102.0
443.2,94.0
443.27,98.0
443.33,102.0
443.39,86.0
443.46,108.0
443.52,88.0
443.58,63.0
443.65,72.0
443.71,79.0
443.77,79.0
443.83,78.0
443.9,92.0
443.96,91.0
444.02,108.0
444.09,83.0
444.15,80.0
444.21,57.0
444.28,100.0
444.34,105.0
444.4,103.0
444.46,87.0
444.53,80.0
444.59,73.0
444.65,77.0
444.72,66.0
444.78,73.0
444.84,92.0
444.91,59.0
444.97,85.0
445.03,75.0
445.09,63.0
445.16,82.0
445.22,78.0
445.28,78.0
445.35,87.0
445.41,87.0
445.47,88.0
445.54,80.0
445.6,75.0
445.66,50.0
445.72,52.0
445.79,64.0
445.85,61.0
445.91,77.0
445.98,47.0
446.04,66.0
446.1,79.0
446.17,59.0
446.23,88.0
446.29,62.0
446.35,59.0
446.42,77.0
446.48,55.0
446.54,72.0
446.61,78.0
446.67,65.0
446.73,72.0
446.8,81.0
446.86,81.0
446.92,61.0
446.98,89.0
447.05,83.0
447.11,68.0
447.17,68.0
447.24,67.0
447.3,77.0
447.36,86.0
447.43,75.0
447.49,97.0
447.55,99.0
447.61,99.0
447.68,86.0
447.74,91.0
447.8,75.0
447.87,83.0
447.93,72.0
447.99,61.0
448.06,74.0
448.12,69.0
448.18,80.0
448.24,89.0
448.31,87.0
448.37,88.0
448.43,97.0
448.5,107.0
448.56,108.0
448.62,110.0
448.69,101.0
448.75,99.0
448.81,98.0
448.87,89.0
448.94,106.0
449.0,92.0
449.06,85.0
449.13,105.0
449.19,93.0
449.25,95.0
449.32,111.0
449.38,124.0
449.44,114.0
449.5,119.0
449.57,119.0
449.63,87.0
449.69,98.0
449.76,101.0
449.82,110.0
449.88,132.0
449.95,134.0
450.01,123.0
450.07,113.0
450.13,102.0
450.2,128.0
450.26,137.0
450.32,119.0
450.39,107.0
450.45,107.0
450.51,112.0
450.58,99.0
450.64,108.0
450.7,110.0
450.76,114.0
450.83,108.0
450.89,118.0
450.95,112.0
451.02,81.0
451.08,81.0
451.14,110.0
451.21,97.0
451.27,88.0
451.33,86.0
451.39,94.0
451.46,98.0
451.52,78.0
451.58,96.0
451.65,103.0
451.71,96.0
451.77,107.0
451.84,96.0
451.9,81.0
451.96,98.0
452.02,93.0
452.09,89.0
452.15,110.0
452.21,92.0
452.28,91.0
452.34,117.0
452.4,125.0
452.47,113.0
452.53,114.0
452.59,119.0
452.65,110.0
452.72,89.0
452.78,115.0
452.84,112.0
452.91,125.0
452.97,126.0
453.03,122.0
453.1,139.0
453.16,119.0
453.22,110.0
453.28,120.0
453.35,113.0
453.41,123.0
453.47,118.0
453.54,111.0
453.6,114.0
453.66,131.0
453.73,114.0
453.79,112.0
453.85,120.0
453.91,108.0
453.98,104.0
454.04,126.0
454.1,133.0
454.17,137.0
454.23,133.0
454.29,144.0
454.36,123.0
454.42,106.0
454.48,134.0
454.54,131.0
454.61,120.0
454.67,117.0
454.73,137.0
454.8,121.0
454.86,137.0
454.92,140.0
454.99,126.0
455.05,125.0
455.11,125.0
455.17,145.0
455.24,132.0
455.3,133.0
455.36,134.0
455.43,138.0
455.49,132.0
455.55,120.0
455.62,125.0
455.68,125.0
455.74,133.0
455.8,136.0
455.87,147.0
455.93,119.0
455.99,128.0
456.06,151.0
456.12,141.0
456.18,143.0
456.25,158.0
456.31,136.0
456.37,117.0
456.43,118.0
456.5,101.0
456.56,87.0
456.62,93.0
456.69,92.0
456.75,92.0
456.81,113.0
456.88,98.0
456.94,84.0
457.0,92.0
457.06,86.0
457.13,75.0
457.19,88.0
457.25,96.0
457.32,114.0
457.38,90.0
457.44,96.0
457.51,83.0
457.57,75.0
457.63,85.0
457.69,84.0
457.76,69.0
457.82,71.0
457.88,80.0
457.95,92.0
458.01,81.0
458.07,75.0
458.14,100.0
458.2,99.0
458.26,103.0
458.32,100.0
458.39,71.0
458.45,90.0
458.51,92.0
458.58,87.0
458.64,79.0
458.7,67.0
458.77,67.0
458.83,61.0
458.89,57.0
458.95,50.0
459.02,41.0
459.08,59.0
459.14,39.0
459.21,24.0
459.27,8.0
459.33,40.0
459.4,54.0
459.46,43.0
459.52,52.0
459.58,49.0
459.65,42.0
459.71,49.0
459.77,28.0
459.84,41.0
459.9,64.0
459.96,57.0
460.03,48.0
460.09,50.0
460.15,23.0
460.21,37.0
460.28,45.0
460.34,53.0
460.4,62.0
460.47,54.0
460.53,34.0
460.59,33.0
460.66,49.0
460.72,46.0
460.78,37.0
460.84,44.0
460.91,48.0
460.97,40.0
461.03,39.0
461.1,44.0
461.16,52.0
461.22,29.0
461.29,32.0
461.35,10.0
461.41,22.0
461.47,7.0
461.54,23.0
461.6,15.0
461.66,14.0
461.73,11.0
461.79,12.0
461.85,35.0
461.92,22.0
461.98,34.0
462.04,19.0
462.1,17.0
462.17,26.0
462.23,19.0
462.29,13.0
462.36,4.0
462.42,4.0
462.48,13.0
462.55,3.0
462.61,-3.0
462.67,7.0
462.73,30.0
462.8,11.0
462.86,-8.0
462.92,18.0
462.99,16.0
463.05,24.0
463.11,26.0
463.18,28.0
463.24,29.0
463.3,30.0
463.36,35.0
463.43,42.0
463.49,11.0
463.55,33.0
463.62,11.0
463.68,17.0
463.74,32.0
463.81,9.0
463.87,34.0
463.93,14.0
463.99,18.0
464.06,10.0
464.12,21.0
464.18,3.0
464.25,6.0
464.31,25.0
464.37,35.0
464.44,45.0
464.5,41.0
464.56,49.0
464.62,41.0
464.69,32.0
464.75,30.0
464.81,34.0
464.88,29.0
464.94,34.0
465.0,36.0
465.07,59.0
465.13,66.0
465.19,50.0
465.25,58.0
465.32,74.0
465.38,83.0
465.44,80.0
465.51,72.0
465.57,65.0
465.63,72.0
465.7,75.0
465.76,81.0
465.82,89.0
465.88,105.0
465.95,83.0
466.01,92.0
466.07,94.0
466.14,100.0
466.2,94.0
466.26,82.0
466.33,101.0
466.39,89.0
466.45,94.0
466.51,89.0
466.58,105.0
466.64,85.0
466.7,66.0
466.77,87.0
466.83,72.0
466.89,96.0
466.96,79.0
467.02,76.0
467.08,91.0
467.14,84.0
467.21,73.0
467.27,61.0
467.33,56.0
467.4,67.0
467.46,71.0
467.52,67.0
467.59,67.0
467.65,61.0
467.71,58.0
467.77,53.0
467.84,59.0
467.9,61.0
467.96,48.0
468.03,56.0
468.09,72.0
468.15,50.0
468.22,64.0
468.28,57.0
468.34,46.0
468.4,43.0
468.47,50.0
468.53,46.0
468.59,54.0
468.66,65.0
468.72,72.0
468.78,72.0
468.85,49.0
468.91,59.0
468.97,65.0
469.03,76.0
469.1,72.0
469.16,84.0
469.22,98.0
469.29,101.0
469.35,92.0
469.41,110.0
469.48,114.0
469.54,105.0
469.6,111.0
469.66,109.0
469.73,117.0
469.79,130.0
469.85,147.0
469.92,142.0
469.98,151.0
470.04,145.0
470.11,137.0
470.17,140.0
470.23,142.0
470.29,139.0
470.36,121.0
470.42,116.0
470.48,127.0
470.55,135.0
470.61,156.0
470.67,124.0
470.74,117.0
470.8,136.0
470.86,123.0
470.92,132.0
470.99,135.0
471.05,132.0
471.11,126.0
471.18,130.0
471.24,139.0
471.3,136.0
471.37,131.0
471.43,122.0
471.49,113.0
471.55,144.0
471.62,142.0
471.68,144.0
471.74,146.0
471.81,130.0
471.87,143.0
471.93,138.0
472.0,142.0
472.06,151.0
472.12,137.0
472.18,135.0
472.25,145.0
472.31,135.0
472.37,123.0
472.44,140.0
472.5,150.0
472.56,172.0
472.63,160.0
472.69,153.0
472.75,181.0
472.81,160.0
472.88,145.0
472.94,152.0
473.0,177.0
473.07,181.0
473.13,150.0
473.19,161.0
473.26,152.0
473.32,152.0
473.38,163.0
473.44,164.0
473.51,171.0
473.57,176.0
473.63,197.0
473.7,181.0
473.76,182.0
473.82,174.0
473.89,220.0
473.95,216.0
474.01,183.0
474.07,199.0
474.14,193.0
474.2,171.0
474.26,162.0
474.33,171.0
474.39,171.0
474.45,180.0
474.52,184.0
474.58,171.0
474.64,191.0
474.7,191.0
474.77,181.0
474.83,183.0
474.89,177.0
474.96,178.0
475.02,174.0
475.08,169.0
475.15,169.0
475.21,168.0
475.27,160.0
475.33,164.0
475.4,169.0
475.46,176.0
475.52,175.0
475.59,170.0
475.65,156.0
475.71,152.0
475.78,154.0
475.84,178.0
475.9,178.0
475.96,149.0
476.03,140.0
476.09,131.0
476.15,134.0
476.22,142.0
476.28,167.0
476.34,166.0
476.41,149.0
476.47,130.0
476.53,144.0
476.59,152.0
476.66,137.0
476.72,140.0
476.78,119.0
476.85,110.0
476.91,115.0
476.97,114.0
477.04,114.0
477.1,103.0
477.16,101.0
477.22,105.0
477.29,92.0
477.35,81.0
477.41,91.0
477.48,92.0
477.54,75.0
477.6,76.0
477.67,88.0
477.73,78.0
477.79,84.0
477.85,102.0
477.92,103.0
477.98,92.0
478.04,87.0
478.11,76.0
478.17,74.0
478.23,68.0
478.3,67.0
478.36,65.0
478.42,56.0
478.48,59.0
478.55,66.0
478.61,83.0
478.67,77.0
478.74,87.0
478.8,91.0
478.86,90.0
478.93,83.0
478.99,67.0
479.05,76.0
479.11,76.0
479.18,68.0
479.24,69.0
479.3,75.0
479.37,95.0
479.43,92.0
479.49,95.0
479.56,98.0
479.62,84.0
479.68,92.0
479.74,89.0
479.81,77.0
479.87,82.0
479.93,78.0
480.0,70.0
480.06,72.0
480.12,87.0
480.19,65.0
480.25,75.0
480.31,52.0
480.37,44.0
480.44,74.0
480.5,61.0
480.56,82.0
480.63,67.0
480.69,46.0
480.75,56.0
480.82,47.0
480.88,78.0
480.94,75.0
481.0,74.0
481.07,68.0
481.13,54.0
481.19,72.0
481.26,51.0
481.32,37.0
481.38,38.0
481.45,52.0
481.51,46.0
481.57,30.0
481.63,36.0
481.7,39.0
481.76,39.0
481.82,62.0
481.89,86.0
481.95,54.0
482.01,61.0
482.08,57.0
482.14,65.0
482.2,55.0
482.26,61.0
482.33,70.0
482.39,83.0
482.45,73.0
482.52,90.0
482.58,101.0
482.64,92.0
482.71,69.0
482.77,81.0
482.83,73.0
482.89,67.0
482.96,101.0
483.02,73.0
483.08,82.0
483.15,86.0
483.21,82.0
483.27,82.0
483.34,85.0
483.4,91.0
483.46,108.0
483.52,92.0
483.59,111.0
483.65,97.0
483.71,107.0
483.78,109.0
483.84,95.0
483.9,113.0
483.97,106.0
484.03,99.0
484.09,102.0
484.15,105.0
484.22,89.0
484.28,86.0
484.34,81.0
484.41,80.0
484.47,92.0
484.53,94.0
484.6,105.0
484.66,95.0
484.72,96.0
484.78,84.0
484.85,96.0
484.91,87.0
484.97,78.0
485.04,77.0
485.1,67.0
485.16,93.0
485.23,84.0
485.29,100.0
485.35,108.0
485.41,101.0
485.48,125.0
485.54,118.0
485.6,127.0
485.67,127.0
485.73,128.0
485.79,130.0
485.86,131.0
485.92,124.0
485.98,144.0
486.04,156.0
486.11,140.0
486.17,143.0
486.23,116.0
486.3,129.0
486.36,124.0
486.42,146.0
486.49,155.0
486.55,146.0
486.61,148.0
486.67,159.0
486.74,139.0
486.8,149.0
486.86,128.0
486.93,141.0
486.99,177.0
487.05,167.0
487.12,159.0
487.18,172.0
487.24,179.0
487.3,182.0
487.37,176.0
487.43,186.0
487.49,201.0
487.56,186.0
487.62,186.0
487.68,187.0
487.75,197.0
487.81,215.0
487.87,202.0
487.93,194.0
488.0,212.0
488.06,186.0
488.12,183.0
488.19,174.0
488.25,186.0
488.31,187.0
488.38,188.0
488.44,204.0
488.5,183.0
488.56,169.0
488.63,166.0
488.69,171.0
488.75,184.0
488.82,175.0
488.88,181.0
488.94,189.0
489.01,185.0
489.07,184.0
489.13,181.0
489.19,195.0
489.26,166.0
489.32,154.0
489.38,158.0
489.45,154.0
489.51,179.0
489.57,197.0
489.64,188.0
489.7,176.0
489.76,158.0
489.82,172.0
489.89,170.0
489.95,162.0
490.01,174.0
490.08,187.0
490.14,177.0
490.2,198.0
490.27,166.0
490.33,172.0
490.39,160.0
490.45,146.0
490.52,159.0
490.58,145.0
490.64,149.0
490.71,149.0
490.77,169.0
490.83,150.0
490.9,154.0
490.96,152.0
491.02,145.0
491.08,159.0
491.15,164.0
491.21,162.0
491.27,153.0
491.34,168.0
491.4,176.0
491.46,194.0
491.53,181.0
491.59,169.0
491.65,185.0
491.71,176.0
491.78,163.0
491.84,178.0
491.9,166.0
491.97,180.0
492.03,165.0
492.09,153.0
492.16,159.0
492.22,156.0
492.28,146.0
492.34,146.0
492.41,136.0
492.47,149.0
492.53,171.0
492.6,166.0
492.66,187.0
492.72,145.0
492.79,153.0
492.85,161.0
492.91,150.0
492.97,157.0
493.04,157.0
493.1,145.0
493.16,127.0
493.23,134.0
493.29,145.0
493.35,141.0
493.42,127.0
493.48,161.0
493.54,148.0
493.6,144.0
493.67,131.0
493.73,127.0
493.79,150.0
493.86,130.0
493.92,131.0
493.98,130.0
494.05,132.0
494.11,132.0
494.17,120.0
494.23,152.0
494.3,162.0
494.36,150.0
494.42,146.0
494.49,131.0
494.55,133.0
494.61,128.0
494.68,139.0
494.74,138.0
494.8,114.0
494.86,135.0
494.93,139.0
494.99,135.0
495.05,132.0
495.12,125.0
495.18,117.0
495.24,109.0
495.31,123.0
495.37,116.0
495.43,134.0
495.49,125.0
495.56,116.0
495.62,112.0
495.68,109.0
495.75,122.0
495.81,111.0
495.87,107.0
495.94,110.0
496.0,101.0
496.06,87.0
496.12,100.0
496.19,108.0
496.25,102.0
496.31,71.0
496.38,67.0
496.44,73.0
496.5,71.0
496.57,68.0
496.63,58.0
496.69,62.0
496.75,39.0
496.82,62.0
496.88,83.0
496.94,89.0
497.01,83.0
497.07,70.0
497.13,80.0
497.2,65.0
497.26,60.0
497.32,69.0
497.38,65.0
497.45,60.0
497.51,64.0
497.57,64.0
497.64,54.0
497.7,45.0
497.76,50.0
497.83,62.0
497.89,66.0
497.95,61.0
498.01,70.0
498.08,79.0
498.14,70.0
498.2,53.0
498.27,70.0
498.33,70.0
498.39,69.0
498.46,72.0
498.52,81.0
498.58,90.0
498.64,98.0
498.71,101.0
498.77,94.0
498.83,61.0
498.9,67.0
498.96,66.0
499.02,65.0
499.09,85.0
499.15,93.0
499.21,100.0
499.27,99.0
499.34,100.0
499.4,106.0
499.46,112.0
499.53,120.0
499.59,99.0
499.65,89.0
499.72,112.0
499.78,92.0
499.84,100.0
499.9,116.0
499.97,107.0
500.03,112.0
500.09,108.0
500.16,116.0
500.22,119.0
500.28,120.0
500.35,108.0
500.41,109.0
500.47,107.0
500.53,102.0
500.6,74.0
500.66,73.0
500.72,69.0
500.79,69.0
500.85,94.0
500.91,94.0
500.98,90.0
501.04,85.0
501.1,91.0
501.16,102.0
501.23,104.0
501.29,95.0
501.35,67.0
501.42,73.0
501.48,76.0
501.54,91.0
501.61,84.0
501.67,79.0
501.73,106.0
501.79,86.0
501.86,117.0
501.92,105.0
501.98,120.0
502.05,131.0
502.11,104.0
502.17,113.0
502.24,111.0
502.3,116.0
502.36,97.0
502.42,108.0
502.49,125.0
502.55,114.0
502.61,105.0
502.68,108.0
502.74,107.0
502.8,115.0
502.87,134.0
502.93,123.0
502.99,103.0
503.05,109.0
503.12,107.0
503.18,116.0
503.24,106.0
503.31,99.0
503.37,126.0
503.43,123.0
503.5,112.0
503.56,113.0
503.62,112.0
503.68,117.0
503.75,99.0
503.81,109.0
503.87,122.0
503.94,110.0
504.0,101.0
504.06,98.0
504.13,82.0
504.19,96.0
504.25,103.0
504.31,100.0
504.38,115.0
504.44,112.0
504.5,108.0
504.57,125.0
504.63,121.0
504.69,107.0
504.76,123.0
504.82,117.0
504.88,109.0
504.94,131.0
505.01,140.0
505.07,134.0
505.13,141.0
505.2,135.0
505.26,122.0
505.32,114.0
505.39,127.0
505.45,131.0
505.51,111.0
505.57,109.0
505.64,100.0
505.7,126.0
505.76,133.0
505.83,128.0
505.89,126.0
505.95,107.0
506.02,123.0
506.08,110.0
506.14,120.0
506.2,135.0
506.27,127.0
506.33,138.0
506.39,130.0
506.46,124.0
506.52,105.0
506.58,109.0
506.65,111.0
506.71,104.0
506.77,118.0
506.83,97.0
506.9,122.0
506.96,112.0
507.02,121.0
507.09,118.0
507.15,100.0
507.21,103.0
507.28,92.0
507.34,107.0
507.4,77.0
507.46,105.0
507.53,94.0
507.59,97.0
507.65,114.0
507.72,94.0
507.78,78.0
507.84,60.0
507.91,110.0
507.97,75.0
508.03,70.0
508.09,64.0
508.16,61.0
508.22,68.0
508.28,59.0
508.35,49.0
508.41,39.0
508.47,59.0
508.54,40.0
508.6,43.0
508.66,45.0
508.72,33.0
508.79,48.0
508.85,68.0
508.91,63.0
508.98,61.0
509.04,67.0
509.1,57.0
509.17,45.0
509.23,53.0
509.29,60.0
509.35,62.0
509.42,68.0
509.48,27.0
509.54,51.0
509.61,59.0
509.67,44.0
509.73,64.0
509.8,81.0
509.86,57.0
509.92,59.0
509.98,75.0
510.05,94.0
510.11,81.0
510.17,79.0
510.24,98.0
510.3,82.0
510.36,82.0
510.43,89.0
510.49,83.0
510.55,91.0
510.61,83.0
510.68,77.0
510.74,92.0
510.8,89.0
510.87,87.0
510.93,80.0
510.99,87.0
511.06,72.0
511.12,67.0
511.18,91.0
511.24,79.0
511.31,70.0
511.37,64.0
511.43,67.0
511.5,80.0
511.56,58.0
511.62,61.0
511.69,69.0
511.75,62.0
511.81,55.0
511.87,54.0
511.94,68.0
512.0,53.0
512.06,54.0
512.13,39.0
512.19,43.0
512.25,40.0
512.32,43.0
512.38,54.0
512.44,50.0
512.5,43.0
512.57,48.0
512.63,62.0
512.69,56.0
512.76,45.0
512.82,59.0
512.88,69.0
512.95,54.0
513.01,58.0
513.07,59.0
513.13,61.0
513.2,71.0
513.26,60.0
513.32,48.0
513.39,55.0
513.45,64.0
513.51,59.0
513.58,65.0
513.64,43.0
513.7,40.0
513.76,47.0
513.83,59.0
513.89,50.0
513.95,51.0
514.02,59.0
514.08,43.0
514.14,52.0
514.21,29.0
514.27,33.0
514.33,34.0
514.39,29.0
514.46,45.0
514.52,35.0
514.58,39.0
514.65,24.0
514.71,62.0
514.77,44.0
514.84,22.0
514.9,24.0
514.96,26.0
515.02,29.0
515.09,12.0
515.15,10.0
515.21,18.0
515.28,16.0
515.34,28.0
515.4,13.0
515.47,21.0
515.53,25.0
515.59,50.0
515.65,69.0
515.72,66.0
515.78,75.0
515.84,65.0
515.91,52.0
515.97,81.0
516.03,73.0
516.1,86.0
516.16,98.0
516.22,78.0
516.28,81.0
516.35,89.0
516.41,88.0
516.47,67.0
516.54,62.0
516.6,57.0
516.66,71.0
516.73,90.0
516.79,73.0
516.85,76.0
516.91,59.0
516.98,74.0
517.04,86.0
517.1,87.0
517.17,73.0
517.23,73.0
517.29,71.0
517.36,59.0
517.42,73.0
517.48,62.0
517.54,65.0
517.61,77.0
517.67,61.0
517.73,57.0
517.8,69.0
517.86,78.0
517.92,79.0
517.99,81.0
518.05,83.0
518.11,71.0
518.17,64.0
518.24,62.0
518.3,84.0
518.36,80.0
518.43,84.0
518.49,87.0
518.55,87.0
518.62,57.0
518.68,69.0
518.74,98.0
518.8,102.0
518.87,97.0
518.93,91.0
518.99,84.0
519.06,98.0
519.12,90.0
519.18,82.0
519.25,83.0
519.31,87.0
519.37,98.0
519.43,90.0
519.5,102.0
519.56,111.0
519.62,113.0
519.69,133.0
519.75,140.0
519.81,156.0
519.88,139.0
519.94,126.0
520.0,108.0
520.06,101.0
520.13,102.0
520.19,101.0
520.25,114.0
520.32,111.0
520.38,123.0
520.44,117.0
520.51,116.0
520.57,115.0
520.63,103.0
520.69,89.0
520.76,98.0
520.82,87.0
520.88,94.0
520.95,101.0
521.01,115.0
521.07,130.0
521.14,137.0
521.2,127.0
521.26,129.0
521.32,135.0
521.39,140.0
521.45,145.0
521.51,131.0
521.58,114.0
521.64,129.0
521.7,146.0
521.77,143.0
521.83,136.0
521.89,145.0
521.95,152.0
522.02,142.0
522.08,146.0
522.14,158.0
522.21,172.0
522.27,174.0
522.33,161.0
522.4,151.0
522.46,151.0
522.52,153.0
522.58,145.0
522.65,132.0
522.71,150.0
522.77,169.0
522.84,156.0
522.9,146.0
522.96,145.0
523.03,125.0
523.09,122.0
523.15,133.0
523.21,123.0
523.28,109.0
523.34,111.0
523.4,102.0
523.47,106.0
523.53,118.0
523.59,108.0
523.66,114.0
523.72,123.0
523.78,111.0
523.84,123.0
523.91,136.0
523.97,108.0
524.03,116.0
524.1,130.0
524.16,134.0
524.22,135.0
524.29,133.0
524.35,147.0
524.41,155.0
524.47,135.0
524.54,144.0
524.6,149.0
524.66,146.0
524.73,142.0
524.79,135.0
524.85,136.0
524.92,126.0
524.98,134.0
525.04,156.0
525.1,145.0
525.17,150.0
525.23,143.0
525.29,122.0
525.36,128.0
525.42,132.0
525.48,132.0
525.55,133.0
525.61,129.0
525.67,135.0
525.73,126.0
525.8,120.0
525.86,120.0
525.92,123.0
525.99,123.0
526.05,135.0
526.11,124.0
526.18,105.0
526.24,111.0
526.3,109.0
526.36,120.0
526.43,101.0
526.49,114.0
526.55,117.0
526.62,113.0
526.68,141.0
526.74,145.0
526.81,127.0
526.87,132.0
526.93,133.0
526.99,122.0
527.06,115.0
527.12,114.0
527.18,111.0
527.25,131.0
527.31,123.0
527.37,115.0
527.44,106.0
527.5,123.0
527.56,119.0
527.62,127.0
527.69,107.0
527.75,122.0
527.81,114.0
527.88,96.0
527.94,118.0
528.0,92.0
528.07,94.0
528.13,101.0
528.19,88.0
528.25,88.0
528.32,112.0
528.38,93.0
528.44,115.0
528.51,109.0
528.57,100.0
528.63,107.0
528.7,107.0
528.76,84.0
528.82,88.0
528.88,93.0
528.95,98.0
529.01,88.0
529.07,80.0
529.14,63.0
529.2,71.0
529.26,89.0
529.33,67.0
529.39,72.0
529.45,56.0
529.51,56.0
529.58,48.0
529.64,46.0
529.7,46.0
529.77,47.0
529.83,53.0
529.89,65.0
529.96,67.0
530.02,59.0
530.08,56.0
530.14,66.0
530.21,72.0
530.27,83.0
530.33,66.0
530.4,48.0
530.46,57.0
530.52,55.0
530.59,52.0
530.65,59.0
530.71,56.0
530.77,71.0
530.84,57.0
530.9,68.0
530.96,61.0
531.03,68.0
531.09,61.0
531.15,52.0
531.22,61.0
531.28,61.0
531.34,66.0
531.4,70.0
531.47,68.0
531.53,84.0
531.59,75.0
531.66,69.0
531.72,75.0
531.78,82.0
531.85,64.0
531.91,65.0
531.97,43.0
532.03,51.0
532.1,47.0
532.16,55.0
532.22,68.0
532.29,69.0
532.35,54.0
532.41,57.0
532.48,61.0
532.54,37.0
532.6,42.0
532.66,26.0
532.73,46.0
532.79,41.0
532.85,32.0
532.92,45.0
532.98,31.0
533.04,53.0
533.11,45.0
533.17,22.0
533.23,23.0
533.29,36.0
533.36,28.0
533.42,20.0
533.48,15.0
533.55,25.0
533.61,37.0
533.67,41.0
533.74,44.0
533.8,31.0
533.86,19.0
533.92,22.0
533.99,17.0
534.05,24.0
534.11,31.0
534.18,29.0
534.24,34.0
534.3,39.0
534.37,34.0
534.43,43.0
534.49,43.0
534.55,40.0
534.62,33.0
534.68,43.0
534.74,44.0
534.81,32.0
534.87,39.0
534.93,50.0
535.0,38.0
535.06,37.0
535.12,27.0
535.18,33.0
535.25,45.0
535.31,76.0
535.37,62.0
535.44,52.0
535.5,42.0
535.56,62.0
535.63,58.0
535.69,65.0
535.75,53.0
535.81,72.0
535.88,97.0
535.94,87.0
536.0,86.0
536.07,105.0
536.13,118.0
536.19,113.0
536.26,126.0
536.32,123.0
536.38,133.0
536.44,123.0
536.51,118.0
536.57,117.0
536.63,127.0
536.7,141.0
536.76,113.0
536.82,130.0
536.89,130.0
536.95,149.0
537.01,139.0
537.07,122.0
537.14,121.0
537.2,144.0
537.26,142.0
537.33,148.0
537.39,128.0
537.45,123.0
537.52,117.0
537.58,137.0
537.64,138.0
537.7,131.0
537.77,127.0
537.83,160.0
537.89,161.0
537.96,152.0
538.02,181.0
538.08,152.0
538.15,151.0
538.21,156.0
538.27,156.0
538.33,182.0
538.4,170.0
538.46,164.0
538.52,146.0
538.59,152.0
538.65,157.0
538.71,164.0
538.78,168.0
538.84,157.0
538.9,142.0
538.96,132.0
539.03,138.0
539.09,144.0
539.15,149.0
539.22,149.0
539.28,153.0
539.34,155.0
539.41,147.0
539.47,149.0
539.53,135.0
539.59,140.0
539.66,144.0
539.72,152.0
539.78,162.0
539.85,149.0
539.91,147.0
539.97,144.0
540.04,148.0
540.1,152.0
540.16,141.0
540.22,131.0
540.29,130.0
540.35,152.0
540.41,149.0
540.48,158.0
540.54,159.0
540.6,153.0
540.67,153.0
540.73,164.0
540.79,144.0
540.85,142.0
540.92,147.0
540.98,136.0
541.04,167.0
541.11,138.0
541.17,150.0
541.23,167.0
541.3,145.0
541.36,136.0
541.42,148.0
541.48,148.0
541.55,161.0
541.61,171.0
541.67,174.0
541.74,153.0
541.8,134.0
541.86,138.0
541.93,151.0
541.99,149.0
542.05,149.0
542.11,144.0
542.18,145.0
542.24,145.0
542.3,137.0
542.37,121.0
542.43,158.0
542.49,150.0
542.56,148.0
542.62,155.0
542.68,139.0
542.74,136.0
542.81,136.0
542.87,129.0
542.93,133.0
543.0,139.0
543.06,134.0
543.12,142.0
543.19,141.0
543.25,146.0
543.31,145.0
543.37,125.0
543.44,131.0
543.5,128.0
543.56,141.0
543.63,134.0
543.69,127.0
543.75,120.0
543.82,110.0
543.88,116.0
543.94,113.0
544.0,86.0
544.07,111.0
544.13,108.0
544.19,117.0
544.26,128.0
544.32,135.0
544.38,124.0
544.45,112.0
544.51,121.0
544.57,130.0
544.63,131.0
544.7,126.0
544.76,111.0
544.82,123.0
544.89,120.0
544.95,104.0
545.01,112.0
545.08,101.0
545.14,88.0
545.2,115.0
545.26,101.0
545.33,115.0
545.39,105.0
545.45,105.0
545.52,125.0
545.58,135.0
545.64,114.0
545.71,107.0
545.77,114.0
545.83,95.0
545.89,98.0
545.96,102.0
546.02,116.0
546.08,136.0
546.15,109.0
546.21,103.0
546.27,119.0
546.34,117.0
546.4,98.0
546.46,100.0
546.52,97.0
546.59,110.0
546.65,130.0
546.71,103.0
546.78,129.0
546.84,114.0
546.9,102.0
546.97,113.0
547.03,114.0
547.09,120.0
547.15,142.0
547.22,128.0
547.28,125.0
547.34,129.0
547.41,110.0
547.47,109.0
547.53,91.0
547.6,111.0
547.66,105.0
547.72,98.0
547.78,107.0
547.85,95.0
547.91,116.0
547.97,114.0
548.04,109.0
548.1,117.0
548.16,127.0
548.23,115.0
548.29,110.0
548.35,123.0
548.41,137.0
548.48,122.0
548.54,141.0
548.6,122.0
548.67,128.0
548.73,127.0
548.79,125.0
548.86,130.0
548.92,136.0
548.98,128.0
549.04,109.0
549.11,110.0
549.17,128.0
549.23,115.0
549.3,121.0
549.36,121.0
549.42,117.0
549.49,98.0
549.55,106.0
549.61,86.0
549.67,83.0
549.74,103.0
549.8,93.0
549.86,90.0
549.93,119.0
549.99,97.0
550.05,76.0
550.12,63.0
550.18,87.0
550.24,98.0
550.3,88.0
550.37,101.0
550.43,86.0
550.49,75.0
550.56,79.0
550.62,73.0
550.68,88.0
550.75,82.0
550.81,69.0
550.87,81.0
550.93,104.0
551.0,94.0
551.06,89.0
551.12,75.0
551.19,95.0
551.25,95.0
551.31,82.0
551.38,94.0
551.44,55.0
551.5,92.0
551.56,94.0
551.63,86.0
551.69,95.0
551.75,83.0
551.82,90.0
551.88,90.0
551.94,113.0
552.01,124.0
552.07,102.0
552.13,123.0
552.19,114.0
552.26,115.0
552.32,112.0
552.38,105.0
552.45,104.0
552.51,91.0
552.57,102.0
552.64,114.0
552.7,109.0
552.76,94.0
552.82,104.0
552.89,98.0
552.95,83.0
553.01,115.0
553.08,123.0
553.14,106.0
553.2,82.0
553.27,103.0
553.33,111.0
553.39,94.0
553.45,106.0
553.52,84.0
553.58,83.0
553.64,76.0
553.71,67.0
553.77,83.0
553.83,99.0
553.9,87.0
553.96,105.0
554.02,108.0
554.08,107.0
554.15,113.0
554.21,123.0
554.27,123.0
554.34,130.0
554.4,141.0
554.46,137.0
554.53,129.0
554.59,115.0
554.65,112.0
554.71,132.0
554.78,127.0
554.84,137.0
554.9,123.0
554.97,152.0
555.03,139.0
555.09,136.0
555.16,163.0
555.22,155.0
555.28,151.0
555.34,154.0
555.41,143.0
555.47,150.0
555.53,172.0
555.6,162.0
555.66,158.0
555.72,164.0
555.79,174.0
555.85,171.0
555.91,173.0
555.97,142.0
556.04,156.0
556.1,153.0
556.16,157.0
556.23,150.0
556.29,145.0
556.35,144.0
556.42,136.0
556.48,135.0
556.54,138.0
556.6,136.0
556.67,134.0
556.73,130.0
556.79,114.0
556.86,148.0
556.92,152.0
556.98,124.0
557.05,136.0
557.11,132.0
557.17,141.0
557.23,138.0
557.3,138.0
557.36,160.0
557.42,142.0
557.49,139.0
557.55,132.0
557.61,147.0
557.68,146.0
557.74,142.0
557.8,161.0
557.86,166.0
557.93,160.0
557.99,163.0
558.05,147.0
558.12,145.0
558.18,147.0
558.24,131.0
558.31,136.0
558.37,144.0
558.43,128.0
558.49,146.0
558.56,127.0
558.62,139.0
558.68,141.0
558.75,136.0
558.81,152.0
558.87,141.0
558.94,143.0
559.0,146.0
559.06,140.0
559.12,108.0
559.19,110.0
559.25,105.0
559.31,91.0
559.38,95.0
559.44,97.0
559.5,97.0
559.57,97.0
559.63,89.0
559.69,96.0
559.75,87.0
559.82,92.0
559.88,96.0
559.94,70.0
560.01,60.0
560.07,82.0
560.13,69.0
560.2,61.0
560.26,65.0
560.32,81.0
560.38,90.0
560.45,82.0
560.51,74.0
560.57,72.0
560.64,67.0
560.7,61.0
560.76,61.0
560.83,69.0
560.89,63.0
560.95,56.0
561.01,69.0
561.08,52.0
561.14,65.0
561.2,71.0
561.27,47.0
561.33,64.0
561.39,52.0
561.46,57.0
561.52,74.0
561.58,55.0
561.64,54.0
561.71,51.0
561.77,47.0
561.83,40.0
561.9,28.0
561.96,47.0
562.02,50.0
562.09,50.0
562.15,40.0
562.21,40.0
562.27,41.0
562.34,35.0
562.4,41.0
562.46,39.0
562.53,40.0
562.59,54.0
562.65,58.0
562.72,62.0
562.78,58.0
562.84,50.0
562.9,56.0
562.97,67.0
563.03,78.0
563.09,76.0
563.16,58.0
563.22,36.0
563.28,50.0
563.35,39.0
563.41,44.0
563.47,17.0
563.53,29.0
563.6,24.0
563.66,8.0
563.72,26.0
563.79,25.0
563.85,23.0
563.91,28.0
563.98,26.0
564.04,17.0
564.1,25.0
564.16,27.0
564.23,33.0
564.29,18.0
564.35,27.0
564.42,21.0
564.48,24.0
564.54,9.0
564.61,13.0
564.67,39.0
564.73,45.0
564.79,46.0
564.86,44.0
564.92,41.0
564.98,58.0
565.05,55.0
565.11,43.0
565.17,42.0
565.24,32.0
565.3,36.0
565.36,54.0
565.42,42.0
565.49,28.0
565.55,19.0
565.61,17.0
565.68,40.0
565.74,25.0
565.8,18.0
565.87,5.0
565.93,21.0
565.99,45.0
566.05,26.0
566.12,35.0
566.18,26.0
566.24,18.0
566.31,37.0
566.37,29.0
566.43,34.0
566.5,41.0
566.56,36.0
566.62,42.0
566.68,30.0
566.75,19.0
566.81,36.0
566.87,33.0
566.94,43.0
567.0,30.0
567.06,47.0
567.13,48.0
567.19,30.0
567.25,17.0
567.31,36.0
567.38,17.0
567.44,35.0
567.5,32.0
567.57,15.0
567.63,29.0
567.69,28.0
567.76,47.0
567.82,34.0
567.88,32.0
567.94,45.0
568.01,27.0
568.07,30.0
568.13,34.0
568.2,43.0
568.26,39.0
568.32,40.0
568.39,43.0
568.45,23.0
568.51,31.0
568.57,31.0
568.64,37.0
568.7,36.0
568.76,54.0
568.83,60.0
568.89,37.0
568.95,61.0
569.02,58.0
569.08,36.0
569.14,37.0
569.2,52.0
569.27,52.0
569.33,45.0
569.39,59.0
569.46,66.0
569.52,48.0
569.58,57.0
569.65,70.0
569.71,73.0
569.77,81.0
569.83,79.0
569.9,86.0
569.96,102.0
570.02,112.0
570.09,93.0
570.15,99.0
570.21,88.0
570.28,85.0
570.34,110.0
570.4,88.0
570.46,76.0
570.53,79.0
570.59,76.0
570.65,90.0
570.72,103.0
570.78,97.0
570.84,92.0
570.91,90.0
570.97,90.0
571.03,95.0
571.09,107.0
571.16,105.0
571.22,98.0
571.28,108.0
571.35,97.0
571.41,105.0
571.47,114.0
571.54,119.0
571.6,109.0
571.66,104.0
571.72,128.0
571.79,133.0
571.85,141.0
571.91,116.0
571.98,129.0
572.04,149.0
572.1,127.0
572.17,138.0
572.23,135.0
572.29,139.0
572.35,158.0
572.42,164.0
572.48,171.0
572.54,171.0
572.61,172.0
572.67,165.0
572.73,152.0
572.8,149.0
572.86,133.0
572.92,157.0
572.98,181.0
573.05,162.0
573.11,147.0
573.17,155.0
573.24,142.0
573.3,143.0
573.36,158.0
573.43,156.0
573.49,168.0
573.55,167.0
573.61,170.0
573.68,171.0
573.74,163.0
573.8,153.0
573.87,148.0
573.93,149.0
573.99,149.0
574.06,150.0
574.12,144.0
574.18,125.0
574.24,138.0
574.31,141.0
574.37,132.0
574.43,126.0
574.5,118.0
574.56,132.0
574.62,139.0
574.69,121.0
574.75,116.0
574.81,129.0
574.87,121.0
574.94,127.0
575.0,123.0
575.06,133.0
575.13,112.0
575.19,116.0
575.25,113.0
575.32,111.0
575.38,102.0
575.44,109.0
575.5,108.0
575.57,111.0
575.63,115.0
575.69,112.0
575.76,117.0
575.82,114.0
575.88,122.0
575.95,113.0
576.01,130.0
576.07,128.0
576.13,141.0
576.2,139.0
576.26,127.0
576.32,134.0
576.39,116.0
576.45,125.0
576.51,131.0
576.58,116.0
576.64,104.0
576.7,125.0
576.76,130.0
576.83,131.0
576.89,123.0
576.95,121.0
577.02,120.0
577.08,108.0
577.14,113.0
577.21,119.0
577.27,136.0
577.33,126.0
577.39,115.0
577.46,127.0
577.52,109.0
577.58,117.0
577.65,100.0
577.71,117.0
577.77,113.0
577.84,111.0
577.9,137.0
577.96,129.0
578.02,108.0
578.09,117.0
578.15,130.0
578.21,114.0
578.28,129.0
578.34,112.0
578.4,122.0
578.47,135.0
578.53,119.0
578.59,106.0
578.65,108.0
578.72,132.0
578.78,114.0
578.84,111.0
578.91,100.0
578.97,106.0
579.03,105.0
579.1,79.0
579.16,110.0
579.22,108.0
579.28,121.0
579.35,136.0
579.41,117.0
579.47,120.0
579.54,113.0
579.6,114.0
579.66,95.0
579.73,106.0
579.79,108.0
579.85,104.0
579.91,131.0
579.98,128.0
580.04,119.0
580.1,124.0
580.17,98.0
580.23,107.0
580.29,111.0
580.36,117.0
580.42,94.0
580.48,117.0
580.54,109.0
580.61,108.0
580.67,103.0
580.73,95.0
580.8,100.0
580.86,83.0
580.92,93.0
580.99,84.0
581.05,109.0
581.11,74.0
581.17,80.0
581.24,98.0
581.3,90.0
581.36,78.0
581.43,94.0
581.49,92.0
581.55,79.0
581.62,81.0
581.68,85.0
581.74,84.0
581.8,98.0
581.87,94.0
581.93,90.0
581.99,87.0
582.06,80.0
582.12,95.0
582.18,77.0
582.25,77.0
582.31,76.0
582.37,84.0
582.43,69.0
582.5,72.0
582.56,92.0
582.62,75.0
582.69,67.0
582.75,66.0
582.81,64.0
582.88,71.0
582.94,46.0
583.0,63.0
583.06,66.0
583.13,59.0
583.19,43.0
583.25,39.0
583.32,54.0
583.38,48.0
583.44,39.0
583.51,43.0
583.57,52.0
583.63,33.0
583.69,47.0
583.76,34.0
583.82,39.0
583.88,56.0
583.95,60.0
584.01,38.0
584.07,51.0
584.14,58.0
584.2,60.0
584.26,50.0
584.32,46.0
584.39,56.0
584.45,67.0
584.51,64.0
584.58,57.0
584.64,73.0
584.7,81.0
584.77,60.0
584.83,48.0
584.89,62.0
584.95,63.0
585.02,58.0
585.08,48.0
585.14,52.0
585.21,60.0
585.27,46.0
585.33,47.0
585.4,53.0
585.46,65.0
585.52,28.0
585.58,40.0
585.65,66.0
585.71,68.0
585.77,24.0
585.84,42.0
585.9,70.0
585.96,56.0
586.03,42.0
586.09,57.0
586.15,50.0
586.21,50.0
586.28,69.0
586.34,84.0
586.4,62.0
586.47,80.0
586.53,81.0
586.59,87.0
586.66,73.0
586.72,65.0
586.78,76.0
586.84,80.0
586.91,87.0
586.97,86.0
587.03,65.0
587.1,84.0
587.16,79.0
587.22,90.0
587.29,104.0
587.35,95.0
587.41,107.0
587.47,112.0
587.54,116.0
587.6,116.0
587.66,134.0
587.73,118.0
587.79,116.0
587.85,121.0
587.92,148.0
587.98,166.0
588.04,159.0
588.1,157.0
588.17,157.0
588.23,158.0
588.29,132.0
588.36,141.0
588.42,147.0
588.48,142.0
588.55,146.0
588.61,130.0
588.67,143.0
588.73,156.0
588.8,161.0
588.86,165.0
588.92,155.0
588.99,156.0
589.05,158.0
589.11,162.0
589.18,166.0
589.24,169.0
589.3,174.0
589.36,159.0
589.43,172.0
589.49,157.0
589.55,167.0
589.62,184.0
589.68,165.0
589.74,179.0
589.81,164.0
589.87,169.0
589.93,166.0
589.99,178.0
590.06,142.0
590.12,157.0
590.18,167.0
590.25,152.0
590.31,176.0
590.37,172.0
590.44,164.0
590.5,167.0
590.56,162.0
590.62,149.0
590.69,166.0
590.75,181.0
590.81,175.0
590.88,163.0
590.94,147.0
591.0,155.0
591.07,147.0
591.13,157.0
591.19,152.0
591.25,149.0
591.32,160.0
591.38,157.0
591.44,145.0
591.51,136.0
591.57,149.0
591.63,145.0
591.7,143.0
591.76,141.0
591.82,138.0
591.88,155.0
591.95,153.0
592.01,147.0
592.07,130.0
592.14,143.0
592.2,148.0
592.26,136.0
592.33,151.0
592.39,134.0
592.45,130.0
592.51,145.0
592.58,130.0
592.64,141.0
592.7,140.0
592.77,136.0
592.83,123.0
592.89,122.0
592.96,121.0
593.02,132.0
593.08,112.0
593.14,106.0
593.21,113.0
593.27,123.0
593.33,133.0
593.4,112.0
593.46,101.0
593.52,117.0
593.59,110.0
593.65,100.0
593.71,94.0
593.77,111.0
593.84,118.0
593.9,95.0
593.96,87.0
594.03,109.0
594.09,95.0
594.15,120.0
594.22,98.0
594.28,104.0
594.34,113.0
594.4,121.0
594.47,133.0
594.53,138.0
594.59,138.0
594.66,138.0
594.72,143.0
594.78,150.0
594.85,153.0
594.91,150.0
594.97,164.0
595.03,171.0
595.1,174.0
595.16,162.0
595.22,160.0
595.29,142.0
595.35,119.0
595.41,134.0
595.48,127.0
595.54,133.0
595.6,145.0
595.66,143.0
595.73,134.0
595.79,141.0
595.85,134.0
595.92,125.0
595.98,139.0
596.04,153.0
596.11,149.0
596.17,152.0
596.23,153.0
596.29,145.0
596.36,154.0
596.42,146.0
596.48,147.0
596.55,147.0
596.61,149.0
596.67,134.0
596.74,154.0
596.8,146.0
596.86,152.0
596.92,158.0
596.99,127.0
597.05,159.0
597.11,155.0
597.18,141.0
597.24,133.0
597.3,145.0
597.37,138.0
597.43,136.0
597.49,128.0
597.55,143.0
597.62,144.0
597.68,113.0
597.74,135.0
597.81,142.0
597.87,124.0
597.93,132.0
598.0,104.0
598.06,108.0
598.12,122.0
598.18,114.0
598.25,122.0
598.31,111.0
598.37,105.0
598.44,109.0
598.5,124.0
598.56,126.0
598.63,130.0
598.69,150.0
598.75,144.0
598.81,144.0
598.88,155.0
598.94,138.0
599.0,119.0
599.07,113.0
599.13,157.0
599.19,152.0
599.26,141.0
599.32,135.0
599.38,143.0
599.44,139.0
599.51,126.0
599.57,126.0
599.63,127.0
599.7,138.0
599.76,122.0
599.82,124.0
599.89,119.0
599.95,108.0
600.01,116.0
600.07,84.0
600.14,91.0
600.2,106.0
600.26,87.0
600.33,69.0
600.39,58.0
600.45,83.0
600.52,70.0
600.58,83.0
600.64,84.0
600.7,77.0
600.77,87.0
600.83,87.0
600.89,63.0
600.96,65.0
601.02,62.0
601.08,61.0
601.15,54.0
601.21,56.0
601.27,60.0
601.33,70.0
601.4,79.0
601.46,74.0
601.52,74.0
601.59,62.0
601.65,60.0
601.71,73.0
601.78,75.0
601.84,72.0
601.9,74.0
601.96,62.0
602.03,64.0
602.09,63.0
602.15,43.0
602.22,59.0
602.28,60.0
602.34,65.0
602.41,51.0
602.47,64.0
602.53,62.0
602.59,55.0
602.66,54.0
602.72,49.0
602.78,66.0
602.85,78.0
602.91,84.0
602.97,90.0
603.04,85.0
603.1,68.0
603.16,73.0
603.22,58.0
603.29,57.0
603.35,67.0
603.41,54.0
603.48,84.0
603.54,95.0
603.6,79.0
603.67,110.0
603.73,87.0
603.79,82.0
603.85,85.0
603.92,105.0
603.98,119.0
604.04,130.0
604.11,133.0
604.17,129.0
604.23,142.0
604.3,138.0
604.36,142.0
604.42,141.0
604.48,126.0
604.55,143.0
604.61,160.0
604.67,145.0
604.74,124.0
604.8,136.0
604.86,145.0
604.93,141.0
604.99,149.0
605.05,109.0
605.11,120.0
605.18,126.0
605.24,131.0
605.3,139.0
605.37,149.0
605.43,144.0
605.49,123.0
605.56,150.0
605.62,149.0
605.68,136.0
605.74,166.0
605.81,157.0
605.87,138.0
605.93,123.0
606.0,123.0
606.06,124.0
606.12,134.0
606.19,151.0
606.25,149.0
606.31,155.0
606.37,154.0
606.44,131.0
606.5,135.0
606.56,131.0
606.63,112.0
606.69,114.0
606.75,120.0
606.82,116.0
606.88,137.0
606.94,131.0
607.0,123.0
607.07,126.0
607.13,127.0
607.19,113.0
607.26,109.0
607.32,137.0
607.38,130.0
607.45,123.0
607.51,131.0
607.57,114.0
607.63,134.0
607.7,114.0
607.76,103.0
607.82,120.0
607.89,139.0
607.95,136.0
608.01,132.0
608.08,127.0
608.14,142.0
608.2,152.0
608.26,141.0
608.33,136.0
608.39,129.0
608.45,120.0
608.52,128.0
608.58,143.0
608.64,135.0
608.71,135.0
608.77,118.0
608.83,138.0
608.89,133.0
608.96,128.0
609.02,119.0
609.08,144.0
609.15,120.0
609.21,119.0
609.27,130.0
609.34,138.0
609.4,123.0
609.46,118.0
609.52,142.0
609.59,133.0
609.65,133.0
609.71,120.0
609.78,120.0
609.84,126.0
609.9,123.0
609.97,129.0
610.03,109.0
610.09,111.0
610.15,125.0
610.22,130.0
610.28,117.0
610.34,151.0
610.41,112.0
610.47,120.0
610.53,106.0
610.6,94.0
610.66,86.0
610.72,91.0
610.78,103.0
610.85,78.0
610.91,82.0
610.97,95.0
611.04,91.0
611.1,107.0
611.16,83.0
611.23,94.0
611.29,114.0
611.35,91.0
611.41,108.0
611.48,89.0
611.54,107.0
611.6,106.0
611.67,105.0
611.73,107.0
611.79,78.0
611.86,83.0
611.92,102.0
611.98,95.0
612.04,86.0
612.11,82.0
612.17,94.0
612.23,100.0
612.3,98.0
612.36,83.0
612.42,105.0
612.49,108.0
612.55,88.0
612.61,72.0
612.67,80.0
612.74,87.0
612.8,89.0
612.86,92.0
612.93,95.0
612.99,90.0
613.05,102.0
613.12,100.0
613.18,97.0
613.24,98.0
613.3,86.0
613.37,107.0
613.43,81.0
613.49,93.0
613.56,94.0
613.62,82.0
613.68,94.0
613.75,93.0
613.81,106.0
613.87,92.0
613.93,78.0
614.0,92.0
614.06,93.0
614.12,99.0
614.19,89.0
614.25,75.0
614.31,80.0
614.38,86.0
614.44,108.0
614.5,90.0
614.56,97.0
614.63,98.0
614.69,91.0
614.75,65.0
614.82,49.0
614.88,63.0
614.94,61.0
615.01,67.0
615.07,86.0
615.13,89.0
615.19,84.0
615.26,73.0
615.32,50.0
615.38,54.0
615.45,57.0
615.51,42.0
615.57,56.0
615.64,56.0
615.7,92.0
615.76,80.0
615.82,63.0
615.89,71.0
615.95,79.0
616.01,78.0
616.08,89.0
616.14,103.0
616.2,83.0
616.27,76.0
616.33,80.0
616.39,79.0
616.45,91.0
616.52,90.0
616.58,68.0
616.64,80.0
616.71,83.0
616.77,87.0
616.83,72.0
616.9,57.0
616.96,81.0
617.02,71.0
617.08,68.0
617.15,62.0
617.21,60.0
617.27,69.0
617.34,51.0
617.4,58.0
617.46,76.0
617.53,54.0
617.59,35.0
617.65,18.0
617.71,46.0
617.78,32.0
617.84,25.0
617.9,27.0
617.97,10.0
618.03,13.0
618.09,2.0
618.16,17.0
618.22,-5.0
618.28,-11.0
618.34,10.0
618.41,-1.0
618.47,4.0
618.53,-3.0
618.6,-18.0
618.66,-26.0
618.72,-36.0
618.79,-25.0
618.85,-4.0
618.91,-2.0
618.97,-11.0
619.04,-10.0
619.1,-30.0
619.16,-19.0
619.23,-10.0
619.29,-4.0
619.35,3.0
619.42,-17.0
619.48,2.0
619.54,2.0
619.6,-7.0
619.67,3.0
619.73,2.0
619.79,22.0
619.86,18.0
619.92,5.0
619.98,16.0
620.05,31.0
620.11,23.0
620.17,-1.0
620.23,25.0
620.3,41.0
620.36,33.0
620.42,38.0
620.49,50.0
620.55,64.0
620.61,55.0
620.68,78.0
620.74,65.0
620.8,52.0
620.86,78.0
620.93,66.0
620.99,65.0
621.05,82.0
621.12,61.0
621.18,61.0
621.24,73.0
621.31,75.0
621.37,80.0
621.43,76.0
621.49,55.0
621.56,95.0
621.62,97.0
621.68,110.0
621.75,105.0
621.81,89.0
621.87,76.0
621.94,114.0
622.0,106.0
622.06,118.0
622.12,125.0
622.19,104.0
622.25,126.0
622.31,128.0
622.38,119.0
622.44,117.0
622.5,132.0
622.57,115.0
622.63,119.0
622.69,132.0
622.75,112.0
622.82,132.0
622.88,146.0
622.94,138.0
623.01,119.0
623.07,128.0
623.13,129.0
623.2,98.0
623.26,110.0
623.32,123.0
623.38,114.0
623.45,122.0
623.51,118.0
623.57,133.0
623.64,126.0
623.7,132.0
623.76,135.0
623.83,135.0
623.89,146.0
623.95,181.0
624.01,169.0
624.08,154.0
624.14,155.0
624.2,161.0
624.27,151.0
624.33,155.0
624.39,181.0
624.46,166.0
624.52,173.0
624.58,165.0
624.64,159.0
624.71,159.0
624.77,158.0
624.83,165.0
624.9,160.0
624.96,166.0
625.02,166.0
625.09,167.0
625.15,177.0
625.21,174.0
625.27,162.0
625.34,171.0
625.4,155.0
625.46,157.0
625.53,178.0
625.59,179.0
625.65,159.0
625.72,162.0
625.78,141.0
625.84,166.0
625.9,165.0
625.97,143.0
626.03,148.0
626.09,165.0
626.16,181.0
626.22,157.0
626.28,171.0
626.35,174.0
626.41,163.0
626.47,176.0
626.53,170.0
626.6,159.0
626.66,169.0
626.72,163.0
626.79,139.0
626.85,138.0
626.91,140.0
626.98,132.0
627.04,134.0
627.1,114.0
627.16,110.0
627.23,115.0
627.29,112.0
627.35,118.0
627.42,115.0
627.48,118.0
627.54,132.0
627.61,124.0
627.67,122.0
627.73,131.0
627.79,135.0
627.86,141.0
627.92,120.0
627.98,117.0
628.05,106.0
628.11,130.0
628.17,125.0
628.24,132.0
628.3,127.0
628.36,116.0
628.42,115.0
628.49,105.0
628.55,109.0
628.61,79.0
628.68,94.0
628.74,105.0
628.8,121.0
628.87,128.0
628.93,121.0
628.99,119.0
629.05,116.0
629.12,106.0
629.18,123.0
629.24,127.0
629.31,140.0
629.37,142.0
629.43,124.0
629.5,111.0
629.56,103.0
629.62,86.0
629.68,103.0
629.75,119.0
629.81,105.0
629.87,130.0
629.94,124.0
630.0,143.0
630.06,132.0
630.13,115.0
630.19,111.0
630.25,107.0
630.31,114.0
630.38,101.0
630.44,86.0
630.5,104.0
630.57,114.0
630.63,102.0
630.69,93.0
630.76,91.0
630.82,85.0
630.88,112.0
630.94,114.0
631.01,115.0
631.07,102.0
631.13,124.0
631.2,125.0
631.26,131.0
631.32,119.0
631.39,115.0
631.45,117.0
631.51,100.0
631.57,113.0
631.64,112.0
631.7,103.0
631.76,133.0
631.83,118.0
631.89,126.0
631.95,120.0
632.02,106.0
632.08,135.0
632.14,123.0
632.2,102.0
632.27,106.0
632.33,107.0
632.39,119.0
632.46,123.0
632.52,100.0
632.58,116.0
632.65,113.0
632.71,97.0
632.77,99.0
632.83,97.0
632.9,77.0
632.96,86.0
633.02,93.0
633.09,83.0
633.15,74.0
633.21,83.0
633.28,107.0
633.34,102.0
633.4,76.0
633.46,88.0
633.53,91.0
633.59,73.0
633.65,67.0
633.72,74.0
633.78,66.0
633.84,43.0
633.91,56.0
633.97,48.0
634.03,45.0
634.09,72.0
634.16,42.0
634.22,46.0
634.28,53.0
634.35,55.0
634.41,64.0
634.47,67.0
634.54,80.0
634.6,76.0
634.66,66.0
634.72,70.0
634.79,63.0
634.85,63.0
634.91,69.0
634.98,60.0
635.04,76.0
635.1,69.0
635.17,52.0
635.23,75.0
635.29,72.0
635.35,66.0
635.42,63.0
635.48,47.0
635.54,56.0
635.61,52.0
635.67,52.0
635.73,47.0
635.8,58.0
635.86,41.0
635.92,25.0
635.98,56.0
636.05,72.0
636.11,66.0
636.17,59.0
636.24,57.0
636.3,92.0
636.36,70.0
636.43,76.0
636.49,70.0
636.55,74.0
636.61,77.0
636.68,75.0
636.74,69.0
636.8,56.0
636.87,74.0
636.93,86.0
636.99,61.0
637.06,89.0
637.12,89.0
637.18,92.0
637.24,104.0
637.31,97.0
637.37,98.0
637.43,118.0
637.5,113.0
637.56,88.0
637.62,88.0
637.69,110.0
637.75,117.0
637.81,125.0
637.87,124.0
637.94,130.0
638.0,132.0
638.06,139.0
638.13,146.0
638.19,154.0
638.25,158.0
638.32,161.0
638.38,182.0
638.44,173.0
638.5,173.0
638.57,184.0
638.63,168.0
638.69,209.0
638.76,208.0
638.82,190.0
638.88,210.0
638.95,199.0
639.01,206.0
639.07,210.0
639.13,214.0
639.2,213.0
639.26,197.0
639.32,208.0
639.39,203.0
639.45,208.0
639.51,222.0
639.58,213.0
639.64,204.0
639.7,221.0
639.76,220.0
639.83,217.0
639.89,209.0
639.95,209.0
640.02,217.0
640.08,206.0
640.14,214.0
640.21,214.0
640.27,202.0
640.33,206.0
640.39,206.0
640.46,210.0
640.52,215.0
640.58,223.0
640.65,221.0
640.71,217.0
640.77,192.0
640.84,195.0
640.9,221.0
640.96,218.0
641.02,216.0
641.09,206.0
641.15,194.0
641.21,192.0
641.28,196.0
641.34,195.0
641.4,190.0
641.47,182.0
641.53,177.0
641.59,173.0
641.65,190.0
641.72,149.0
641.78,158.0
641.84,166.0
641.91,173.0
641.97,199.0
642.03,178.0
642.1,176.0
642.16,170.0
642.22,177.0
642.28,206.0
642.35,181.0
642.41,184.0
642.47,185.0
642.54,171.0
642.6,159.0
642.66,170.0
642.73,173.0
642.79,157.0
642.85,131.0
642.91,122.0
642.98,136.0
643.04,150.0
643.1,140.0
643.17,128.0
643.23,130.0
643.29,130.0
643.36,121.0
643.42,118.0
643.48,115.0
643.54,114.0
643.61,113.0
643.67,127.0
643.73,124.0
643.8,144.0
643.86,142.0
643.92,140.0
643.99,144.0
644.05,133.0
644.11,145.0
644.17,124.0
644.24,127.0
644.3,133.0
644.36,140.0
644.43,133.0
644.49,115.0
644.55,126.0
644.62,139.0
644.68,129.0
644.74,145.0
644.8,156.0
644.87,138.0
644.93,132.0
644.99,132.0
645.06,150.0
645.12,151.0
645.18,147.0
645.25,144.0
645.31,135.0
645.37,128.0
645.43,140.0
645.5,140.0
645.56,134.0
645.62,125.0
645.69,130.0
645.75,112.0
645.81,123.0
645.88,130.0
645.94,133.0
646.0,121.0
646.06,132.0
646.13,150.0
646.19,137.0
646.25,134.0
646.32,133.0
646.38,118.0
646.44,117.0
646.51,127.0
646.57,113.0
646.63,132.0
646.69,158.0
646.76,143.0
646.82,141.0
646.88,151.0
646.95,153.0
647.01,162.0
647.07,160.0
647.14,172.0
647.2,173.0
647.26,175.0
647.32,174.0
647.39,204.0
647.45,212.0
647.51,173.0
647.58,152.0
647.64,161.0
647.7,147.0
647.77,151.0
647.83,159.0
647.89,148.0
647.95,156.0
648.02,138.0
648.08,142.0
648.14,139.0
648.21,124.0
648.27,116.0
648.33,108.0
648.4,135.0
648.46,130.0
648.52,134.0
648.58,115.0
648.65,122.0
648.71,138.0
648.77,132.0
648.84,129.0
648.9,130.0
648.96,135.0
649.03,135.0
649.09,132.0
649.15,135.0
649.21,122.0
649.28,123.0
649.34,139.0
649.4,150.0
649.47,145.0
649.53,129.0
649.59,127.0
649.66,134.0
649.72,122.0
649.78,143.0
649.84,146.0
649.91,134.0
649.97,140.0
650.03,144.0
650.1,139.0
650.16,119.0
650.22,112.0
650.29,129.0
650.35,114.0
650.41,116.0
650.47,106.0
650.54,88.0
650.6,99.0
650.66,109.0
650.73,92.0
650.79,92.0
650.85,88.0
650.92,126.0
650.98,97.0
651.04,90.0
651.1,88.0
651.17,88.0
651.23,103.0
651.29,95.0
651.36,105.0
651.42,85.0
651.48,81.0
651.55,98.0
651.61,89.0
651.67,77.0
651.73,78.0
651.8,65.0
651.86,45.0
651.92,45.0
651.99,46.0
652.05,60.0
652.11,68.0
652.18,53.0
652.24,69.0
652.3,76.0
652.36,68.0
652.43,37.0
652.49,54.0
652.55,49.0
652.62,42.0
652.68,59.0
652.74,41.0
652.81,47.0
652.87,45.0
652.93,47.0
652.99,43.0
653.06,64.0
653.12,70.0
653.18,64.0
653.25,67.0
653.31,66.0
653.37,83.0
653.44,73.0
653.5,78.0
653.56,76.0
653.62,68.0
653.69,70.0
653.75,63.0
653.81,51.0
653.88,57.0
653.94,72.0
654.0,61.0
654.07,67.0
654.13,90.0
654.19,116.0
654.25,111.0
654.32,122.0
654.38,111.0
654.44,107.0
654.51,101.0
654.57,92.0
654.63,106.0
654.7,105.0
654.76,116.0
654.82,88.0
654.88,112.0
654.95,130.0
655.01,129.0
655.07,112.0
655.14,107.0
655.2,130.0
655.26,152.0
655.33,160.0
655.39,145.0
655.45,155.0
655.51,147.0
655.58,155.0
655.64,166.0
655.7,158.0
655.77,142.0
655.83,152.0
655.89,160.0
655.96,155.0
656.02,149.0
656.08,138.0
656.14,151.0
656.21,152.0
656.27,147.0
656.33,143.0
656.4,164.0
656.46,148.0
656.52,136.0
656.59,147.0
656.65,135.0
656.71,155.0
656.77,157.0
656.84,129.0
656.9,140.0
656.96,148.0
657.03,146.0
657.09,171.0
657.15,149.0
657.22,141.0
657.28,139.0
657.34,154.0
657.4,130.0
657.47,142.0
657.53,139.0
657.59,122.0
657.66,126.0
657.72,129.0
657.78,141.0
657.85,124.0
657.91,126.0
657.97,136.0
658.03,136.0
658.1,131.0
658.16,133.0
658.22,125.0
658.29,127.0
658.35,132.0
658.41,147.0
658.48,135.0
658.54,162.0
658.6,163.0
658.66,161.0
658.73,166.0
658.79,155.0
658.85,141.0
658.92,107.0
658.98,134.0
659.04,133.0
659.11,124.0
659.17,114.0
659.23,115.0
659.29,127.0
659.36,124.0
659.42,126.0
659.48,107.0
659.55,107.0
659.61,126.0
659.67,133.0
659.74,126.0
659.8,139.0
659.86,113.0
659.92,111.0
659.99,111.0
660.05,111.0
660.11,106.0
660.18,102.0
660.24,75.0
660.3,84.0
660.37,84.0
660.43,65.0
660.49,70.0
660.55,71.0
660.62,59.0
660.68,65.0
660.74,64.0
660.81,62.0
660.87,64.0
660.93,85.0
661.0,91.0
661.06,97.0
661.12,96.0
661.18,71.0
661.25,74.0
661.31,71.0
661.37,78.0
661.44,78.0
661.5,70.0
661.56,64.0
661.63,67.0
661.69,78.0
661.75,71.0
661.81,75.0
661.88,84.0
661.94,67.0
662.0,75.0
662.07,75.0
662.13,85.0
662.19,83.0
662.26,94.0
662.32,80.0
662.38,77.0
662.44,118.0
662.51,116.0
662.57,119.0
662.63,114.0
662.7,122.0
662.76,131.0
662.82,121.0
662.89,114.0
662.95,117.0
663.01,112.0
663.07,118.0
663.14,105.0
663.2,101.0
663.26,94.0
663.33,90.0
663.39,111.0
663.45,110.0
663.52,88.0
663.58,96.0
663.64,91.0
663.7,92.0
663.77,105.0
663.83,102.0
663.89,115.0
663.96,121.0
664.02,140.0
664.08,133.0
664.15,123.0
664.21,140.0
664.27,159.0
664.33,149.0
664.4,157.0
664.46,146.0
664.52,154.0
664.59,146.0
664.65,137.0
664.71,163.0
664.78,146.0
664.84,148.0
664.9,125.0
664.96,134.0
665.03,148.0
665.09,122.0
665.15,120.0
665.22,122.0
665.28,115.0
665.34,118.0
665.41,120.0
665.47,104.0
665.53,129.0
665.59,122.0
665.66,131.0
665.72,111.0
665.78,114.0
665.85,119.0
665.91,138.0
665.97,147.0
666.04,154.0
666.1,130.0
666.16,133.0
666.22,147.0
666.29,134.0
666.35,149.0
666.41,135.0
666.48,125.0
666.54,133.0
666.6,136.0
666.67,121.0
666.73,93.0
666.79,107.0
666.85,96.0
666.92,92.0
666.98,73.0
667.04,87.0
667.11,96.0
667.17,72.0
667.23,78.0
667.3,81.0
667.36,98.0
667.42,65.0
667.48,67.0
667.55,69.0
667.61,60.0
667.67,70.0
667.74,38.0
667.8,21.0
667.86,23.0
667.93,38.0
667.99,45.0
668.05,22.0
668.11,22.0
668.18,4.0
668.24,8.0
668.3,1.0
668.37,14.0
668.43,-5.0
668.49,9.0
668.56,18.0
668.62,8.0
668.68,8.0
668.74,14.0
668.81,11.0
668.87,8.0
668.93,-1.0
669.0,-1.0
669.06,5.0
669.12,11.0
669.19,-14.0
669.25,-3.0
669.31,21.0
669.37,13.0
669.44,0.0
669.5,8.0
669.56,6.0
669.63,23.0
669.69,1.0
669.75,18.0
669.82,4.0
669.88,-3.0
669.94,23.0
670.0,21.0
670.07,37.0
670.13,26.0
670.19,34.0
670.26,19.0
670.32,10.0
670.38,10.0
670.45,23.0
670.51,25.0
670.57,30.0
670.63,35.0
670.7,48.0
670.76,49.0
670.82,48.0
670.89,39.0
670.95,35.0
671.01,44.0
671.08,59.0
671.14,56.0
671.2,52.0
671.26,42.0
671.33,61.0
671.39,63.0
671.45,79.0
671.52,84.0
671.58,47.0
671.64,63.0
671.71,62.0
671.77,55.0
671.83,82.0
671.89,79.0
671.96,87.0
672.02,103.0
672.08,86.0
672.15,104.0
672.21,114.0
672.27,110.0
672.34,100.0
672.4,118.0
672.46,132.0
672.52,117.0
672.59,106.0
672.65,127.0
672.71,126.0
672.78,117.0
672.84,123.0
672.9,143.0
672.97,137.0
673.03,99.0
673.09,138.0
673.15,133.0
673.22,120.0
673.28,123.0
673.34,121.0
673.41,118.0
673.47,114.0
673.53,119.0
673.6,127.0
673.66,117.0
673.72,115.0
673.78,107.0
673.85,94.0
673.91,102.0
673.97,114.0
674.04,118.0
674.1,140.0
674.16,112.0
674.23,127.0
674.29,148.0
674.35,130.0
674.41,152.0
674.48,125.0
674.54,147.0
674.6,130.0
674.67,129.0
674.73,123.0
674.79,110.0
674.86,126.0
674.92,124.0
674.98,130.0
675.04,125.0
675.11,120.0
675.17,125.0
675.23,134.0
675.3,138.0
675.36,136.0
675.42,139.0
675.49,148.0
675.55,140.0
675.61,146.0
675.67,142.0
675.74,148.0
675.8,153.0
675.86,146.0
675.93,142.0
675.99,134.0
676.05,139.0
676.12,132.0
676.18,128.0
676.24,131.0
676.3,125.0
676.37,115.0
676.43,109.0
676.49,128.0
676.56,114.0
676.62,123.0
676.68,128.0
676.75,126.0
676.81,136.0
676.87,118.0
676.93,138.0
677.0,151.0
677.06,125.0
677.12,126.0
677.19,154.0
677.25,120.0
677.31,120.0
677.38,125.0
677.44,116.0
677.5,120.0
677.56,109.0
677.63,140.0
677.69,140.0
677.75,137.0
677.82,131.0
677.88,135.0
677.94,141.0
678.01,122.0
678.07,118.0
678.13,110.0
678.19,122.0
678.26,125.0
678.32,125.0
678.38,122.0
678.45,112.0
678.51,116.0
678.57,118.0
678.64,107.0
678.7,104.0
678.76,123.0
678.82,108.0
678.89,132.0
678.95,115.0
679.01,135.0
679.08,118.0
679.14,122.0
679.2,137.0
679.27,118.0
679.33,132.0
679.39,134.0
679.45,145.0
679.52,147.0
679.58,149.0
679.64,151.0
679.71,153.0
679.77,154.0
679.83,154.0
679.9,153.0
679.96,153.0
680.02,147.0
680.08,160.0
680.15,159.0
680.21,167.0
680.27,163.0
680.34,163.0
680.4,159.0
680.46,173.0
680.53,179.0
680.59,184.0
680.65,150.0
680.71,149.0
680.78,164.0
680.84,164.0
680.9,159.0
680.97,158.0
681.03,169.0
681.09,160.0
681.16,157.0
681.22,154.0
681.28,161.0
681.34,170.0
681.41,177.0
681.47,162.0
681.53,147.0
681.6,150.0
681.66,155.0
681.72,148.0
681.79,144.0
681.85,155.0
681.91,162.0
681.97,154.0
682.04,158.0
682.1,154.0
682.16,152.0
682.23,143.0
682.29,122.0
682.35,124.0
682.42,116.0
682.48,112.0
682.54,127.0
682.6,132.0
682.67,123.0
682.73,125.0
682.79,115.0
682.86,125.0
682.92,128.0
682.98,116.0
683.05,125.0
683.11,128.0
683.17,116.0
683.23,114.0
683.3,93.0
683.36,98.0
683.42,114.0
683.49,121.0
683.55,110.0
683.61,115.0
683.68,112.0
683.74,105.0
683.8,105.0
683.86,102.0
683.93,91.0
683.99,105.0
684.05,92.0
684.12,86.0
684.18,78.0
684.24,74.0
684.31,74.0
684.37,102.0
684.43,92.0
684.49,99.0
684.56,71.0
684.62,84.0
684.68,81.0
684.75,67.0
684.81,52.0
684.87,58.0
684.94,57.0
685.0,66.0
685.06,53.0
685.12,46.0
685.19,56.0
685.25,57.0
685.31,54.0
685.38,51.0
685.44,54.0
685.5,51.0
685.57,48.0
685.63,59.0
685.69,70.0
685.75,60.0
685.82,54.0
685.88,46.0
685.94,51.0
686.01,47.0
686.07,43.0
686.13,39.0
686.2,22.0
686.26,16.0
686.32,10.0
686.38,26.0
686.45,21.0
686.51,11.0
686.57,4.0
686.64,27.0
686.7,20.0
686.76,-10.0
686.83,15.0
686.89,30.0
686.95,29.0
687.01,27.0
687.08,55.0
687.14,64.0
687.2,54.0
687.27,72.0
687.33,63.0
687.39,51.0
687.46,57.0
687.52,67.0
687.58,87.0
687.64,82.0
687.71,86.0
687.77,97.0
687.83,93.0
687.9,97.0
687.96,90.0
688.02,68.0
688.09,92.0
688.15,104.0
688.21,84.0
688.27,85.0
688.34,98.0
688.4,112.0
688.46,107.0
688.53,109.0
688.59,98.0
688.65,76.0
688.72,85.0
688.78,91.0
688.84,93.0
688.9,86.0
688.97,79.0
689.03,109.0
689.09,96.0
689.16,94.0
689.22,79.0
689.28,103.0
689.35,102.0
689.41,116.0
689.47,114.0
689.53,111.0
689.6,127.0
689.66,102.0
689.72,112.0
689.79,127.0
689.85,108.0
689.91,99.0
689.98,101.0
690.04,131.0
690.1,145.0
690.16,149.0
690.23,153.0
690.29,142.0
690.35,153.0
690.42,139.0
690.48,136.0
690.54,142.0
690.61,147.0
690.67,149.0
690.73,152.0
690.79,143.0
690.86,154.0
690.92,155.0
690.98,153.0
691.05,165.0
691.11,145.0
691.17,153.0
691.24,151.0
691.3,139.0
691.36,158.0
691.42,161.0
691.49,161.0
691.55,172.0
691.61,159.0
691.68,146.0
691.74,170.0
691.8,153.0
691.87,162.0
691.93,164.0
691.99,159.0
692.05,174.0
692.12,159.0
692.18,164.0
692.24,171.0
692.31,162.0
692.37,156.0
692.43,161.0
692.5,172.0
692.56,155.0
692.62,155.0
692.68,143.0
692.75,145.0
692.81,140.0
692.87,126.0
692.94,143.0
693.0,120.0
693.06,132.0
693.13,126.0
693.19,129.0
693.25,162.0
693.31,146.0
693.38,128.0
693.44,131.0
693.5,144.0
693.57,128.0
693.63,118.0
693.69,137.0
693.76,130.0
693.82,122.0
693.88,134.0
693.94,132.0
694.01,129.0
694.07,119.0
694.13,110.0
694.2,119.0
694.26,131.0
694.32,132.0
694.39,139.0
694.45,139.0
694.51,131.0
694.57,130.0
694.64,132.0
694.7,141.0
694.76,129.0
694.83,129.0
694.89,121.0
694.95,144.0
695.02,124.0
695.08,105.0
695.14,133.0
695.2,132.0
695.27,129.0
695.33,123.0
695.39,115.0
695.46,118.0
695.52,124.0
695.58,134.0
695.65,122.0
695.71,113.0
695.77,108.0
695.83,132.0
695.9,122.0
695.96,122.0
696.02,100.0
696.09,95.0
696.15,102.0
696.21,115.0
696.28,97.0
696.34,99.0
696.4,105.0
696.46,97.0
696.53,113.0
696.59,90.0
696.65,108.0
696.72,128.0
696.78,123.0
696.84,137.0
696.91,131.0
696.97,126.0
697.03,129.0
697.09,129.0
697.16,120.0
697.22,102.0
697.28,130.0
697.35,136.0
697.41,148.0
697.47,150.0
697.54,151.0
697.6,140.0
697.66,161.0
697.72,163.0
697.79,161.0
697.85,165.0
697.91,146.0
697.98,165.0
698.04,163.0
698.1,161.0
698.17,163.0
698.23,136.0
698.29,135.0
698.35,158.0
698.42,152.0
698.48,156.0
698.54,157.0
698.61,167.0
698.67,198.0
698.73,176.0
698.8,175.0
698.86,165.0
698.92,158.0
698.98,144.0
699.05,139.0
699.11,154.0
699.17,161.0
699.24,132.0
699.3,130.0
699.36,156.0
699.43,161.0
699.49,147.0
699.55,151.0
699.61,161.0
699.68,170.0
699.74,166.0
699.8,161.0
699.87,172.0
699.93,179.0
699.99,173.0
700.06,157.0
700.12,153.0
700.18,158.0
700.24,148.0
700.31,174.0
700.37,193.0
700.43,150.0
700.5,151.0
700.56,131.0
700.62,118.0
700.69,131.0
700.75,95.0
700.81,110.0
700.87,119.0
700.94,99.0
701.0,112.0
701.06,96.0
701.13,101.0
701.19,106.0
701.25,110.0
701.32,99.0
701.38,88.0
701.44,85.0
701.5,95.0
701.57,77.0
701.63,72.0
701.69,77.0
701.76,90.0
701.82,77.0
701.88,70.0
701.95,66.0
702.01,94.0
702.07,94.0
702.13,81.0
702.2,93.0
702.26,81.0
702.32,71.0
702.39,66.0
702.45,49.0
702.51,59.0
702.58,32.0
702.64,40.0
702.7,51.0
702.76,55.0
702.83,60.0
702.89,41.0
702.95,26.0
703.02,7.0
703.08,23.0
703.14,14.0
703.21,23.0
703.27,18.0
703.33,18.0
703.39,30.0
703.46,35.0
703.52,33.0
703.58,32.0
703.65,34.0
703.71,73.0
703.77,61.0
703.84,51.0
703.9,56.0
703.96,68.0
704.02,66.0
704.09,47.0
704.15,38.0
704.21,51.0
704.28,41.0
704.34,61.0
704.4,48.0
704.47,61.0
704.53,74.0
704.59,49.0
704.65,54.0
704.72,57.0
704.78,66.0
704.84,68.0
704.91,57.0
704.97,84.0
705.03,88.0
705.1,102.0
705.16,106.0
705.22,88.0
705.28,85.0
705.35,96.0
705.41,66.0
705.47,76.0
705.54,95.0
705.6,96.0
705.66,99.0
705.73,103.0
705.79,121.0
705.85,130.0
705.91,131.0
705.98,108.0
706.04,124.0
706.1,139.0
706.17,129.0
706.23,136.0
706.29,157.0
706.36,149.0
706.42,150.0
706.48,132.0
706.54,136.0
706.61,122.0
706.67,128.0
706.73,155.0
706.8,156.0
706.86,162.0
706.92,171.0
706.99,163.0
707.05,163.0
707.11,165.0
707.17,176.0
707.24,153.0
707.3,158.0
707.36,165.0
707.43,147.0
707.49,154.0
707.55,140.0
707.62,162.0
707.68,158.0
707.74,169.0
707.8,138.0
707.87,157.0
707.93,174.0
707.99,154.0
708.06,153.0
708.12,165.0
708.18,149.0
708.25,158.0
708.31,135.0
708.37,156.0
708.43,149.0
708.5,156.0
708.56,178.0
708.62,155.0
708.69,145.0
708.75,160.0
708.81,152.0
708.88,170.0
708.94,151.0
709.0,137.0
709.06,147.0
709.13,150.0
709.19,133.0
709.25,135.0
709.32,171.0
709.38,146.0
709.44,161.0
709.51,147.0
709.57,142.0
709.63,154.0
709.69,140.0
709.76,162.0
709.82,157.0
709.88,150.0
709.95,154.0
710.01,182.0
710.07,164.0
710.14,161.0
710.2,173.0
710.26,183.0
710.32,171.0
710.39,175.0
710.45,166.0
710.51,149.0
710.58,149.0
710.64,154.0
710.7,165.0
710.77,156.0
710.83,155.0
710.89,146.0
710.95,160.0
711.02,153.0
711.08,157.0
711.14,149.0
711.21,160.0
711.27,144.0
711.33,134.0
711.4,146.0
711.46,147.0
711.52,146.0
711.58,156.0
711.65,164.0
711.71,145.0
711.77,162.0
711.84,164.0
711.9,159.0
711.96,132.0
712.03,123.0
712.09,124.0
712.15,115.0
712.21,131.0
712.28,150.0
712.34,154.0
712.4,147.0
712.47,138.0
712.53,135.0
712.59,134.0
712.66,132.0
712.72,143.0
712.78,140.0
712.84,139.0
712.91,168.0
712.97,170.0
713.03,146.0
713.1,156.0
713.16,150.0
713.22,158.0
713.29,147.0
713.35,159.0
713.41,145.0
713.47,160.0
713.54,161.0
713.6,156.0
713.66,145.0
713.73,137.0
713.79,164.0
713.85,159.0
713.92,140.0
713.98,142.0
714.04,124.0
714.1,117.0
714.17,137.0
714.23,158.0
714.29,155.0
714.36,148.0
714.42,151.0
714.48,159.0
714.55,155.0
714.61,139.0
714.67,131.0
714.73,112.0
714.8,129.0
714.86,146.0
714.92,139.0
714.99,140.0
715.05,139.0
715.11,135.0
715.18,158.0
715.24,162.0
715.3,150.0
715.36,151.0
715.43,168.0
715.49,148.0
715.55,150.0
715.62,129.0
715.68,131.0
715.74,117.0
715.81,118.0
715.87,143.0
715.93,132.0
715.99,139.0
716.06,139.0
716.12,120.0
716.18,107.0
716.25,123.0
716.31,128.0
716.37,118.0
716.44,127.0
716.5,120.0
716.56,125.0
716.62,117.0
716.69,105.0
716.75,110.0
716.81,117.0
716.88,132.0
716.94,150.0
717.0,123.0
717.07,141.0
717.13,125.0
717.19,131.0
717.25,126.0
717.32,123.0
717.38,125.0
717.44,130.0
717.51,124.0
717.57,132.0
717.63,138.0
717.7,140.0
717.76,146.0
717.82,133.0
717.88,122.0
717.95,111.0
718.01,109.0
718.07,112.0
718.14,102.0
718.2,106.0
718.26,91.0
718.33,101.0
718.39,89.0
718.45,91.0
718.51,88.0
718.58,85.0
718.64,82.0
718.7,80.0
718.77,64.0
718.83,62.0
718.89,58.0
718.96,36.0
719.02,24.0
719.08,18.0
719.14,5.0
719.21,4.0
719.27,10.0
719.33,7.0
719.4,6.0
719.46,8.0
719.52,8.0
719.59,4.0
719.65,-12.0
719.71,7.0
719.77,1.0
719.84,6.0
719.9,0.0
719.96,0.0
720.03,22.0
720.09,3.0
720.15,-7.0
720.22,9.0
720.28,-2.0
720.34,-15.0
720.4,-7.0
720.47,14.0
720.53,0.0
720.59,-12.0
720.66,9.0
720.72,6.0
720.78,6.0
720.85,7.0
720.91,10.0
720.97,-5.0
721.03,5.0
721.1,17.0
721.16,9.0
721.22,2.0
721.29,-5.0
721.35,0.0
721.41,0.0
721.48,16.0
721.54,9.0
721.6,-3.0
721.66,-3.0
721.73,5.0
721.79,2.0
721.85,19.0
721.92,33.0
721.98,30.0
722.04,15.0
722.11,28.0
722.17,20.0
722.23,25.0
722.29,35.0
722.36,36.0
722.42,51.0
722.48,35.0
722.55,63.0
722.61,67.0
722.67,59.0
722.74,54.0
722.8,56.0
722.86,52.0
722.92,63.0
722.99,63.0
723.05,62.0
723.11,48.0
723.18,52.0
723.24,56.0
723.3,56.0
723.37,71.0
723.43,58.0
723.49,83.0
723.55,90.0
723.62,75.0
723.68,74.0
723.74,86.0
723.81,74.0
723.87,84.0
723.93,87.0
724.0,104.0
724.06,93.0
724.12,90.0
724.18,85.0
724.25,98.0
724.31,86.0
724.37,100.0
724.44,106.0
724.5,99.0
724.56,110.0
724.63,98.0
724.69,90.0
724.75,101.0
724.81,93.0
724.88,95.0
724.94,115.0
725.0,128.0
725.07,110.0
725.13,100.0
725.19,96.0
725.26,86.0
725.32,91.0
725.38,77.0
725.44,91.0
725.51,97.0
725.57,73.0
725.63,73.0
725.7,87.0
725.76,90.0
725.82,82.0
725.89,90.0
725.95,90.0
726.01,90.0
726.07,100.0
726.14,101.0
726.2,97.0
726.26,93.0
726.33,95.0
726.39,92.0
726.45,88.0
726.52,96.0
726.58,103.0
726.64,93.0
726.7,81.0
726.77,106.0
726.83,91.0
726.89,84.0
726.96,88.0
727.02,94.0
727.08,105.0
727.15,104.0
727.21,90.0
727.27,88.0
727.33,111.0
727.4,97.0
727.46,78.0
727.52,76.0
727.59,78.0
727.65,60.0
727.71,87.0
727.78,89.0
727.84,95.0
727.9,99.0
727.96,97.0
728.03,92.0
728.09,90.0
728.15,87.0
728.22,89.0
728.28,92.0
728.34,113.0
728.41,112.0
728.47,106.0
728.53,112.0
728.59,86.0
728.66,80.0
728.72,76.0
728.78,85.0
728.85,76.0
728.91,79.0
728.97,93.0
729.04,89.0
729.1,95.0
729.16,100.0
729.22,70.0
729.29,95.0
729.35,80.0
729.41,87.0
729.48,85.0
729.54,92.0
729.6,82.0
729.67,76.0
729.73,86.0
729.79,70.0
729.85,78.0
729.92,83.0
729.98,98.0
730.04,107.0
730.11,114.0
730.17,122.0
730.23,110.0
730.3,118.0
730.36,125.0
730.42,134.0
730.48,128.0
730.55,109.0
730.61,127.0
730.67,133.0
730.74,128.0
730.8,114.0
730.86,112.0
730.93,99.0
730.99,119.0
731.05,131.0
731.11,114.0
731.18,120.0
731.24,122.0
731.3,114.0
731.37,120.0
731.43,114.0
731.49,116.0
731.56,133.0
731.62,131.0
731.68,155.0
731.74,158.0
731.81,145.0
731.87,138.0
731.93,154.0
732.0,143.0
732.06,149.0
732.12,158.0
732.19,159.0
732.25,175.0
732.31,174.0
732.37,168.0
732.44,176.0
732.5,176.0
732.56,154.0
732.63,154.0
732.69,158.0
732.75,157.0
732.82,142.0
732.88,145.0
732.94,149.0
733.0,155.0
733.07,158.0
733.13,145.0
733.19,144.0
733.26,154.0
733.32,157.0
733.38,137.0
733.45,132.0
733.51,140.0
733.57,145.0
733.63,158.0
733.7,161.0
733.76,145.0
733.82,147.0
733.89,140.0
733.95,136.0
734.01,148.0
734.08,145.0
734.14,133.0
734.2,132.0
734.26,141.0
734.33,136.0
734.39,134.0
734.45,143.0
734.52,155.0
734.58,164.0
734.64,144.0
734.71,132.0
734.77,130.0
734.83,125.0
734.89,120.0
734.96,140.0
735.02,123.0
735.08,122.0
735.15,130.0
735.21,96.0
735.27,93.0
735.34,95.0
735.4,99.0
735.46,82.0
735.52,79.0
735.59,109.0
735.65,89.0
735.71,88.0
735.78,92.0
735.84,70.0
735.9,69.0
735.97,67.0
736.03,54.0
736.09,54.0
736.15,43.0
736.22,32.0
736.28,32.0
736.34,14.0
736.41,38.0
736.47,42.0
736.53,27.0
736.6,32.0
736.66,10.0
736.72,13.0
736.78,32.0
736.85,20.0
736.91,18.0
736.97,18.0
737.04,26.0
737.1,9.0
737.16,9.0
737.23,7.0
737.29,32.0
737.35,31.0
737.41,21.0
737.48,15.0
737.54,2.0
737.6,36.0
737.67,32.0
737.73,44.0
737.79,49.0
737.86,25.0
737.92,44.0
737.98,58.0
738.04,59.0
738.11,49.0
738.17,60.0
738.23,62.0
738.3,61.0
738.36,67.0
738.42,61.0
738.49,74.0
738.55,49.0
738.61,60.0
738.67,55.0
738.74,68.0
738.8,78.0
738.86,46.0
738.93,83.0
738.99,74.0
739.05,87.0
739.12,77.0
739.18,73.0
739.24,89.0
739.3,100.0
739.37,120.0
739.43,112.0
739.49,133.0
739.56,119.0
739.62,121.0
739.68,112.0
739.75,113.0
739.81,128.0
739.87,123.0
739.93,128.0
740.0,111.0
740.06,106.0
740.12,113.0
740.19,90.0
740.25,104.0
740.31,113.0
740.38,117.0
740.44,131.0
740.5,118.0
740.56,114.0
740.63,121.0
740.69,122.0
740.75,111.0
740.82,111.0
740.88,113.0
740.94,131.0
741.01,145.0
741.07,144.0
741.13,129.0
741.19,122.0
741.26,140.0
741.32,152.0
741.38,137.0
741.45,129.0
741.51,149.0
741.57,158.0
741.64,146.0
741.7,135.0
741.76,129.0
741.82,121.0
741.89,152.0
741.95,134.0
742.01,133.0
742.08,144.0
742.14,158.0
742.2,165.0
742.27,144.0
742.33,169.0
742.39,173.0
742.45,155.0
742.52,158.0
742.58,170.0
742.64,182.0
742.71,186.0
742.77,198.0
742.83,208.0
742.9,189.0
742.96,210.0
743.02,211.0
743.08,194.0
743.15,193.0
743.21,194.0
743.27,189.0
743.34,195.0
743.4,194.0
743.46,171.0
743.53,175.0
743.59,180.0
743.65,167.0
743.71,180.0
743.78,150.0
743.84,173.0
743.9,172.0
743.97,181.0
744.03,198.0
744.09,212.0
744.16,195.0
744.22,203.0
744.28,214.0
744.34,194.0
744.41,181.0
744.47,176.0
744.53,182.0
744.6,169.0
744.66,177.0
744.72,165.0
744.79,190.0
744.85,188.0
744.91,173.0
744.97,173.0
745.04,164.0
745.1,179.0
745.16,177.0
745.23,177.0
745.29,165.0
745.35,162.0
745.42,163.0
745.48,156.0
745.54,161.0
745.6,174.0
745.67,172.0
745.73,173.0
745.79,184.0
745.86,166.0
745.92,180.0
745.98,189.0
746.05,184.0
746.11,162.0
746.17,153.0
746.23,161.0
746.3,151.0
746.36,152.0
746.42,159.0
746.49,146.0
746.55,146.0
746.61,147.0
746.68,147.0
746.74,168.0
746.8,147.0
746.86,156.0
746.93,158.0
746.99,158.0
747.05,168.0
747.12,162.0
747.18,148.0
747.24,144.0
747.31,171.0
747.37,175.0
747.43,147.0
747.49,144.0
747.56,151.0
747.62,158.0
747.68,174.0
747.75,171.0
747.81,178.0
747.87,167.0
747.94,161.0
748.0,183.0
748.06,187.0
748.12,161.0
748.19,169.0
748.25,178.0
748.31,173.0
748.38,168.0
748.44,183.0
748.5,183.0
748.57,157.0
748.63,184.0
748.69,184.0
748.75,162.0
748.82,178.0
748.88,186.0
748.94,182.0
749.01,175.0
749.07,154.0
749.13,166.0
749.2,165.0
749.26,173.0
749.32,191.0
749.38,192.0
749.45,176.0
749.51,178.0
749.57,169.0
749.64,159.0
749.7,180.0
749.76,198.0
749.83,169.0
749.89,177.0
749.95,182.0
750.01,198.0
750.08,195.0
750.14,183.0
750.2,199.0
750.27,199.0
750.33,202.0
750.39,209.0
750.46,205.0
750.52,192.0
750.58,184.0
750.64,196.0
750.71,202.0
750.77,199.0
750.83,199.0
750.9,184.0
750.96,186.0
751.02,177.0
751.09,177.0
751.15,178.0
751.21,179.0
751.27,164.0
751.34,147.0
751.4,165.0
751.46,158.0
751.53,162.0
751.59,158.0
751.65,146.0
751.72,133.0
751.78,133.0
751.84,145.0
751.9,124.0
751.97,136.0
752.03,132.0
752.09,103.0
752.16,146.0
752.22,142.0
752.28,142.0
752.35,144.0
752.41,119.0
752.47,121.0
752.53,121.0
752.6,125.0
752.66,100.0
752.72,89.0
752.79,89.0
752.85,69.0
752.91,82.0
752.98,80.0
753.04,76.0
753.1,76.0
753.16,67.0
753.23,81.0
753.29,64.0
753.35,59.0
753.42,59.0
753.48,67.0
753.54,70.0
753.61,65.0
753.67,48.0
753.73,43.0
753.79,57.0
753.86,63.0
753.92,73.0
753.98,57.0
754.05,39.0
754.11,48.0
754.17,67.0
754.24,43.0
754.3,37.0
754.36,52.0
754.42,57.0
754.49,52.0
754.55,57.0
754.61,46.0
754.68,29.0
754.74,48.0
754.8,42.0
754.87,37.0
754.93,40.0
754.99,60.0
755.05,54.0
755.12,53.0
755.18,48.0
755.24,46.0
755.31,83.0
755.37,74.0
755.43,75.0
755.5,69.0
755.56,60.0
755.62,49.0
755.68,63.0
755.75,54.0
755.81,48.0
755.87,63.0
755.94,69.0
756.0,81.0
756.06,79.0
756.13,81.0
756.19,82.0
756.25,85.0
756.31,100.0
756.38,105.0
756.44,119.0
756.5,116.0
756.57,132.0
756.63,118.0
756.69,125.0
756.76,164.0
756.82,163.0
756.88,141.0
756.94,150.0
757.01,136.0
757.07,140.0
757.13,136.0
757.2,127.0
757.26,115.0
757.32,134.0
757.39,126.0
757.45,126.0
757.51,135.0
757.57,161.0
757.64,172.0
757.7,140.0
757.76,154.0
757.83,137.0
757.89,130.0
757.95,131.0
758.02,160.0
758.08,152.0
758.14,155.0
758.2,142.0
758.27,143.0
758.33,147.0
758.39,151.0
758.46,147.0
758.52,153.0
758.58,168.0
758.65,155.0
758.71,169.0
758.77,162.0
758.83,166.0
758.9,176.0
758.96,154.0
759.02,162.0
759.09,165.0
759.15,168.0
759.21,178.0
759.28,168.0
759.34,177.0
759.4,172.0
759.46,182.0
759.53,178.0
759.59,161.0
759.65,178.0
759.72,177.0
759.78,188.0
759.84,197.0
759.91,186.0
759.97,180.0
760.03,192.0
760.09,180.0
760.16,178.0
760.22,172.0
760.28,174.0
760.35,169.0
760.41,187.0
760.47,187.0
760.54,180.0
760.6,199.0
760.66,180.0
760.72,169.0
760.79,156.0
760.85,169.0
760.91,178.0
760.98,159.0
761.04,179.0
761.1,178.0
761.17,173.0
761.23,170.0
761.29,163.0
761.35,160.0
761.42,156.0
761.48,158.0
761.54,151.0
761.61,154.0
761.67,170.0
761.73,148.0
761.8,139.0
761.86,150.0
761.92,163.0
761.98,156.0
762.05,170.0
762.11,190.0
762.17,181.0
762.24,161.0
762.3,169.0
762.36,162.0
762.43,163.0
762.49,179.0
762.55,159.0
762.61,158.0
762.68,143.0
762.74,145.0
762.8,158.0
762.87,142.0
762.93,144.0
762.99,147.0
763.06,139.0
763.12,147.0
763.18,153.0
763.24,151.0
763.31,144.0
763.37,144.0
763.43,158.0
763.5,131.0
763.56,140.0
763.62,130.0
763.69,123.0
763.75,122.0
763.81,136.0
763.87,133.0
763.94,144.0
764.0,163.0
764.06,151.0
764.13,147.0
764.19,160.0
764.25,147.0
764.32,169.0
764.38,174.0
764.44,176.0
764.5,202.0
764.57,184.0
764.63,183.0
764.69,190.0
764.76,190.0
764.82,185.0
764.88,200.0
764.95,165.0
765.01,178.0
765.07,189.0
765.13,203.0
765.2,189.0
765.26,188.0
765.32,193.0
765.39,190.0
765.45,198.0
765.51,195.0
765.58,167.0
765.64,177.0
765.7,181.0
765.76,161.0
765.83,162.0
765.89,169.0
765.95,168.0
766.02,173.0
766.08,166.0
766.14,169.0
766.21,179.0
766.27,191.0
766.33,175.0
766.39,179.0
766.46,180.0
766.52,184.0
766.58,169.0
766.65,190.0
766.71,195.0
766.77,206.0
766.84,211.0
766.9,197.0
766.96,192.0
767.02,189.0
767.09,186.0
767.15,156.0
767.21,168.0
767.28,162.0
767.34,153.0
767.4,153.0
767.47,149.0
767.53,150.0
767.59,145.0
767.65,151.0
767.72,141.0
767.78,137.0
767.84,139.0
767.91,149.0
767.97,145.0
768.03,153.0
768.1,141.0
768.16,154.0
768.22,153.0
768.28,146.0
768.35,133.0
768.41,119.0
768.47,135.0
768.54,133.0
768.6,122.0
768.66,121.0
768.73,112.0
768.79,102.0
768.85,103.0
768.91,92.0
768.98,92.0
769.04,75.0
769.1,76.0
769.17,85.0
769.23,68.0
769.29,63.0
769.36,63.0
769.42,56.0
769.48,44.0
769.54,59.0
769.61,31.0
769.67,38.0
769.73,41.0
769.8,29.0
769.86,33.0
769.92,24.0
769.99,3.0
770.05,-2.0
770.11,3.0
770.17,-2.0
770.24,-14.0
770.3,3.0
770.36,18.0
770.43,33.0
770.49,19.0
770.55,21.0
770.62,15.0
770.68,13.0
770.74,15.0
770.8,21.0
770.87,20.0
770.93,32.0
770.99,39.0
771.06,37.0
771.12,21.0
771.18,28.0
771.25,40.0
771.31,31.0
771.37,45.0
771.43,46.0
771.5,50.0
771.56,38.0
771.62,22.0
771.69,28.0
771.75,20.0
771.81,1.0
771.88,35.0
771.94,16.0
772.0,-12.0
772.06,-5.0
772.13,5.0
772.19,-2.0
772.25,19.0
772.32,14.0
772.38,31.0
772.44,30.0
772.51,16.0
772.57,22.0
772.63,37.0
772.69,29.0
772.76,60.0
772.82,62.0
772.88,66.0
772.95,55.0
773.01,31.0
773.07,36.0
773.14,23.0
773.2,44.0
773.26,45.0
773.32,53.0
773.39,41.0
773.45,28.0
773.51,58.0
773.58,50.0
773.64,41.0
773.7,47.0
773.77,48.0
773.83,54.0
773.89,66.0
773.95,77.0
774.02,58.0
774.08,48.0
774.14,51.0
774.21,42.0
774.27,61.0
774.33,53.0
774.4,53.0
774.46,55.0
774.52,52.0
774.58,45.0
774.65,62.0
774.71,49.0
774.77,83.0
774.84,77.0
774.9,76.0
774.96,91.0
775.03,78.0
775.09,99.0
775.15,97.0
775.21,97.0
775.28,92.0
775.34,102.0
775.4,92.0
775.47,99.0
775.53,92.0
775.59,101.0
775.66,101.0
775.72,107.0
775.78,96.0
775.84,84.0
775.91,98.0
775.97,92.0
776.03,78.0
776.1,84.0
776.16,82.0
776.22,86.0
776.29,98.0
776.35,86.0
776.41,97.0
776.47,96.0
776.54,84.0
776.6,87.0
776.66,86.0
776.73,104.0
776.79,105.0
776.85,96.0
776.92,86.0
776.98,97.0
777.04,96.0
777.1,85.0
777.17,87.0
777.23,93.0
777.29,96.0
777.36,96.0
777.42,94.0
777.48,99.0
777.55,71.0
777.61,59.0
777.67,78.0
777.73,73.0
777.8,75.0
777.86,92.0
777.92,102.0
777.99,85.0
778.05,89.0
778.11,68.0
778.18,60.0
778.24,66.0
778.3,62.0
778.36,58.0
778.43,58.0
778.49,58.0
778.55,51.0
778.62,64.0
778.68,63.0
778.74,55.0
778.81,58.0
778.87,53.0
778.93,68.0
778.99,64.0
779.06,50.0
779.12,57.0
779.18,74.0
779.25,71.0
779.31,59.0
779.37,77.0
779.44,58.0
779.5,75.0
779.56,75.0
779.62,73.0
779.69,89.0
779.75,95.0
779.81,67.0
779.88,77.0
779.94,96.0
780.0,74.0
780.07,92.0
780.13,75.0
780.19,81.0
780.25,80.0
780.32,55.0
780.38,70.0
780.44,81.0
780.51,100.0
780.57,94.0
780.63,95.0
780.7,92.0
780.76,97.0
780.82,81.0
780.88,81.0
780.95,119.0
781.01,103.0
781.07,126.0
781.14,129.0
781.2,108.0
781.26,119.0
781.33,114.0
781.39,126.0
781.45,135.0
781.51,131.0
781.58,134.0
781.64,129.0
781.7,143.0
781.77,132.0
781.83,143.0
781.89,141.0
781.96,146.0
782.02,140.0
782.08,159.0
782.14,149.0
782.21,136.0
782.27,151.0
782.33,141.0
782.4,147.0
782.46,155.0
782.52,143.0
782.59,147.0
782.65,157.0
782.71,133.0
782.77,139.0
782.84,132.0
782.9,159.0
782.96,149.0
783.03,134.0
783.09,156.0
783.15,149.0
783.22,135.0
783.28,141.0
783.34,133.0
783.4,148.0
783.47,140.0
783.53,136.0
783.59,161.0
783.66,132.0
783.72,136.0
783.78,130.0
783.85,134.0
783.91,143.0
783.97,149.0
784.03,166.0
784.1,163.0
784.16,164.0
784.22,151.0
784.29,173.0
784.35,164.0
784.41,157.0
784.48,153.0
784.54,141.0
784.6,149.0
784.66,164.0
784.73,155.0
784.79,143.0
784.85,166.0
784.92,161.0
784.98,156.0
785.04,157.0
785.11,151.0
785.17,145.0
785.23,147.0
785.29,144.0
785.36,140.0
785.42,136.0
785.48,127.0
785.55,135.0
785.61,138.0
785.67,152.0
785.74,135.0
785.8,132.0
785.86,132.0
785.92,109.0
785.99,99.0
786.05,118.0
786.11,112.0
786.18,118.0
786.24,117.0
786.3,104.0
786.37,110.0
786.43,112.0
786.49,107.0
786.55,114.0
786.62,105.0
786.68,99.0
786.74,105.0
786.81,92.0
786.87,111.0
786.93,102.0
787.0,103.0
787.06,99.0
787.12,100.0
787.18,92.0
787.25,91.0
787.31,86.0
787.37,101.0
787.44,100.0
787.5,86.0
787.56,74.0
787.63,82.0
787.69,91.0
787.75,90.0
787.81,94.0
787.88,87.0
787.94,83.0
788.0,106.0
788.07,105.0
788.13,98.0
788.19,101.0
788.26,83.0
788.32,94.0
788.38,77.0
788.44,96.0
788.51,84.0
788.57,94.0
788.63,91.0
788.7,108.0
788.76,105.0
788.82,94.0
788.89,122.0
788.95,96.0
789.01,97.0
789.07,89.0
789.14,108.0
789.2,103.0
789.26,98.0
789.33,97.0
789.39,98.0
789.45,109.0
789.52,96.0
789.58,111.0
789.64,115.0
789.7,112.0
789.77,116.0
789.83,133.0
789.89,160.0
789.96,140.0
790.02,146.0
790.08,139.0
790.15,118.0
790.21,113.0
790.27,92.0
790.33,113.0
790.4,122.0
790.46,115.0
790.52,129.0
790.59,129.0
790.65,121.0
790.71,143.0
790.78,146.0
790.84,132.0
790.9,147.0
790.96,145.0
791.03,136.0
791.09,131.0
791.15,121.0
791.22,136.0
791.28,136.0
791.34,146.0
791.41,129.0
791.47,127.0
791.53,125.0
791.59,107.0
791.66,116.0
791.72,130.0
791.78,143.0
791.85,138.0
791.91,140.0
791.97,149.0
792.04,155.0
792.1,151.0
792.16,144.0
792.22,175.0
792.29,153.0
792.35,153.0
792.41,173.0
792.48,160.0
792.54,168.0
792.6,171.0
792.67,172.0
792.73,158.0
792.79,152.0
792.85,160.0
792.92,165.0
792.98,169.0
793.04,149.0
793.11,164.0
793.17,168.0
793.23,158.0
793.3,160.0
793.36,152.0
793.42,136.0
793.48,127.0
793.55,117.0
793.61,130.0
793.67,145.0
793.74,138.0
793.8,124.0
793.86,128.0
793.93,137.0
793.99,155.0
794.05,149.0
794.11,158.0
794.18,124.0
794.24,143.0
794.3,140.0
794.37,141.0
794.43,147.0
794.49,124.0
794.56,136.0
794.62,141.0
794.68,154.0
794.74,146.0
794.81,143.0
794.87,138.0
794.93,134.0
795.0,135.0
795.06,132.0
795.12,146.0
795.19,136.0
795.25,139.0
795.31,134.0
795.37,123.0
795.44,126.0
795.5,129.0
795.56,124.0
795.63,112.0
795.69,124.0
795.75,136.0
795.82,129.0
795.88,122.0
795.94,113.0
796.0,128.0
796.07,130.0
796.13,117.0
796.19,131.0
796.26,118.0
796.32,110.0
796.38,108.0
796.45,125.0
796.51,143.0
796.57,128.0
796.63,129.0
796.7,121.0
796.76,111.0
796.82,120.0
796.89,103.0
796.95,99.0
797.01,116.0
797.08,99.0
797.14,106.0
797.2,94.0
797.26,96.0
797.33,90.0
797.39,89.0
797.45,97.0
797.52,92.0
797.58,84.0
797.64,88.0
797.71,114.0
797.77,105.0
797.83,110.0
797.89,102.0
797.96,124.0
798.02,132.0
798.08,137.0
798.15,151.0
798.21,151.0
798.27,153.0
798.34,151.0
798.4,145.0
798.46,143.0
798.52,147.0
798.59,155.0
798.65,167.0
798.71,176.0
798.78,157.0
798.84,150.0
798.9,161.0
798.97,153.0
799.03,147.0
799.09,163.0
799.15,172.0
799.22,170.0
799.28,177.0
799.34,175.0
799.41,202.0
799.47,189.0
799.53,209.0
799.6,194.0
799.66,162.0
799.72,176.0
799.78,182.0
799.85,179.0
799.91,195.0
799.97,201.0
800.04,195.0
800.1,201.0
800.16,189.0
800.23,190.0
800.29,193.0
800.35,193.0
800.41,190.0
800.48,177.0
800.54,177.0
800.6,181.0
800.67,177.0
800.73,183.0
800.79,154.0
800.86,154.0
800.92,167.0
800.98,162.0
801.04,162.0
801.11,178.0
801.17,190.0
801.23,213.0
801.3,223.0
801.36,191.0
801.42,201.0
801.49,202.0
801.55,196.0
801.61,193.0
801.67,196.0
801.74,185.0
801.8,196.0
801.86,181.0
801.93,169.0
801.99,173.0
802.05,167.0
802.12,152.0
802.18,143.0
802.24,136.0
802.3,139.0
802.37,125.0
802.43,122.0
802.49,134.0
802.56,114.0
802.62,108.0
802.68,131.0
802.75,131.0
802.81,124.0
802.87,111.0
802.93,106.0
803.0,108.0
803.06,94.0
803.12,103.0
803.19,99.0
803.25,95.0
803.31,83.0
803.38,83.0
803.44,80.0
803.5,86.0
803.56,104.0
803.63,103.0
803.69,99.0
803.75,77.0
803.82,80.0
803.88,106.0
803.94,114.0
804.01,94.0
804.07,79.0
804.13,63.0
804.19,91.0
804.26,81.0
804.32,77.0
804.38,74.0
804.45,53.0
804.51,57.0
804.57,34.0
804.64,42.0
804.7,56.0
804.76,59.0
804.82,59.0
804.89,87.0
804.95,79.0
805.01,78.0
805.08,78.0
805.14,86.0
805.2,94.0
805.27,85.0
805.33,101.0
805.39,76.0
805.45,77.0
805.52,66.0
805.58,62.0
805.64,90.0
805.71,75.0
805.77,79.0
805.83,88.0
805.9,101.0
805.96,97.0
806.02,110.0
806.08,123.0
806.15,106.0
806.21,93.0
806.27,88.0
806.34,90.0
806.4,84.0
806.46,82.0
806.53,77.0
806.59,97.0
806.65,106.0
806.71,98.0
806.78,96.0
806.84,86.0
806.9,95.0
806.97,92.0
807.03,89.0
807.09,100.0
807.16,110.0
807.22,100.0
807.28,93.0
807.34,116.0
807.41,106.0
807.47,125.0
807.53,94.0
807.6,77.0
807.66,96.0
807.72,96.0
807.79,101.0
807.85,105.0
807.91,104.0
807.97,114.0
808.04,117.0
808.1,116.0
808.16,127.0
808.23,127.0
808.29,123.0
808.35,121.0
808.42,118.0
808.48,137.0
808.54,159.0
808.6,132.0
808.67,124.0
808.73,128.0
808.79,104.0
808.86,109.0
808.92,125.0
808.98,122.0
809.05,123.0
809.11,125.0
809.17,130.0
809.23,140.0
809.3,135.0
809.36,145.0
809.42,152.0
809.49,156.0
809.55,147.0
809.61,158.0
809.68,172.0
809.74,171.0
809.8,159.0
809.86,159.0
809.93,164.0
809.99,154.0
810.05,187.0
810.12,189.0
810.18,173.0
810.24,174.0
810.31,187.0
810.37,185.0
810.43,181.0
810.49,169.0
810.56,172.0
810.62,183.0
810.68,190.0
810.75,198.0
810.81,195.0
810.87,183.0
810.94,196.0
811.0,188.0
811.06,188.0
811.12,191.0
811.19,176.0
811.25,181.0
811.31,156.0
811.38,174.0
811.44,169.0
811.5,165.0
811.57,168.0
811.63,164.0
811.69,175.0
811.75,154.0
811.82,165.0
811.88,172.0
811.94,158.0
812.01,152.0
812.07,161.0
812.13,166.0
812.2,165.0
812.26,173.0
812.32,170.0
812.38,176.0
812.45,183.0
812.51,174.0
812.57,187.0
812.64,158.0
812.7,161.0
812.76,172.0
812.83,158.0
812.89,159.0
812.95,155.0
813.01,167.0
813.08,137.0
813.14,135.0
813.2,127.0
813.27,135.0
813.33,151.0
813.39,155.0
813.46,150.0
813.52,138.0
813.58,156.0
813.64,156.0
813.71,140.0
813.77,135.0
813.83,130.0
813.9,150.0
813.96,170.0
814.02,155.0
814.09,166.0
814.15,167.0
814.21,162.0
814.27,168.0
814.34,163.0
814.4,165.0
814.46,164.0
814.53,183.0
814.59,169.0
814.65,159.0
814.72,152.0
814.78,141.0
814.84,154.0
814.9,144.0
814.97,150.0
815.03,134.0
815.09,149.0
815.16,139.0
815.22,152.0
815.28,150.0
815.35,151.0
815.41,160.0
815.47,166.0
815.53,179.0
815.6,182.0
815.66,186.0
815.72,163.0
815.79,179.0
815.85,181.0
815.91,174.0
815.98,187.0
816.04,195.0
816.1,199.0
816.16,194.0
816.23,179.0
816.29,194.0
816.35,182.0
816.42,177.0
816.48,179.0
816.54,186.0
816.61,201.0
816.67,201.0
816.73,199.0
816.79,205.0
816.86,213.0
816.92,188.0
816.98,187.0
817.05,186.0
817.11,205.0
817.17,216.0
817.24,188.0
817.3,202.0
817.36,205.0
817.42,203.0
817.49,188.0
817.55,193.0
817.61,196.0
817.68,190.0
817.74,218.0
817.8,227.0
817.87,200.0
817.93,177.0
817.99,171.0
818.05,186.0
818.12,173.0
818.18,144.0
818.24,152.0
818.31,168.0
818.37,144.0
818.43,153.0
818.5,160.0
818.56,144.0
818.62,146.0
818.68,142.0
818.75,135.0
818.81,138.0
818.87,114.0
818.94,97.0
819.0,103.0
819.06,107.0
819.13,110.0
819.19,121.0
819.25,114.0
819.31,90.0
819.38,102.0
819.44,102.0
819.5,101.0
819.57,104.0
819.63,119.0
819.69,93.0
819.76,93.0
819.82,87.0
819.88,83.0
819.94,84.0
820.01,93.0
820.07,90.0
820.13,88.0
820.2,79.0
820.26,84.0
820.32,75.0
820.39,68.0
820.45,84.0
820.51,51.0
820.57,48.0
820.64,42.0
820.7,35.0
820.76,43.0
820.83,42.0
820.89,42.0
820.95,50.0
821.02,34.0
821.08,38.0
821.14,36.0
821.2,30.0
821.27,18.0
821.33,19.0
821.39,18.0
821.46,8.0
821.52,13.0
821.58,-4.0
821.65,10.0
821.71,16.0
821.77,17.0
821.83,21.0
821.9,19.0
821.96,26.0
822.02,27.0
822.09,35.0
822.15,40.0
822.21,15.0
822.28,18.0
822.34,25.0
822.4,-2.0
822.46,10.0
822.53,32.0
822.59,24.0
822.65,17.0
822.72,18.0
822.78,15.0
822.84,7.0
822.91,15.0
822.97,10.0
823.03,11.0
823.09,13.0
823.16,25.0
823.22,16.0
823.28,18.0
823.35,28.0
823.41,12.0
823.47,14.0
823.54,2.0
823.6,-3.0
823.66,16.0
823.72,1.0
823.79,-12.0
823.85,-4.0
823.91,-5.0
823.98,-14.0
824.04,-25.0
824.1,-25.0
824.17,-18.0
824.23,-16.0
824.29,-7.0
824.35,-5.0
824.42,-21.0
824.48,-18.0
824.54,-16.0
824.61,-6.0
824.67,16.0
824.73,39.0
824.8,37.0
824.86,27.0
824.92,35.0
824.98,33.0
825.05,38.0
825.11,44.0
825.17,47.0
825.24,53.0
825.3,46.0
825.36,61.0
825.43,66.0
825.49,66.0
825.55,61.0
825.61,78.0
825.68,57.0
825.74,84.0
825.8,84.0
825.87,69.0
825.93,77.0
825.99,75.0
826.06,60.0
826.12,76.0
826.18,77.0
826.24,82.0
826.31,75.0
826.37,66.0
826.43,67.0
826.5,75.0
826.56,62.0
826.62,74.0
826.69,70.0
826.75,64.0
826.81,73.0
826.87,71.0
826.94,88.0
827.0,92.0
827.06,82.0
827.13,80.0
827.19,63.0
827.25,91.0
827.32,87.0
827.38,62.0
827.44,80.0
827.5,89.0
827.57,85.0
827.63,89.0
827.69,102.0
827.76,87.0
827.82,112.0
827.88,103.0
827.95,106.0
828.01,105.0
828.07,79.0
828.13,84.0
828.2,77.0
828.26,87.0
828.32,85.0
828.39,62.0
828.45,77.0
828.51,70.0
828.58,63.0
828.64,68.0
828.7,53.0
828.76,57.0
828.83,64.0
828.89,56.0
828.95,43.0
829.02,50.0
829.08,57.0
829.14,37.0
829.21,46.0
829.27,58.0
829.33,78.0
829.39,63.0
829.46,65.0
829.52,60.0
829.58,59.0
829.65,58.0
829.71,59.0
829.77,42.0
829.84,49.0
829.9,37.0
829.96,38.0
830.02,52.0
830.09,49.0
830.15,59.0
830.21,56.0
830.28,62.0
830.34,51.0
830.4,52.0
830.47,44.0
830.53,55.0
830.59,66.0
830.65,83.0
830.72,87.0
830.78,88.0
830.84,88.0
830.91,63.0
830.97,62.0
831.03,69.0
831.1,66.0
831.16,69.0
831.22,79.0
831.28,88.0
831.35,81.0
831.41,82.0
831.47,90.0
831.54,82.0
831.6,103.0
831.66,112.0
831.73,110.0
831.79,95.0
831.85,91.0
831.91,91.0
831.98,70.0
832.04,82.0
832.1,83.0
832.17,69.0
832.23,66.0
832.29,83.0
832.36,86.0
832.42,80.0
832.48,86.0
832.54,96.0
832.61,79.0
832.67,90.0
832.73,95.0
832.8,92.0
832.86,107.0
832.92,97.0
832.99,92.0
833.05,90.0
833.11,96.0
833.17,106.0
833.24,103.0
833.3,100.0
833.36,110.0
833.43,115.0
833.49,127.0
833.55,110.0
833.62,128.0
833.68,121.0
833.74,120.0
833.8,117.0
833.87,113.0
833.93,125.0
833.99,113.0
834.06,139.0
834.12,128.0
834.18,139.0
834.25,143.0
834.31,146.0
834.37,148.0
834.43,144.0
834.5,147.0
834.56,134.0
834.62,138.0
834.69,140.0
834.75,124.0
834.81,146.0
834.88,148.0
834.94,126.0
835.0,132.0
835.06,117.0
835.13,118.0
835.19,122.0
835.25,145.0
835.32,134.0
835.38,135.0
835.44,125.0
835.51,124.0
835.57,118.0
835.63,132.0
835.69,137.0
835.76,136.0
835.82,136.0
835.88,129.0
835.95,122.0
836.01,132.0
836.07,143.0
836.14,141.0
836.2,130.0
836.26,138.0
836.32,154.0
836.39,165.0
836.45,144.0
836.51,140.0
836.58,130.0
836.64,132.0
836.7,151.0
836.77,130.0
836.83,98.0
836.89,109.0
836.95,91.0
837.02,94.0
837.08,107.0
837.14,107.0
837.21,109.0
837.27,109.0
837.33,94.0
837.4,85.0
837.46,96.0
837.52,112.0
837.58,99.0
837.65,95.0
837.71,100.0
837.77,94.0
837.84,97.0
837.9,87.0
837.96,82.0
838.03,89.0
838.09,85.0
838.15,95.0
838.21,80.0
838.28,83.0
838.34,108.0
838.4,98.0
838.47,106.0
838.53,102.0
838.59,101.0
838.66,94.0
838.72,79.0
838.78,77.0
838.84,88.0
838.91,109.0
838.97,101.0
839.03,85.0
839.1,90.0
839.16,90.0
839.22,109.0
839.29,84.0
839.35,103.0
839.41,106.0
839.47,95.0
839.54,99.0
839.6,99.0
839.66,115.0
839.73,115.0
839.79,99.0
839.85,104.0
839.92,95.0
839.98,99.0
840.04,84.0
840.1,84.0
840.17,87.0
840.23,93.0
840.29,90.0
840.36,87.0
840.42,106.0
840.48,88.0
840.55,117.0
840.61,104.0
840.67,103.0
840.73,124.0
840.8,101.0
840.86,118.0
840.92,124.0
840.99,111.0
841.05,117.0
841.11,121.0
841.18,120.0
841.24,128.0
841.3,130.0
841.36,139.0
841.43,134.0
841.49,128.0
841.55,127.0
841.62,140.0
841.68,147.0
841.74,147.0
841.81,136.0
841.87,143.0
841.93,125.0
841.99,146.0
842.06,149.0
842.12,132.0
842.18,141.0
842.25,124.0
842.31,145.0
842.37,148.0
842.44,144.0
842.5,143.0
842.56,116.0
842.62,108.0
842.69,128.0
842.75,130.0
842.81,128.0
842.88,144.0
842.94,145.0
843.0,140.0
843.07,146.0
843.13,120.0
843.19,147.0
843.25,143.0
843.32,139.0
843.38,152.0
843.44,128.0
843.51,146.0
843.57,131.0
843.63,126.0
843.7,150.0
843.76,124.0
843.82,130.0
843.88,123.0
843.95,129.0
844.01,132.0
844.07,127.0
844.14,110.0
844.2,135.0
844.26,131.0
844.33,128.0
844.39,128.0
844.45,125.0
844.51,143.0
844.58,141.0
844.64,151.0
844.7,143.0
844.77,164.0
844.83,160.0
844.89,150.0
844.96,140.0
845.02,155.0
845.08,162.0
845.14,150.0
845.21,151.0
845.27,152.0
845.33,148.0
845.4,162.0
845.46,159.0
845.52,148.0
845.59,156.0
845.65,155.0
845.71,153.0
845.77,147.0
845.84,157.0
845.9,147.0
845.96,158.0
846.03,172.0
846.09,142.0
846.15,134.0
846.22,119.0
846.28,126.0
846.34,122.0
846.4,137.0
846.47,121.0
846.53,127.0
846.59,126.0
846.66,127.0
846.72,124.0
846.78,119.0
846.85,101.0
846.91,116.0
846.97,127.0
847.03,118.0
847.1,117.0
847.16,136.0
847.22,146.0
847.29,137.0
847.35,125.0
847.41,107.0
847.48,102.0
847.54,118.0
847.6,103.0
847.66,117.0
847.73,95.0
847.79,117.0
847.85,114.0
847.92,87.0
847.98,95.0
848.04,114.0
848.11,124.0
848.17,141.0
848.23,128.0
848.29,142.0
848.36,143.0
848.42,154.0
848.48,147.0
848.55,140.0
848.61,142.0
848.67,151.0
848.74,167.0
848.8,173.0
848.86,154.0
848.92,128.0
848.99,136.0
849.05,132.0
849.11,155.0
849.18,150.0
849.24,147.0
849.3,146.0
849.37,145.0
849.43,148.0
849.49,148.0
849.55,139.0
849.62,147.0
849.68,153.0
849.74,138.0
849.81,159.0
849.87,160.0
849.93,177.0
850.0,167.0
850.06,164.0
850.12,152.0
850.18,156.0
850.25,157.0
850.31,153.0
850.37,164.0
850.44,167.0
850.5,176.0
850.56,156.0
850.63,167.0
850.69,173.0
850.75,164.0
850.81,177.0
850.88,172.0
850.94,187.0
851.0,168.0
851.07,167.0
851.13,184.0
851.19,159.0
851.26,197.0
851.32,181.0
851.38,172.0
851.44,166.0
851.51,188.0
851.57,202.0
851.63,211.0
851.7,193.0
851.76,202.0
851.82,189.0
851.89,217.0
851.95,229.0
852.01,208.0
852.07,204.0
852.14,166.0
852.2,186.0
852.26,189.0
852.33,198.0
852.39,178.0
852.45,183.0
852.52,202.0
852.58,172.0
852.64,171.0
852.7,153.0
852.77,181.0
852.83,179.0
852.89,167.0
852.96,179.0
853.02,161.0
853.08,155.0
853.15,167.0
853.21,165.0
853.27,157.0
853.33,142.0
853.4,162.0
853.46,156.0
853.52,162.0
853.59,176.0
853.65,148.0
853.71,178.0
853.78,159.0
853.84,145.0
853.9,136.0
853.96,131.0
854.03,117.0
854.09,92.0
854.15,97.0
854.22,97.0
854.28,95.0
854.34,84.0
854.41,110.0
854.47,105.0
854.53,99.0
854.59,105.0
854.66,121.0
854.72,112.0
854.78,94.0
854.85,108.0
854.91,113.0
854.97,117.0
855.04,124.0
855.1,121.0
855.16,114.0
855.22,126.0
855.29,130.0
855.35,96.0
855.41,111.0
855.48,129.0
855.54,128.0
855.6,123.0
855.67,118.0
855.73,122.0
855.79,130.0
855.85,121.0
855.92,117.0
855.98,122.0
856.04,114.0
856.11,131.0
856.17,121.0
856.23,121.0
856.3,128.0
856.36,125.0
856.42,137.0
856.48,124.0
856.55,113.0
856.61,117.0
856.67,146.0
856.74,147.0
856.8,125.0
856.86,138.0
856.93,133.0
856.99,134.0
857.05,131.0
857.11,132.0
857.18,107.0
857.24,93.0
857.3,123.0
857.37,118.0
857.43,118.0
857.49,119.0
857.56,103.0
857.62,111.0
857.68,105.0
857.74,104.0
857.81,81.0
857.87,93.0
857.93,106.0
858.0,88.0
858.06,106.0
858.12,103.0
858.19,92.0
858.25,112.0
858.31,91.0
858.37,95.0
858.44,87.0
858.5,99.0
858.56,92.0
858.63,83.0
858.69,107.0
858.75,108.0
858.82,91.0
858.88,109.0
858.94,101.0
859.0,101.0
859.07,93.0
859.13,102.0
859.19,96.0
859.26,96.0
859.32,120.0
859.38,100.0
859.45,116.0
859.51,131.0
859.57,137.0
859.63,110.0
859.7,127.0
859.76,124.0
859.82,121.0
859.89,124.0
859.95,147.0
860.01,148.0
860.08,133.0
860.14,125.0
860.2,146.0
860.26,142.0
860.33,146.0
860.39,145.0
860.45,143.0
860.52,132.0
860.58,132.0
860.64,138.0
860.71,131.0
860.77,118.0
860.83,108.0
860.89,127.0
860.96,139.0
861.02,121.0
861.08,126.0
861.15,129.0
861.21,125.0
861.27,129.0
861.34,127.0
861.4,121.0
861.46,120.0
861.52,131.0
861.59,142.0
861.65,143.0
861.71,164.0
861.78,132.0
861.84,146.0
861.9,138.0
861.97,122.0
862.03,115.0
862.09,112.0
862.15,121.0
862.22,118.0
862.28,110.0
862.34,121.0
862.41,121.0
862.47,133.0
862.53,132.0
862.6,141.0
862.66,150.0
862.72,119.0
862.78,135.0
862.85,124.0
862.91,118.0
862.97,129.0
863.04,126.0
863.1,149.0
863.16,116.0
863.23,114.0
863.29,130.0
863.35,134.0
863.41,143.0
863.48,125.0
863.54,138.0
863.6,140.0
863.67,132.0
863.73,138.0
863.79,132.0
863.86,155.0
863.92,150.0
863.98,151.0
864.04,154.0
864.11,146.0
864.17,134.0
864.23,137.0
864.3,154.0
864.36,151.0
864.42,147.0
864.49,140.0
864.55,151.0
864.61,154.0
864.67,174.0
864.74,176.0
864.8,153.0
864.86,176.0
864.93,184.0
864.99,179.0
865.05,207.0
865.12,187.0
865.18,172.0
865.24,192.0
865.3,193.0
865.37,199.0
865.43,194.0
865.49,195.0
865.56,194.0
865.62,202.0
865.68,198.0
865.75,187.0
865.81,219.0
865.87,206.0
865.93,219.0
866.0,194.0
866.06,212.0
866.12,204.0
866.19,214.0
866.25,214.0
866.31,220.0
866.38,214.0
866.44,198.0
866.5,214.0
866.56,228.0
866.63,220.0
866.69,231.0
866.75,232.0
866.82,228.0
866.88,228.0
866.94,210.0
867.01,226.0
867.07,249.0
867.13,215.0
867.19,202.0
867.26,216.0
867.32,224.0
867.38,227.0
867.45,220.0
867.51,230.0
867.57,236.0
867.64,238.0
867.7,233.0
867.76,199.0
867.82,228.0
867.89,232.0
867.95,248.0
868.01,253.0
868.08,242.0
868.14,236.0
868.2,225.0
868.27,232.0
868.33,244.0
868.39,229.0
868.45,223.0
868.52,217.0
868.58,234.0
868.64,239.0
868.71,234.0
868.77,234.0
868.83,212.0
868.9,211.0
868.96,209.0
869.02,217.0
869.08,216.0
869.15,224.0
869.21,213.0
869.27,181.0
869.34,179.0
869.4,169.0
869.46,165.0
869.53,161.0
869.59,159.0
869.65,167.0
869.71,162.0
869.78,146.0
869.84,142.0
869.9,142.0
869.97,150.0
870.03,139.0
870.09,136.0
870.16,148.0
870.22,130.0
870.28,140.0
870.34,148.0
870.41,151.0
870.47,150.0
870.53,137.0
870.6,131.0
870.66,112.0
870.72,113.0
870.79,121.0
870.85,122.0
870.91,109.0
870.97,84.0
871.04,99.0
871.1,92.0
871.16,95.0
871.23,122.0
871.29,120.0
871.35,106.0
871.42,78.0
871.48,91.0
871.54,90.0
871.6,76.0
871.67,73.0
871.73,81.0
871.79,98.0
871.86,89.0
871.92,72.0
871.98,73.0
872.05,77.0
872.11,57.0
872.17,69.0
872.23,68.0
872.3,69.0
872.36,67.0
872.42,60.0
872.49,75.0
872.55,60.0
872.61,54.0
872.68,53.0
872.74,75.0
872.8,66.0
872.86,71.0
872.93,80.0
872.99,93.0
873.05,69.0
873.12,62.0
873.18,100.0
873.24,95.0
873.31,92.0
873.37,76.0
873.43,94.0
873.49,86.0
873.56,84.0
873.62,79.0
873.68,71.0
873.75,69.0
873.81,79.0
873.87,72.0
873.94,73.0
874.0,57.0
874.06,28.0
874.12,33.0
874.19,48.0
874.25,34.0
874.31,40.0
874.38,48.0
874.44,58.0
874.5,63.0
874.57,36.0
874.63,18.0
874.69,38.0
874.75,45.0
874.82,27.0
874.88,11.0
874.94,21.0
875.01,35.0
875.07,26.0
875.13,33.0
875.2,40.0
875.26,63.0
875.32,38.0
875.38,46.0
875.45,71.0
875.51,47.0
875.57,44.0
875.64,30.0
875.7,46.0
875.76,46.0
875.83,49.0
875.89,55.0
875.95,58.0
876.01,58.0
876.08,42.0
876.14,59.0
876.2,77.0
876.27,58.0
876.33,40.0
876.39,38.0
876.46,48.0
876.52,52.0
876.58,40.0
876.64,52.0
876.71,57.0
876.77,47.0
876.83,41.0
876.9,44.0
876.96,67.0
877.02,73.0
877.09,76.0
877.15,70.0
877.21,63.0
877.27,84.0
877.34,72.0
877.4,73.0
877.46,77.0
877.53,65.0
877.59,70.0
877.65,73.0
877.72,74.0
877.78,79.0
877.84,81.0
877.9,72.0
877.97,78.0
878.03,96.0
878.09,94.0
878.16,111.0
878.22,118.0
878.28,99.0
878.35,75.0
878.41,86.0
878.47,109.0
878.53,103.0
878.6,103.0
878.66,91.0
878.72,99.0
878.79,90.0
878.85,93.0
878.91,93.0
878.98,91.0
879.04,93.0
879.1,98.0
879.16,82.0
879.23,82.0
879.29,92.0
879.35,84.0
879.42,77.0
879.48,98.0
879.54,93.0
879.61,79.0
879.67,84.0
879.73,83.0
879.79,88.0
879.86,70.0
879.92,74.0
879.98,59.0
880.05,72.0
880.11,67.0
880.17,68.0
880.24,89.0
880.3,64.0
880.36,63.0
880.42,66.0
880.49,66.0
880.55,69.0
880.61,58.0
880.68,63.0
880.74,88.0
880.8,95.0
880.87,92.0
880.93,84.0
880.99,93.0
881.05,76.0
881.12,70.0
881.18,59.0
881.24,71.0
881.31,54.0
881.37,79.0
881.43,78.0
881.5,88.0
881.56,98.0
881.62,101.0
881.68,103.0
881.75,98.0
881.81,93.0
881.87,92.0
881.94,115.0
882.0,101.0
882.06,106.0
882.13,105.0
882.19,114.0
882.25,130.0
882.31,121.0
882.38,131.0
882.44,123.0
882.5,120.0
882.57,115.0
882.63,104.0
882.69,113.0
882.76,98.0
882.82,114.0
882.88,101.0
882.94,110.0
883.01,107.0
883.07,113.0
883.13,102.0
883.2,96.0
883.26,106.0
883.32,106.0
883.39,109.0
883.45,118.0
883.51,121.0
883.57,114.0
883.64,127.0
883.7,133.0
883.76,129.0
883.83,136.0
883.89,145.0
883.95,165.0
884.02,159.0
884.08,164.0
884.14,162.0
884.2,160.0
884.27,152.0
884.33,176.0
884.39,167.0
884.46,147.0
884.52,143.0
884.58,160.0
884.65,161.0
884.71,170.0
884.77,183.0
884.83,166.0
884.9,161.0
884.96,143.0
885.02,150.0
885.09,148.0
885.15,150.0
885.21,154.0
885.28,143.0
885.34,135.0
885.4,137.0
885.46,148.0
885.53,150.0
885.59,140.0
885.65,144.0
885.72,154.0
885.78,139.0
885.84,143.0
885.91,139.0
885.97,130.0
886.03,124.0
886.09,139.0
886.16,117.0
886.22,124.0
886.28,110.0
886.35,101.0
886.41,105.0
886.47,101.0
886.54,88.0
886.6,82.0
886.66,110.0
886.72,81.0
886.79,81.0
886.85,93.0
886.91,104.0
886.98,104.0
887.04,84.0
887.1,76.0
887.17,84.0
887.23,78.0
887.29,88.0
887.35,107.0
887.42,93.0
887.48,88.0
887.54,95.0
887.61,87.0
887.67,95.0
887.73,109.0
887.8,98.0
887.86,103.0
887.92,97.0
887.98,91.0
888.05,112.0
888.11,93.0
888.17,96.0
888.24,89.0
888.3,93.0
888.36,97.0
888.43,90.0
888.49,87.0
888.55,101.0
888.61,106.0
888.68,104.0
888.74,94.0
888.8,111.0
888.87,114.0
888.93,94.0
888.99,105.0
889.06,115.0
889.12,132.0
889.18,125.0
889.24,125.0
889.31,109.0
889.37,131.0
889.43,131.0
889.5,121.0
889.56,140.0
889.62,127.0
889.69,128.0
889.75,136.0
889.81,121.0
889.87,119.0
889.94,127.0
890.0,121.0
890.06,118.0
890.13,100.0
890.19,106.0
890.25,88.0
890.32,105.0
890.38,132.0
890.44,110.0
890.5,114.0
890.57,88.0
890.63,84.0
890.69,90.0
890.76,79.0
890.82,73.0
890.88,96.0
890.95,111.0
891.01,111.0
891.07,109.0
891.13,87.0
891.2,94.0
891.26,85.0
891.32,100.0
891.39,109.0
891.45,88.0
891.51,97.0
891.58,113.0
891.64,80.0
891.7,77.0
891.76,73.0
891.83,71.0
891.89,83.0
891.95,57.0
892.02,91.0
892.08,80.0
892.14,95.0
892.21,109.0
892.27,98.0
892.33,105.0
892.39,89.0
892.46,78.0
892.52,93.0
892.58,91.0
892.65,96.0
892.71,117.0
892.77,108.0
892.84,117.0
892.9,134.0
892.96,130.0
893.02,128.0
893.09,132.0
893.15,142.0
893.21,124.0
893.28,119.0
893.34,103.0
893.4,132.0
893.47,128.0
893.53,128.0
893.59,130.0
893.65,115.0
893.72,148.0
893.78,142.0
893.84,144.0
893.91,142.0
893.97,115.0
894.03,144.0
894.1,139.0
894.16,125.0
894.22,111.0
894.28,111.0
894.35,115.0
894.41,112.0
894.47,120.0
894.54,133.0
894.6,126.0
894.66,129.0
894.73,130.0
894.79,128.0
894.85,147.0
894.91,137.0
894.98,134.0
895.04,139.0
895.1,144.0
895.17,129.0
895.23,144.0
895.29,130.0
895.36,125.0
895.42,133.0
895.48,139.0
895.54,147.0
895.61,153.0
895.67,148.0
895.73,151.0
895.8,143.0
895.86,120.0
895.92,122.0
895.99,147.0
896.05,147.0
896.11,147.0
896.17,132.0
896.24,145.0
896.3,123.0
896.36,125.0
896.43,130.0
896.49,114.0
896.55,123.0
896.62,137.0
896.68,139.0
896.74,133.0
896.8,120.0
896.87,141.0
896.93,136.0
896.99,146.0
897.06,139.0
897.12,155.0
897.18,155.0
897.25,146.0
897.31,150.0
897.37,121.0
897.43,110.0
897.5,109.0
897.56,113.0
897.62,94.0
897.69,96.0
897.75,117.0
897.81,121.0
897.88,115.0
897.94,122.0
898.0,121.0
898.06,142.0
898.13,115.0
898.19,121.0
898.25,123.0
898.32,124.0
898.38,162.0
898.44,156.0
898.51,153.0
898.57,139.0
898.63,137.0
898.69,148.0
898.76,136.0
898.82,118.0
898.88,129.0
898.95,128.0
899.01,134.0
899.07,117.0
899.14,116.0
899.2,114.0
899.26,103.0
899.32,114.0
899.39,131.0
899.45,131.0
899.51,132.0
899.58,143.0
899.64,135.0
899.7,153.0
899.77,169.0
899.83,147.0
899.89,152.0
899.95,154.0
900.02,159.0
900.08,171.0
900.14,145.0
900.21,136.0
900.27,146.0
900.33,151.0
900.4,154.0
900.46,143.0
900.52,138.0
900.58,146.0
900.65,145.0
900.71,132.0
900.77,134.0
900.84,122.0
900.9,115.0
900.96,128.0
901.03,141.0
901.09,128.0
901.15,124.0
901.21,145.0
901.28,131.0
901.34,132.0
901.4,143.0
901.47,154.0
901.53,146.0
901.59,135.0
901.66,141.0
901.72,143.0
901.78,128.0
901.84,137.0
901.91,123.0
901.97,136.0
902.03,128.0
902.1,128.0
902.16,126.0
902.22,140.0
902.29,147.0
902.35,131.0
902.41,124.0
902.47,122.0
902.54,123.0
902.6,123.0
902.66,132.0
902.73,115.0
902.79,105.0
902.85,129.0
902.92,126.0
902.98,119.0
903.04,102.0
903.1,118.0
903.17,139.0
903.23,146.0
903.29,134.0
903.36,108.0
903.42,129.0
903.48,117.0
903.55,114.0
903.61,125.0
903.67,86.0
903.73,91.0
903.8,118.0
903.86,129.0
903.92,110.0
903.99,127.0
904.05,139.0
904.11,139.0
904.18,127.0
904.24,124.0
904.3,122.0
904.36,121.0
904.43,141.0
904.49,136.0
904.55,116.0
904.62,127.0
904.68,134.0
904.74,127.0
904.81,123.0
904.87,114.0
904.93,99.0
904.99,112.0
905.06,107.0
905.12,109.0
905.18,136.0
905.25,139.0
905.31,105.0
905.37,106.0
905.44,118.0
905.5,118.0
905.56,109.0
905.62,124.0
905.69,100.0
905.75,94.0
905.81,82.0
905.88,88.0
905.94,95.0
906.0,96.0
906.07,93.0
906.13,88.0
906.19,117.0
906.25,81.0
906.32,92.0
906.38,104.0
906.44,120.0
906.51,115.0
906.57,101.0
906.63,106.0
906.7,118.0
906.76,126.0
906.82,117.0
906.88,81.0
906.95,86.0
907.01,91.0
907.07,102.0
907.14,104.0
907.2,93.0
907.26,105.0
907.33,87.0
907.39,73.0
907.45,95.0
907.51,105.0
907.58,122.0
907.64,71.0
907.7,93.0
907.77,88.0
907.83,77.0
907.89,71.0
907.96,84.0
908.02,77.0
908.08,74.0
908.14,87.0
908.21,64.0
908.27,82.0
908.33,77.0
908.4,80.0
908.46,83.0
908.52,71.0
908.59,91.0
908.65,95.0
908.71,73.0
908.77,77.0
908.84,94.0
908.9,84.0
908.96,77.0
909.03,80.0
909.09,89.0
909.15,74.0
909.22,74.0
909.28,74.0
909.34,91.0
909.4,86.0
909.47,81.0
909.53,85.0
909.59,89.0
909.66,89.0
909.72,76.0
909.78,80.0
909.85,83.0
909.91,77.0
909.97,75.0
910.03,64.0
910.1,82.0
910.16,72.0
910.22,62.0
910.29,63.0
910.35,63.0
910.41,76.0
910.48,79.0
910.54,99.0
910.6,95.0
910.66,98.0
910.73,92.0
910.79,66.0
910.85,86.0
910.92,87.0
910.98,104.0
911.04,88.0
911.11,82.0
911.17,109.0
911.23,105.0
911.29,126.0
911.36,107.0
911.42,112.0
911.48,116.0
911.55,130.0
911.61,115.0
911.67,103.0
911.74,108.0
911.8,83.0
911.86,110.0
911.92,102.0
911.99,92.0
912.05,98.0
912.11,120.0
912.18,120.0
912.24,109.0
912.3,108.0
912.37,117.0
912.43,102.0
912.49,115.0
912.55,112.0
912.62,108.0
912.68,111.0
912.74,138.0
912.81,135.0
912.87,107.0
912.93,101.0
913.0,133.0
913.06,139.0
913.12,128.0
913.18,127.0
913.25,142.0
913.31,143.0
913.37,146.0
913.44,119.0
913.5,120.0
913.56,111.0
913.63,105.0
913.69,114.0
913.75,123.0
913.81,116.0
913.88,113.0
913.94,150.0
914.0,139.0
914.07,125.0
914.13,141.0
914.19,131.0
914.26,151.0
914.32,161.0
914.38,124.0
914.44,141.0
914.51,154.0
914.57,155.0
914.63,150.0
914.7,134.0
914.76,148.0
914.82,157.0
914.89,150.0
914.95,181.0
915.01,146.0
915.07,135.0
915.14,170.0
915.2,158.0
915.26,153.0
915.33,156.0
915.39,169.0
915.45,169.0
915.52,155.0
915.58,179.0
915.64,203.0
915.7,203.0
915.77,197.0
915.83,194.0
915.89,192.0
915.96,206.0
916.02,187.0
916.08,191.0
916.15,179.0
916.21,162.0
916.27,187.0
916.33,172.0
916.4,177.0
916.46,168.0
916.52,170.0
916.59,174.0
916.65,157.0
916.71,166.0
916.78,145.0
916.84,183.0
916.9,168.0
916.96,183.0
917.03,190.0
917.09,167.0
917.15,174.0
917.22,155.0
917.28,182.0
917.34,198.0
917.41,196.0
917.47,198.0
917.53,206.0
917.59,209.0
917.66,208.0
917.72,212.0
917.78,211.0
917.85,219.0
917.91,204.0
917.97,206.0
918.04,205.0
918.1,213.0
918.16,209.0
918.22,207.0
918.29,201.0
918.35,216.0
918.41,205.0
918.48,183.0
918.54,205.0
918.6,200.0
918.67,223.0
918.73,219.0
918.79,209.0
918.85,211.0
918.92,216.0
918.98,211.0
919.04,227.0
919.11,214.0
919.17,219.0
919.23,246.0
919.3,240.0
919.36,256.0
919.42,266.0
919.48,241.0
919.55,234.0
919.61,236.0
919.67,266.0
919.74,246.0
919.8,239.0
919.86,231.0
919.93,220.0
919.99,213.0
920.05,208.0
920.11,205.0
920.18,180.0
920.24,184.0
920.3,189.0
920.37,186.0
920.43,164.0
920.49,167.0
920.56,161.0
920.62,158.0
920.68,167.0
920.74,150.0
920.81,151.0
920.87,128.0
920.93,137.0
921.0,132.0
921.06,132.0
921.12,136.0
921.19,143.0
921.25,148.0
921.31,140.0
921.37,159.0
921.44,166.0
921.5,165.0
921.56,150.0
921.63,147.0
921.69,148.0
921.75,143.0
921.82,139.0
921.88,136.0
921.94,135.0
922.0,146.0
922.07,138.0
922.13,121.0
922.19,148.0
922.26,140.0
922.32,123.0
922.38,135.0
922.45,127.0
922.51,134.0
922.57,134.0
922.63,117.0
922.7,138.0
922.76,136.0
922.82,132.0
922.89,147.0
922.95,139.0
923.01,131.0
923.08,133.0
923.14,102.0
923.2,117.0
923.26,135.0
923.33,136.0
923.39,141.0
923.45,125.0
923.52,115.0
923.58,126.0
923.64,137.0
923.71,121.0
923.77,104.0
923.83,108.0
923.89,117.0
923.96,95.0
924.02,92.0
924.08,104.0
924.15,88.0
924.21,69.0
924.27,76.0
924.34,85.0
924.4,71.0
924.46,77.0
924.52,84.0
924.59,95.0
924.65,107.0
924.71,84.0
924.78,66.0
924.84,74.0
924.9,70.0
924.97,73.0
925.03,71.0
925.09,77.0
925.15,83.0
925.22,68.0
925.28,67.0
925.34,75.0
925.41,78.0
925.47,74.0
925.53,58.0
925.6,44.0
925.66,57.0
925.72,48.0
925.78,39.0
925.85,53.0
925.91,35.0
925.97,51.0
926.04,62.0
926.1,38.0
926.16,47.0
926.23,44.0
926.29,37.0
926.35,37.0
926.41,49.0
926.48,34.0
926.54,45.0
926.6,53.0
926.67,54.0
926.73,48.0
926.79,49.0
926.86,38.0
926.92,52.0
926.98,51.0
927.04,34.0
927.11,32.0
927.17,30.0
927.23,33.0
927.3,21.0
927.36,51.0
927.42,31.0
927.49,46.0
927.55,52.0
927.61,44.0
927.67,44.0
927.74,26.0
927.8,62.0
927.86,52.0
927.93,51.0
927.99,76.0
928.05,62.0
928.12,67.0
928.18,51.0
928.24,51.0
928.3,41.0
928.37,54.0
928.43,49.0
928.49,57.0
928.56,50.0
928.62,48.0
928.68,51.0
928.75,55.0
928.81,57.0
928.87,48.0
928.93,37.0
929.0,55.0
929.06,40.0
929.12,54.0
929.19,80.0
929.25,67.0
929.31,52.0
929.38,51.0
929.44,40.0
929.5,63.0
929.56,46.0
929.63,53.0
929.69,61.0
929.75,75.0
929.82,66.0
929.88,55.0
929.94,65.0
930.01,66.0
930.07,50.0
930.13,32.0
930.19,36.0
930.26,35.0
930.32,40.0
930.38,51.0
930.45,51.0
930.51,48.0
930.57,57.0
930.64,38.0
930.7,64.0
930.76,62.0
930.82,40.0
930.89,26.0
930.95,47.0
931.01,59.0
931.08,38.0
931.14,67.0
931.2,67.0
931.27,74.0
931.33,74.0
931.39,65.0
931.45,87.0
931.52,81.0
931.58,93.0
931.64,85.0
931.71,94.0
931.77,107.0
931.83,102.0
931.9,99.0
931.96,104.0
932.02,91.0
932.08,79.0
932.15,91.0
932.21,87.0
932.27,93.0
932.34,110.0
932.4,115.0
932.46,95.0
932.53,101.0
932.59,118.0
932.65,133.0
932.71,131.0
932.78,107.0
932.84,110.0
932.9,111.0
932.97,122.0
933.03,109.0
933.09,104.0
933.16,89.0
933.22,95.0
933.28,96.0
933.34,117.0
933.41,100.0
933.47,114.0
933.53,126.0
933.6,126.0
933.66,149.0
933.72,140.0
933.79,127.0
933.85,127.0
933.91,139.0
933.97,142.0
934.04,177.0
934.1,159.0
934.16,143.0
934.23,156.0
934.29,142.0
934.35,143.0
934.42,144.0
934.48,164.0
934.54,145.0
934.6,150.0
934.67,159.0
934.73,158.0
934.79,155.0
934.86,140.0
934.92,150.0
934.98,145.0
935.05,146.0
935.11,151.0
935.17,159.0
935.23,143.0
935.3,150.0
935.36,153.0
935.42,158.0
935.49,165.0
935.55,161.0
935.61,170.0
935.68,164.0
935.74,155.0
935.8,172.0
935.86,161.0
935.93,166.0
935.99,161.0
936.05,147.0
936.12,165.0
936.18,162.0
936.24,148.0
936.31,136.0
936.37,140.0
936.43,156.0
936.49,136.0
936.56,145.0
936.62,148.0
936.68,135.0
936.75,139.0
936.81,139.0
936.87,139.0
936.94,139.0
937.0,132.0
937.06,146.0
937.12,147.0
937.19,150.0
937.25,154.0
937.31,150.0
937.38,147.0
937.44,160.0
937.5,160.0
937.57,139.0
937.63,135.0
937.69,124.0
937.75,129.0
937.82,125.0
937.88,104.0
937.94,119.0
938.01,110.0
938.07,123.0
938.13,119.0
938.2,123.0
938.26,133.0
938.32,135.0
938.38,149.0
938.45,123.0
938.51,114.0
938.57,131.0
938.64,106.0
938.7,110.0
938.76,115.0
938.83,117.0
938.89,103.0
938.95,111.0
939.01,114.0
939.08,101.0
939.14,112.0
939.2,113.0
939.27,119.0
939.33,129.0
939.39,100.0
939.46,115.0
939.52,119.0
939.58,108.0
939.64,113.0
939.71,127.0
939.77,135.0
939.83,115.0
939.9,107.0
939.96,106.0
940.02,90.0
940.09,100.0
940.15,99.0
940.21,95.0
940.27,118.0
940.34,107.0
940.4,84.0
940.46,77.0
940.53,72.0
940.59,85.0
940.65,72.0
940.72,76.0
940.78,84.0
940.84,87.0
940.9,77.0
940.97,92.0
941.03,84.0
941.09,98.0
941.16,96.0
941.22,92.0
941.28,110.0
941.35,100.0
941.41,92.0
941.47,124.0
941.53,106.0
941.6,98.0
941.66,95.0
941.72,81.0
941.79,92.0
941.85,100.0
941.91,86.0
941.98,82.0
942.04,84.0
942.1,71.0
942.16,51.0
942.23,41.0
942.29,66.0
942.35,69.0
942.42,69.0
942.48,62.0
942.54,61.0
942.61,54.0
942.67,61.0
942.73,56.0
942.79,58.0
942.86,58.0
942.92,67.0
942.98,65.0
943.05,79.0
943.11,79.0
943.17,66.0
943.24,72.0
943.3,66.0
943.36,62.0
943.42,69.0
943.49,84.0
943.55,84.0
943.61,68.0
943.68,82.0
943.74,85.0
943.8,86.0
943.87,84.0
943.93,89.0
943.99,81.0
944.05,71.0
944.12,80.0
944.18,90.0
944.24,86.0
944.31,76.0
944.37,87.0
944.43,68.0
944.5,72.0
944.56,85.0
944.62,93.0
944.68,121.0
944.75,93.0
944.81,105.0
944.87,114.0
944.94,112.0
945.0,79.0
945.06,87.0
945.13,111.0
945.19,121.0
945.25,108.0
945.31,105.0
945.38,99.0
945.44,106.0
945.5,99.0
945.57,104.0
945.63,106.0
945.69,93.0
945.76,95.0
945.82,101.0
945.88,92.0
945.94,104.0
946.01,108.0
946.07,110.0
946.13,114.0
946.2,110.0
946.26,105.0
946.32,91.0
946.39,91.0
946.45,121.0
946.51,105.0
946.57,99.0
946.64,98.0
946.7,101.0
946.76,94.0
946.83,88.0
946.89,87.0
946.95,91.0
947.02,110.0
947.08,110.0
947.14,99.0
947.2,101.0
947.27,106.0
947.33,102.0
947.39,103.0
947.46,84.0
947.52,96.0
947.58,115.0
947.65,136.0
947.71,139.0
947.77,118.0
947.83,128.0
947.9,109.0
947.96,107.0
948.02,105.0
948.09,92.0
948.15,89.0
948.21,86.0
948.28,105.0
948.34,118.0
948.4,109.0
948.46,114.0
948.53,128.0
948.59,113.0
948.65,118.0
948.72,116.0
948.78,108.0
948.84,107.0
948.91,115.0
948.97,108.0
949.03,126.0
949.09,121.0
949.16,94.0
949.22,106.0
949.28,91.0
949.35,96.0
949.41,106.0
949.47,108.0
949.54,115.0
949.6,101.0
949.66,106.0
949.72,120.0
949.79,92.0
949.85,117.0
949.91,104.0
949.98,109.0
950.04,112.0
950.1,106.0
950.17,121.0
950.23,126.0
950.29,134.0
950.35,139.0
950.42,140.0
950.48,132.0
950.54,140.0
950.61,133.0
950.67,132.0
950.73,127.0
950.8,115.0
950.86,112.0
950.92,137.0
950.98,152.0
951.05,162.0
951.11,149.0
951.17,145.0
951.24,140.0
951.3,144.0
951.36,159.0
951.43,169.0
951.49,165.0
951.55,150.0
951.61,151.0
951.68,161.0
951.74,142.0
951.8,140.0
951.87,124.0
951.93,142.0
951.99,158.0
952.06,154.0
952.12,159.0
952.18,160.0
952.24,116.0
952.31,130.0
952.37,137.0
952.43,111.0
952.5,121.0
952.56,106.0
952.62,103.0
952.69,131.0
952.75,120.0
952.81,131.0
952.87,150.0
952.94,126.0
953.0,121.0
953.06,136.0
953.13,153.0
953.19,155.0
953.25,143.0
953.32,155.0
953.38,156.0
953.44,158.0
953.5,167.0
953.57,159.0
953.63,153.0
953.69,154.0
953.76,142.0
953.82,148.0
953.88,150.0
953.95,146.0
954.01,153.0
954.07,151.0
954.13,137.0
954.2,139.0
954.26,151.0
954.32,132.0
954.39,133.0
954.45,148.0
954.51,137.0
954.58,128.0
954.64,122.0
954.7,125.0
954.76,121.0
954.83,132.0
954.89,146.0
954.95,115.0
955.02,103.0
955.08,84.0
955.14,108.0
955.21,99.0
955.27,101.0
955.33,106.0
955.39,88.0
955.46,97.0
955.52,96.0
955.58,110.0
955.65,112.0
955.71,122.0
955.77,113.0
955.84,120.0
955.9,115.0
955.96,121.0
956.02,140.0
956.09,132.0
956.15,133.0
956.21,133.0
956.28,117.0
956.34,129.0
956.4,147.0
956.47,135.0
956.53,154.0
956.59,128.0
956.65,133.0
956.72,121.0
956.78,133.0
956.84,134.0
956.91,117.0
956.97,120.0
957.03,93.0
957.1,103.0
957.16,112.0
957.22,124.0
957.28,122.0
957.35,117.0
957.41,117.0
957.47,110.0
957.54,115.0
957.6,124.0
957.66,120.0
957.73,102.0
957.79,90.0
957.85,98.0
957.91,85.0
957.98,71.0
958.04,78.0
958.1,76.0
958.17,59.0
958.23,75.0
958.29,79.0
958.36,74.0
958.42,80.0
958.48,65.0
958.54,82.0
958.61,97.0
958.67,92.0
958.73,82.0
958.8,88.0
958.86,92.0
958.92,110.0
958.99,92.0
959.05,90.0
959.11,87.0
959.17,77.0
959.24,82.0
959.3,77.0
959.36,85.0
959.43,99.0
959.49,96.0
959.55,87.0
959.62,87.0
959.68,83.0
959.74,87.0
959.8,77.0
959.87,105.0
959.93,93.0
959.99,99.0
960.06,100.0
960.12,107.0
960.18,103.0
960.25,93.0
960.31,90.0
960.37,79.0
960.43,80.0
960.5,98.0
960.56,91.0
960.62,96.0
960.69,100.0
960.75,104.0
960.81,110.0
960.88,114.0
960.94,111.0
961.0,92.0
961.06,99.0
961.13,108.0
961.19,99.0
961.25,114.0
961.32,96.0
961.38,91.0
961.44,117.0
961.51,106.0
961.57,110.0
961.63,98.0
961.69,114.0
961.76,119.0
961.82,129.0
961.88,106.0
961.95,111.0
962.01,104.0
962.07,120.0
962.14,103.0
962.2,112.0
962.26,104.0
962.32,108.0
962.39,119.0
962.45,120.0
962.51,135.0
962.58,145.0
962.64,145.0
962.7,133.0
962.77,159.0
962.83,156.0
962.89,153.0
962.95,175.0
963.02,163.0
963.08,152.0
963.14,138.0
963.21,153.0
963.27,176.0
963.33,153.0
963.4,150.0
963.46,133.0
963.52,150.0
963.58,141.0
963.65,100.0
963.71,117.0
963.77,115.0
963.84,122.0
963.9,132.0
963.96,130.0
964.03,147.0
964.09,137.0
964.15,137.0
964.21,129.0
964.28,112.0
964.34,132.0
964.4,106.0
964.47,107.0
964.53,119.0
964.59,104.0
964.66,92.0
964.72,109.0
964.78,95.0
964.84,96.0
964.91,84.0
964.97,93.0
965.03,90.0
965.1,91.0
965.16,92.0
965.22,87.0
965.29,114.0
965.35,125.0
965.41,117.0
965.47,129.0
965.54,113.0
965.6,121.0
965.66,150.0
965.73,159.0
965.79,161.0
965.85,141.0
965.92,143.0
965.98,156.0
966.04,159.0
966.1,160.0
966.17,170.0
966.23,156.0
966.29,159.0
966.36,173.0
966.42,168.0
966.48,145.0
966.55,154.0
966.61,157.0
966.67,158.0
966.73,151.0
966.8,145.0
966.86,154.0
966.92,139.0
966.99,147.0
967.05,144.0
967.11,148.0
967.18,161.0
967.24,172.0
967.3,155.0
967.36,157.0
967.43,156.0
967.49,153.0
967.55,153.0
967.62,148.0
967.68,157.0
967.74,152.0
967.81,149.0
967.87,148.0
967.93,151.0
967.99,146.0
968.06,151.0
968.12,126.0
968.18,127.0
968.25,126.0
968.31,121.0
968.37,131.0
968.44,112.0
968.5,106.0
968.56,118.0
968.62,128.0
968.69,120.0
968.75,111.0
968.81,117.0
968.88,123.0
968.94,117.0
969.0,132.0
969.07,102.0
969.13,116.0
969.19,124.0
969.25,98.0
969.32,122.0
969.38,123.0
969.44,134.0
969.51,121.0
969.57,110.0
969.63,124.0
969.7,112.0
969.76,117.0
969.82,102.0
969.88,106.0
969.95,107.0
970.01,124.0
970.07,128.0
970.14,110.0
970.2,110.0
970.26,110.0
970.33,106.0
970.39,114.0
970.45,117.0
970.51,114.0
970.58,114.0
970.64,116.0
970.7,106.0
970.77,110.0
970.83,106.0
970.89,105.0
970.96,95.0
971.02,96.0
971.08,102.0
971.14,97.0
971.21,112.0
971.27,126.0
971.33,115.0
971.4,86.0
971.46,90.0
971.52,91.0
971.59,99.0
971.65,109.0
971.71,91.0
971.77,88.0
971.84,70.0
971.9,78.0
971.96,100.0
972.03,92.0
972.09,71.0
972.15,87.0
972.22,93.0
972.28,73.0
972.34,81.0
972.4,103.0
972.47,109.0
972.53,99.0
972.59,99.0
972.66,96.0
972.72,93.0
972.78,116.0
972.85,99.0
972.91,106.0
972.97,121.0
973.03,122.0
973.1,117.0
973.16,102.0
973.22,94.0
973.29,110.0
973.35,124.0
973.41,114.0
973.48,96.0
973.54,110.0
973.6,118.0
973.66,125.0
973.73,113.0
973.79,117.0
973.85,112.0
973.92,96.0
973.98,106.0
974.04,129.0
974.11,125.0
974.17,110.0
974.23,109.0
974.29,85.0
974.36,96.0
974.42,95.0
974.48,99.0
974.55,102.0
974.61,87.0
974.67,100.0
974.74,96.0
974.8,95.0
974.86,90.0
974.92,85.0
974.99,70.0
975.05,71.0
975.11,90.0
975.18,88.0
975.24,66.0
975.3,66.0
975.37,80.0
975.43,56.0
975.49,64.0
975.55,66.0
975.62,78.0
975.68,69.0
975.74,59.0
975.81,58.0
975.87,48.0
975.93,71.0
976.0,92.0
976.06,74.0
976.12,50.0
976.18,41.0
976.25,55.0
976.31,56.0
976.37,76.0
976.44,85.0
976.5,72.0
976.56,58.0
976.63,66.0
976.69,91.0
976.75,83.0
976.81,89.0
976.88,86.0
976.94,53.0
977.0,82.0
977.07,64.0
977.13,64.0
977.19,79.0
977.26,73.0
977.32,65.0
977.38,68.0
977.44,67.0
977.51,60.0
977.57,59.0
977.63,60.0
977.7,62.0
977.76,59.0
977.82,37.0
977.89,57.0
977.95,47.0
978.01,39.0
978.07,31.0
978.14,30.0
978.2,30.0
978.26,55.0
978.33,42.0
978.39,43.0
978.45,60.0
978.52,32.0
978.58,54.0
978.64,66.0
978.7,61.0
978.77,80.0
978.83,68.0
978.89,71.0
978.96,65.0
979.02,71.0
979.08,57.0
979.15,73.0
979.21,48.0
979.27,72.0
979.33,84.0
979.4,60.0
979.46,64.0
979.52,73.0
979.59,63.0
979.65,69.0
979.71,71.0
979.78,76.0
979.84,77.0
979.9,63.0
979.96,79.0
980.03,92.0
980.09,81.0
980.15,75.0
980.22,108.0
980.28,113.0
980.34,84.0
980.41,101.0
980.47,85.0
980.53,88.0
980.59,104.0
980.66,67.0
980.72,66.0
980.78,99.0
980.85,99.0
980.91,114.0
980.97,105.0
981.04,92.0
981.1,99.0
981.16,110.0
981.22,100.0
981.29,123.0
981.35,114.0
981.41,110.0
981.48,118.0
981.54,120.0
981.6,121.0
981.67,113.0
981.73,112.0
981.79,122.0
981.85,122.0
981.92,104.0
981.98,72.0
982.04,97.0
982.11,113.0
982.17,96.0
982.23,110.0
982.3,109.0
982.36,110.0
982.42,108.0
982.48,110.0
982.55,108.0
982.61,126.0
982.67,113.0
982.74,97.0
982.8,108.0
982.86,94.0
982.93,114.0
982.99,120.0
983.05,108.0
983.11,92.0
983.18,92.0
983.24,85.0
983.3,99.0
983.37,107.0
983.43,103.0
983.49,106.0
983.56,88.0
983.62,102.0
983.68,108.0
983.74,116.0
983.81,109.0
983.87,117.0
983.93,127.0
984.0,127.0
984.06,128.0
984.12,106.0
984.19,107.0
984.25,122.0
984.31,117.0
984.37,113.0
984.44,120.0
984.5,124.0
984.56,135.0
984.63,136.0
984.69,139.0
984.75,141.0
984.82,137.0
984.88,147.0
984.94,150.0
985.0,147.0
985.07,139.0
985.13,143.0
985.19,145.0
985.26,155.0
985.32,143.0
985.38,156.0
985.45,154.0
985.51,145.0
985.57,154.0
985.63,165.0
985.7,158.0
985.76,162.0
985.82,188.0
985.89,173.0
985.95,176.0
986.01,185.0
986.08,180.0
986.14,181.0
986.2,173.0
986.26,166.0
986.33,167.0
986.39,170.0
986.45,171.0
986.52,153.0
986.58,170.0
986.64,170.0
986.71,164.0
986.77,154.0
986.83,159.0
986.89,166.0
986.96,176.0
987.02,177.0
987.08,147.0
987.15,137.0
987.21,128.0
987.27,132.0
987.34,118.0
987.4,139.0
987.46,146.0
987.52,140.0
987.59,145.0
987.65,159.0
987.71,135.0
987.78,131.0
987.84,142.0
987.9,142.0
987.97,144.0
988.03,151.0
988.09,166.0
988.15,144.0
988.22,147.0
988.28,161.0
988.34,142.0
988.41,140.0
988.47,145.0
988.53,145.0
988.6,159.0
988.66,168.0
988.72,124.0
988.78,161.0
988.85,180.0
988.91,178.0
988.97,156.0
989.04,174.0
989.1,164.0
989.16,173.0
989.23,170.0
989.29,161.0
989.35,173.0
989.41,152.0
989.48,156.0
989.54,127.0
989.6,147.0
989.67,149.0
989.73,152.0
989.79,161.0
989.86,172.0
989.92,169.0
989.98,177.0
990.04,196.0
990.11,181.0
990.17,191.0
990.23,190.0
990.3,193.0
990.36,202.0
990.42,183.0
990.49,198.0
990.55,175.0
990.61,179.0
990.67,187.0
990.74,179.0
990.8,164.0
990.86,161.0
990.93,175.0
990.99,170.0
991.05,191.0
991.12,182.0
991.18,181.0
991.24,184.0
991.3,164.0
991.37,158.0
991.43,157.0
991.49,137.0
991.56,124.0
991.62,139.0
991.68,117.0
991.75,134.0
991.81,116.0
991.87,108.0
991.93,113.0
992.0,115.0
992.06,98.0
992.12,111.0
992.19,131.0
992.25,108.0
992.31,96.0
992.38,87.0
992.44,102.0
992.5,84.0
992.56,88.0
992.63,69.0
992.69,71.0
992.75,78.0
992.82,73.0
992.88,63.0
992.94,71.0
993.01,72.0
993.07,70.0
993.13,90.0
993.19,78.0
993.26,74.0
993.32,80.0
993.38,52.0
993.45,40.0
993.51,72.0
993.57,77.0
993.64,65.0
993.7,71.0
993.76,40.0
993.82,56.0
993.89,35.0
993.95,65.0
994.01,50.0
994.08,40.0
994.14,42.0
994.2,48.0
994.27,60.0
994.33,69.0
994.39,46.0
994.45,53.0
994.52,62.0
994.58,43.0
994.64,47.0
994.71,57.0
994.77,52.0
994.83,63.0
994.9,69.0
994.96,73.0
995.02,45.0
995.08,53.0
995.15,66.0
995.21,33.0
995.27,69.0
995.34,71.0
995.4,69.0
995.46,65.0
995.53,85.0
995.59,82.0
995.65,51.0
995.71,80.0
995.78,87.0
995.84,59.0
995.9,66.0
995.97,59.0
996.03,80.0
996.09,80.0
996.16,78.0
996.22,91.0
996.28,92.0
996.34,88.0
996.41,98.0
996.47,87.0
996.53,93.0
996.6,93.0
996.66,84.0
996.72,97.0
996.79,97.0
996.85,99.0
996.91,76.0
996.97,82.0
997.04,91.0
997.1,94.0
997.16,102.0
997.23,99.0
997.29,105.0
997.35,90.0
997.42,62.0
997.48,84.0
997.54,90.0
997.6,87.0
997.67,88.0
997.73,99.0
997.79,99.0
997.86,83.0
997.92,97.0
997.98,90.0
998.05,99.0
998.11,84.0
998.17,81.0
998.23,79.0
998.3,96.0
998.36,77.0
998.42,77.0
998.49,70.0
998.55,63.0
998.61,69.0
998.68,65.0
998.74,74.0
998.8,82.0
998.86,95.0
998.93,115.0
998.99,100.0
999.05,95.0
999.12,87.0
999.18,113.0
999.24,92.0
999.31,113.0
999.37,95.0
999.43,99.0
999.49,107.0
999.56,117.0
999.62,109.0
999.68,115.0
999.75,123.0
999.81,118.0
999.87,98.0
