timestamp,intensity
0,-299.0
0.06,-299.0
0.13,-282.0
0.19,-297.0
0.25,-284.0
0.32,-283.0
0.38,-285.0
0.44,-296.0
0.5,-307.0
0.57,-331.0
0.63,-316.0
0.69,-301.0
0.76,-301.0
0.82,-334.0
0.88,-320.0
0.94,-311.0
1.01,-314.0
1.07,-314.0
1.13,-309.0
1.2,-305.0
1.26,-325.0
1.32,-310.0
1.39,-300.0
1.45,-301.0
1.51,-310.0
1.57,-312.0
1.64,-302.0
1.7,-306.0
1.76,-302.0
1.83,-288.0
1.89,-285.0
1.95,-304.0
2.02,-293.0
2.08,-281.0
2.14,-313.0
2.2,-304.0
2.27,-283.0
2.33,-277.0
2.39,-278.0
2.46,-280.0
2.52,-275.0
2.58,-292.0
2.65,-299.0
2.71,-306.0
2.77,-296.0
2.84,-261.0
2.9,-296.0
2.96,-298.0
3.02,-288.0
3.09,-281.0
3.15,-254.0
3.21,-271.0
3.28,-276.0
3.34,-258.0
3.4,-265.0
3.47,-261.0
3.53,-245.0
3.59,-254.0
3.65,-262.0
3.72,-278.0
3.78,-291.0
3.84,-272.0
3.91,-256.0
3.97,-279.0
4.03,-270.0
4.1,-272.0
4.16,-303.0
4.22,-293.0
4.28,-292.0
4.35,-287.0
4.41,-284.0
4.47,-274.0
4.54,-270.0
4.6,-306.0
4.66,-302.0
4.73,-293.0
4.79,-298.0
4.85,-288.0
4.91,-300.0
4.98,-294.0
5.04,-304.0
5.1,-302.0
5.17,-288.0
5.23,-285.0
5.29,-278.0
5.35,-285.0
5.42,-259.0
5.48,-255.0
5.54,-268.0
5.61,-257.0
5.67,-242.0
5.73,-269.0
5.8,-243.0
5.86,-255.0
5.92,-261.0
5.98,-244.0
6.05,-271.0
6.11,-260.0
6.17,-248.0
6.24,-238.0
6.3,-254.0
6.36,-279.0
6.43,-295.0
6.49,-284.0
6.55,-255.0
6.61,-251.0
6.68,-256.0
6.74,-242.0
6.8,-250.0
6.87,-260.0
6.93,-260.0
6.99,-245.0
7.06,-248.0
7.12,-262.0
7.18,-266.0
7.24,-272.0
7.31,-275.0
7.37,-278.0
7.43,-272.0
7.5,-296.0
7.56,-295.0
7.62,-292.0
7.69,-287.0
7.75,-285.0
7.81,-314.0
7.87,-307.0
7.94,-304.0
8.0,-293.0
8.06,-272.0
8.13,-258.0
8.19,-260.0
8.25,-275.0
8.32,-267.0
8.38,-265.0
8.44,-290.0
8.5,-278.0
8.57,-277.0
8.63,-263.0
8.69,-239.0
8.76,-249.0
8.82,-263.0
8.88,-255.0
8.95,-266.0
9.01,-254.0
9.07,-278.0
9.13,-280.0
9.2,-286.0
9.26,-278.0
9.32,-265.0
9.39,-263.0
9.45,-264.0
9.51,-287.0
9.58,-261.0
9.64,-263.0
9.7,-264.0
9.77,-265.0
9.83,-279.0
9.89,-254.0
9.95,-267.0
10.02,-270.0
10.08,-263.0
10.14,-265.0
10.21,-249.0
10.27,-266.0
10.33,-257.0
10.4,-255.0
10.46,-279.0
10.52,-281.0
10.58,-267.0
10.65,-285.0
10.71,-292.0
10.77,-305.0
10.84,-293.0
10.9,-269.0
10.96,-281.0
11.03,-263.0
11.09,-279.0
11.15,-269.0
11.21,-260.0
11.28,-240.0
11.34,-243.0
11.4,-262.0
11.47,-264.0
11.53,-252.0
11.59,-260.0
11.66,-261.0
11.72,-255.0
11.78,-249.0
11.84,-238.0
11.91,-231.0
11.97,-268.0
12.03,-272.0
12.1,-247.0
12.16,-241.0
12.22,-265.0
12.29,-249.0
12.35,-245.0
12.41,-248.0
12.47,-244.0
12.54,-254.0
12.6,-250.0
12.66,-258.0
12.73,-261.0
12.79,-242.0
12.85,-252.0
12.92,-234.0
12.98,-254.0
13.04,-229.0
13.1,-257.0
13.17,-254.0
13.23,-278.0
13.29,-280.0
13.36,-276.0
13.42,-303.0
13.48,-283.0
13.55,-265.0
13.61,-260.0
13.67,-255.0
13.73,-264.0
13.8,-259.0
13.86,-276.0
13.92,-249.0
13.99,-261.0
14.05,-249.0
14.11,-248.0
14.18,-237.0
14.24,-246.0
14.3,-243.0
14.36,-246.0
14.43,-251.0
14.49,-221.0
14.55,-227.0
14.62,-242.0
14.68,-241.0
14.74,-246.0
14.81,-231.0
14.87,-235.0
14.93,-226.0
14.99,-227.0
15.06,-239.0
15.12,-236.0
15.18,-222.0
15.25,-220.0
15.31,-252.0
15.37,-245.0
15.44,-250.0
15.5,-245.0
15.56,-253.0
15.62,-252.0
15.69,-243.0
15.75,-249.0
15.81,-225.0
15.88,-242.0
15.94,-237.0
16.0,-237.0
16.07,-241.0
16.13,-260.0
16.19,-255.0
16.25,-249.0
16.32,-256.0
16.38,-270.0
16.44,-269.0
16.51,-262.0
16.57,-273.0
16.63,-287.0
16.7,-269.0
16.76,-257.0
16.82,-265.0
16.88,-279.0
16.95,-258.0
17.01,-261.0
17.07,-267.0
17.14,-260.0
17.2,-251.0
17.26,-243.0
17.33,-252.0
17.39,-253.0
17.45,-251.0
17.51,-231.0
17.58,-242.0
17.64,-237.0
17.7,-219.0
17.77,-220.0
17.83,-233.0
17.89,-227.0
17.96,-239.0
18.02,-234.0
18.08,-227.0
18.14,-222.0
18.21,-194.0
18.27,-193.0
18.33,-205.0
18.4,-233.0
18.46,-209.0
18.52,-213.0
18.59,-206.0
18.65,-195.0
18.71,-206.0
18.77,-198.0
18.84,-223.0
18.9,-205.0
18.96,-198.0
19.03,-227.0
19.09,-204.0
19.15,-214.0
19.22,-206.0
19.28,-221.0
19.34,-221.0
19.4,-197.0
19.47,-207.0
19.53,-205.0
19.59,-210.0
19.66,-203.0
19.72,-195.0
19.78,-180.0
19.84,-168.0
19.91,-171.0
19.97,-177.0
20.03,-200.0
20.1,-183.0
20.16,-173.0
20.22,-185.0
20.29,-174.0
20.35,-181.0
20.41,-193.0
20.47,-182.0
20.54,-191.0
20.6,-205.0
20.66,-199.0
20.73,-185.0
20.79,-185.0
20.85,-178.0
20.92,-171.0
20.98,-200.0
21.04,-202.0
21.1,-197.0
21.17,-196.0
21.23,-197.0
21.29,-203.0
21.36,-204.0
21.42,-232.0
21.48,-222.0
21.55,-208.0
21.61,-208.0
21.67,-209.0
21.73,-212.0
21.8,-196.0
21.86,-190.0
21.92,-205.0
21.99,-211.0
22.05,-196.0
22.11,-198.0
22.18,-207.0
22.24,-208.0
22.3,-197.0
22.36,-185.0
22.43,-214.0
22.49,-211.0
22.55,-205.0
22.62,-230.0
22.68,-217.0
22.74,-210.0
22.81,-224.0
22.87,-221.0
22.93,-213.0
22.99,-221.0
23.06,-231.0
23.12,-233.0
23.18,-237.0
23.25,-236.0
23.31,-227.0
23.37,-243.0
23.44,-229.0
23.5,-231.0
23.56,-226.0
23.62,-230.0
23.69,-232.0
23.75,-241.0
23.81,-226.0
23.88,-226.0
23.94,-223.0
24.0,-231.0
24.07,-231.0
24.13,-224.0
24.19,-236.0
24.25,-221.0
24.32,-230.0
24.38,-231.0
24.44,-218.0
24.51,-239.0
24.57,-231.0
24.63,-220.0
24.7,-217.0
24.76,-236.0
24.82,-243.0
24.88,-237.0
24.95,-237.0
25.01,-220.0
25.07,-209.0
25.14,-204.0
25.2,-184.0
25.26,-201.0
25.33,-190.0
25.39,-211.0
25.45,-195.0
25.51,-193.0
25.58,-191.0
25.64,-199.0
25.7,-199.0
25.77,-176.0
25.83,-175.0
25.89,-174.0
25.96,-175.0
26.02,-171.0
26.08,-171.0
26.14,-174.0
26.21,-170.0
26.27,-177.0
26.33,-164.0
26.4,-152.0
26.46,-180.0
26.52,-186.0
26.59,-175.0
26.65,-193.0
26.71,-167.0
26.77,-158.0
26.84,-135.0
26.9,-148.0
26.96,-161.0
27.03,-145.0
27.09,-153.0
27.15,-143.0
27.22,-162.0
27.28,-140.0
27.34,-126.0
27.4,-121.0
27.47,-153.0
27.53,-158.0
27.59,-134.0
27.66,-141.0
27.72,-136.0
27.78,-135.0
27.85,-145.0
27.91,-151.0
27.97,-130.0
28.03,-120.0
28.1,-124.0
28.16,-115.0
28.22,-117.0
28.29,-127.0
28.35,-132.0
28.41,-125.0
28.48,-127.0
28.54,-113.0
28.6,-121.0
28.66,-127.0
28.73,-123.0
28.79,-141.0
28.85,-129.0
28.92,-140.0
28.98,-126.0
29.04,-111.0
29.11,-129.0
29.17,-127.0
29.23,-119.0
29.29,-122.0
29.36,-130.0
29.42,-158.0
29.48,-149.0
29.55,-158.0
29.61,-166.0
29.67,-153.0
29.74,-144.0
29.8,-151.0
29.86,-143.0
29.92,-151.0
29.99,-159.0
30.05,-142.0
30.11,-142.0
30.18,-139.0
30.24,-124.0
30.3,-140.0
30.37,-156.0
30.43,-156.0
30.49,-159.0
30.55,-143.0
30.62,-125.0
30.68,-137.0
30.74,-138.0
30.81,-112.0
30.87,-123.0
30.93,-105.0
31.0,-128.0
31.06,-132.0
31.12,-134.0
31.18,-140.0
31.25,-142.0
31.31,-129.0
31.37,-112.0
31.44,-140.0
31.5,-135.0
31.56,-143.0
31.63,-141.0
31.69,-125.0
31.75,-126.0
31.81,-131.0
31.88,-138.0
31.94,-115.0
32.0,-138.0
32.07,-142.0
32.13,-151.0
32.19,-154.0
32.26,-145.0
32.32,-183.0
32.38,-165.0
32.44,-164.0
32.51,-172.0
32.57,-164.0
32.63,-154.0
32.7,-157.0
32.76,-148.0
32.82,-158.0
32.89,-157.0
32.95,-168.0
33.01,-172.0
33.07,-180.0
33.14,-194.0
33.2,-185.0
33.26,-192.0
33.33,-191.0
33.39,-169.0
33.45,-150.0
33.52,-162.0
33.58,-168.0
33.64,-174.0
33.7,-163.0
33.77,-171.0
33.83,-161.0
33.89,-163.0
33.96,-179.0
34.02,-187.0
34.08,-186.0
34.15,-175.0
34.21,-176.0
34.27,-178.0
34.33,-168.0
34.4,-168.0
34.46,-172.0
34.52,-148.0
34.59,-160.0
34.65,-159.0
34.71,-164.0
34.78,-172.0
34.84,-142.0
34.9,-144.0
34.96,-133.0
35.03,-141.0
35.09,-149.0
35.15,-145.0
35.22,-152.0
35.28,-152.0
35.34,-154.0
35.41,-123.0
35.47,-134.0
35.53,-135.0
35.59,-133.0
35.66,-113.0
35.72,-149.0
35.78,-142.0
35.85,-136.0
35.91,-136.0
35.97,-141.0
36.04,-128.0
36.1,-128.0
36.16,-115.0
36.22,-129.0
36.29,-122.0
36.35,-120.0
36.41,-139.0
36.48,-148.0
36.54,-154.0
36.6,-144.0
36.67,-137.0
36.73,-149.0
36.79,-137.0
36.85,-118.0
36.92,-122.0
36.98,-156.0
37.04,-152.0
37.11,-126.0
37.17,-124.0
37.23,-101.0
37.3,-118.0
37.36,-104.0
37.42,-105.0
37.48,-106.0
37.55,-90.0
37.61,-93.0
37.67,-100.0
37.74,-119.0
37.8,-102.0
37.86,-104.0
37.93,-122.0
37.99,-112.0
38.05,-116.0
38.12,-105.0
38.18,-113.0
38.24,-119.0
38.3,-112.0
38.37,-109.0
38.43,-119.0
38.49,-131.0
38.56,-116.0
38.62,-120.0
38.68,-122.0
38.75,-117.0
38.81,-116.0
38.87,-117.0
38.93,-110.0
39.0,-126.0
39.06,-125.0
39.12,-109.0
39.19,-126.0
39.25,-118.0
39.31,-110.0
39.38,-109.0
39.44,-105.0
39.5,-106.0
39.56,-73.0
39.63,-92.0
39.69,-83.0
39.75,-88.0
39.82,-108.0
39.88,-92.0
39.94,-95.0
40.01,-100.0
40.07,-93.0
40.13,-91.0
40.19,-82.0
40.26,-78.0
40.32,-82.0
40.38,-67.0
40.45,-73.0
40.51,-74.0
40.57,-84.0
40.64,-76.0
40.7,-74.0
40.76,-86.0
40.82,-92.0
40.89,-100.0
40.95,-103.0
41.01,-99.0
41.08,-96.0
41.14,-100.0
41.2,-101.0
41.27,-90.0
41.33,-98.0
41.39,-92.0
41.45,-121.0
41.52,-108.0
41.58,-117.0
41.64,-129.0
41.71,-115.0
41.77,-113.0
41.83,-101.0
41.9,-104.0
41.96,-118.0
42.02,-114.0
42.08,-126.0
42.15,-125.0
42.21,-101.0
42.27,-92.0
42.34,-84.0
42.4,-82.0
42.46,-89.0
42.53,-66.0
42.59,-81.0
42.65,-75.0
42.71,-68.0
42.78,-70.0
42.84,-72.0
42.9,-71.0
42.97,-74.0
43.03,-54.0
43.09,-57.0
43.16,-56.0
43.22,-49.0
43.28,-39.0
43.34,-36.0
43.41,-47.0
43.47,-31.0
43.53,-44.0
43.6,-49.0
43.66,-48.0
43.72,-51.0
43.79,-44.0
43.85,-72.0
43.91,-72.0
43.97,-67.0
44.04,-51.0
44.1,-46.0
44.16,-60.0
44.23,-73.0
44.29,-41.0
44.35,-47.0
44.42,-56.0
44.48,-59.0
44.54,-75.0
44.6,-54.0
44.67,-62.0
44.73,-70.0
44.79,-60.0
44.86,-68.0
44.92,-57.0
44.98,-69.0
45.05,-89.0
45.11,-74.0
45.17,-67.0
45.23,-67.0
45.3,-75.0
45.36,-73.0
45.42,-78.0
45.49,-56.0
45.55,-84.0
45.61,-82.0
45.68,-84.0
45.74,-89.0
45.8,-65.0
45.86,-59.0
45.93,-78.0
45.99,-76.0
46.05,-61.0
46.12,-74.0
46.18,-63.0
46.24,-103.0
46.31,-80.0
46.37,-80.0
46.43,-101.0
46.49,-84.0
46.56,-88.0
46.62,-94.0
46.68,-91.0
46.75,-94.0
46.81,-76.0
46.87,-82.0
46.94,-85.0
47.0,-83.0
47.06,-76.0
47.12,-81.0
47.19,-84.0
47.25,-79.0
47.31,-72.0
47.38,-57.0
47.44,-76.0
47.5,-96.0
47.57,-78.0
47.63,-85.0
47.69,-71.0
47.75,-64.0
47.82,-50.0
47.88,-59.0
47.94,-70.0
48.01,-64.0
48.07,-60.0
48.13,-77.0
48.2,-66.0
48.26,-78.0
48.32,-84.0
48.38,-79.0
48.45,-86.0
48.51,-81.0
48.57,-91.0
48.64,-106.0
48.7,-96.0
48.76,-107.0
48.83,-113.0
48.89,-114.0
48.95,-104.0
49.01,-89.0
49.08,-98.0
49.14,-99.0
49.2,-108.0
49.27,-124.0
49.33,-110.0
49.39,-102.0
49.46,-97.0
49.52,-110.0
49.58,-110.0
49.64,-107.0
49.71,-90.0
49.77,-100.0
49.83,-108.0
49.9,-82.0
49.96,-87.0
50.02,-75.0
50.09,-92.0
50.15,-75.0
50.21,-76.0
50.27,-85.0
50.34,-72.0
50.4,-77.0
50.46,-84.0
50.53,-89.0
50.59,-85.0
50.65,-97.0
50.72,-103.0
50.78,-97.0
50.84,-93.0
50.9,-100.0
50.97,-102.0
51.03,-104.0
51.09,-95.0
51.16,-90.0
51.22,-97.0
51.28,-81.0
51.35,-81.0
51.41,-58.0
51.47,-77.0
51.53,-87.0
51.6,-57.0
51.66,-66.0
51.72,-70.0
51.79,-57.0
51.85,-69.0
51.91,-55.0
51.98,-57.0
52.04,-75.0
52.1,-73.0
52.16,-83.0
52.23,-78.0
52.29,-77.0
52.35,-91.0
52.42,-99.0
52.48,-103.0
52.54,-82.0
52.61,-79.0
52.67,-62.0
52.73,-77.0
52.79,-43.0
52.86,-38.0
52.92,-74.0
52.98,-41.0
53.05,-38.0
53.11,-42.0
53.17,-35.0
53.24,-46.0
53.3,-43.0
53.36,-35.0
53.42,-23.0
53.49,-26.0
53.55,-31.0
53.61,-23.0
53.68,-19.0
53.74,-19.0
53.8,-36.0
53.87,-33.0
53.93,-18.0
53.99,-20.0
54.05,-33.0
54.12,-49.0
54.18,-47.0
54.24,-53.0
54.31,-47.0
54.37,-29.0
54.43,-28.0
54.5,-18.0
54.56,-27.0
54.62,-42.0
54.68,-54.0
54.75,-39.0
54.81,-49.0
54.87,-43.0
54.94,-21.0
55.0,-49.0
55.06,-57.0
55.13,-67.0
55.19,-64.0
55.25,-56.0
55.31,-71.0
55.38,-65.0
55.44,-79.0
55.5,-88.0
55.57,-75.0
55.63,-58.0
55.69,-73.0
55.76,-75.0
55.82,-74.0
55.88,-64.0
55.94,-70.0
56.01,-78.0
56.07,-73.0
56.13,-70.0
56.2,-69.0
56.26,-63.0
56.32,-58.0
56.39,-69.0
56.45,-79.0
56.51,-66.0
56.57,-63.0
56.64,-72.0
56.7,-86.0
56.76,-76.0
56.83,-75.0
56.89,-75.0
56.95,-72.0
57.02,-68.0
57.08,-72.0
57.14,-82.0
57.2,-63.0
57.27,-65.0
57.33,-54.0
57.39,-76.0
57.46,-74.0
57.52,-61.0
57.58,-65.0
57.65,-76.0
57.71,-69.0
57.77,-57.0
57.83,-58.0
57.9,-60.0
57.96,-60.0
58.02,-66.0
58.09,-75.0
58.15,-79.0
58.21,-94.0
58.28,-80.0
58.34,-92.0
58.4,-91.0
58.46,-72.0
58.53,-65.0
58.59,-62.0
58.65,-70.0
58.72,-64.0
58.78,-72.0
58.84,-57.0
58.91,-60.0
58.97,-61.0
59.03,-52.0
59.09,-56.0
59.16,-70.0
59.22,-75.0
59.28,-81.0
59.35,-80.0
59.41,-73.0
59.47,-85.0
59.54,-79.0
59.6,-87.0
59.66,-89.0
59.72,-80.0
59.79,-85.0
59.85,-57.0
59.91,-82.0
59.98,-78.0
60.04,-73.0
60.1,-67.0
60.17,-48.0
60.23,-62.0
60.29,-65.0
60.35,-49.0
60.42,-46.0
60.48,-45.0
60.54,-43.0
60.61,-32.0
60.67,-33.0
60.73,-54.0
60.8,-58.0
60.86,-62.0
60.92,-59.0
60.98,-77.0
61.05,-76.0
61.11,-65.0
61.17,-67.0
61.24,-57.0
61.3,-82.0
61.36,-88.0
61.43,-82.0
61.49,-76.0
61.55,-71.0
61.61,-60.0
61.68,-46.0
61.74,-54.0
61.8,-67.0
61.87,-68.0
61.93,-82.0
61.99,-72.0
62.06,-90.0
62.12,-83.0
62.18,-73.0
62.24,-88.0
62.31,-75.0
62.37,-78.0
62.43,-62.0
62.5,-56.0
62.56,-63.0
62.62,-71.0
62.69,-73.0
62.75,-53.0
62.81,-66.0
62.87,-67.0
62.94,-59.0
63.0,-46.0
63.06,-55.0
63.13,-66.0
63.19,-58.0
63.25,-76.0
63.32,-32.0
63.38,-59.0
63.44,-66.0
63.5,-51.0
63.57,-65.0
63.63,-60.0
63.69,-66.0
63.76,-68.0
63.82,-57.0
63.88,-61.0
63.95,-66.0
64.01,-42.0
64.07,-50.0
64.13,-42.0
64.2,-36.0
64.26,-62.0
64.32,-57.0
64.39,-18.0
64.45,-34.0
64.51,-52.0
64.58,-58.0
64.64,-38.0
64.7,-47.0
64.76,-53.0
64.83,-22.0
64.89,-18.0
64.95,-26.0
65.02,-34.0
65.08,-37.0
65.14,-34.0
65.21,-23.0
65.27,-37.0
65.33,-43.0
65.39,-37.0
65.46,-17.0
65.52,-43.0
65.58,-33.0
65.65,-50.0
65.71,-46.0
65.77,-35.0
65.84,-37.0
65.9,-48.0
65.96,-38.0
66.02,-52.0
66.09,-59.0
66.15,-46.0
66.21,-41.0
66.28,-47.0
66.34,-67.0
66.4,-45.0
66.47,-59.0
66.53,-64.0
66.59,-69.0
66.65,-59.0
66.72,-48.0
66.78,-53.0
66.84,-64.0
66.91,-74.0
66.97,-71.0
67.03,-84.0
67.1,-77.0
67.16,-77.0
67.22,-69.0
67.28,-64.0
67.35,-72.0
67.41,-81.0
67.47,-64.0
67.54,-76.0
67.6,-116.0
67.66,-87.0
67.73,-87.0
67.79,-88.0
67.85,-87.0
67.91,-81.0
67.98,-76.0
68.04,-80.0
68.1,-86.0
68.17,-84.0
68.23,-86.0
68.29,-90.0
68.36,-92.0
68.42,-84.0
68.48,-74.0
68.54,-92.0
68.61,-64.0
68.67,-80.0
68.73,-66.0
68.8,-46.0
68.86,-60.0
68.92,-71.0
68.99,-54.0
69.05,-46.0
69.11,-33.0
69.17,-56.0
69.24,-67.0
69.3,-43.0
69.36,-42.0
69.43,-47.0
69.49,-45.0
69.55,-44.0
69.62,-29.0
69.68,-39.0
69.74,-43.0
69.8,-31.0
69.87,-26.0
69.93,-35.0
69.99,-32.0
70.06,-8.0
70.12,1.0
70.18,13.0
70.25,4.0
70.31,8.0
70.37,11.0
70.43,19.0
70.5,15.0
70.56,23.0
70.62,15.0
70.69,3.0
70.75,35.0
70.81,25.0
70.88,20.0
70.94,14.0
71.0,11.0
71.06,29.0
71.13,7.0
71.19,12.0
71.25,3.0
71.32,6.0
71.38,23.0
71.44,14.0
71.51,5.0
71.57,8.0
71.63,-1.0
71.69,3.0
71.76,4.0
71.82,8.0
71.88,13.0
71.95,26.0
72.01,7.0
72.07,18.0
72.14,17.0
72.2,-6.0
72.26,10.0
72.32,-3.0
72.39,2.0
72.45,-5.0
72.51,8.0
72.58,-7.0
72.64,-14.0
72.7,-20.0
72.77,-7.0
72.83,3.0
72.89,13.0
72.95,7.0
73.02,-13.0
73.08,-9.0
73.14,4.0
73.21,-8.0
73.27,-7.0
73.33,2.0
73.4,7.0
73.46,4.0
73.52,-12.0
73.58,-6.0
73.65,-18.0
73.71,-26.0
73.77,9.0
73.84,-8.0
73.9,-16.0
73.96,-17.0
74.03,-16.0
74.09,-2.0
74.15,-27.0
74.21,-10.0
74.28,-17.0
74.34,-16.0
74.4,-9.0
74.47,-17.0
74.53,-4.0
74.59,-18.0
74.66,-4.0
74.72,2.0
74.78,-7.0
74.84,-21.0
74.91,-14.0
74.97,18.0
75.03,17.0
75.1,18.0
75.16,2.0
75.22,-11.0
75.29,-6.0
75.35,-9.0
75.41,0.0
75.47,-17.0
75.54,1.0
75.6,-2.0
75.66,-5.0
75.73,25.0
75.79,11.0
75.85,13.0
75.92,18.0
75.98,16.0
76.04,22.0
76.1,33.0
76.17,22.0
76.23,7.0
76.29,29.0
76.36,18.0
76.42,44.0
76.48,49.0
76.55,54.0
76.61,43.0
76.67,54.0
76.73,50.0
76.8,42.0
76.86,58.0
76.92,53.0
76.99,54.0
77.05,41.0
77.11,55.0
77.18,59.0
77.24,45.0
77.3,34.0
77.36,46.0
77.43,50.0
77.49,40.0
77.55,52.0
77.62,49.0
77.68,36.0
77.74,28.0
77.81,4.0
77.87,6.0
77.93,17.0
77.99,21.0
78.06,16.0
78.12,-2.0
78.18,21.0
78.25,14.0
78.31,24.0
78.37,21.0
78.44,19.0
78.5,9.0
78.56,12.0
78.62,10.0
78.69,-4.0
78.75,3.0
78.81,9.0
78.88,5.0
78.94,-2.0
79.0,16.0
79.07,13.0
79.13,10.0
79.19,16.0
79.25,13.0
79.32,-17.0
79.38,8.0
79.44,12.0
79.51,19.0
79.57,-2.0
79.63,-1.0
79.7,-17.0
79.76,-13.0
79.82,4.0
79.88,-12.0
79.95,6.0
80.01,1.0
80.07,-10.0
80.14,-4.0
80.2,-4.0
80.26,16.0
80.33,20.0
80.39,18.0
80.45,16.0
80.51,25.0
80.58,14.0
80.64,23.0
80.7,15.0
80.77,23.0
80.83,25.0
80.89,11.0
80.96,14.0
81.02,29.0
81.08,21.0
81.14,24.0
81.21,11.0
81.27,6.0
81.33,9.0
81.4,28.0
81.46,20.0
81.52,6.0
81.59,10.0
81.65,10.0
81.71,18.0
81.77,24.0
81.84,2.0
81.9,1.0
81.96,-9.0
82.03,18.0
82.09,13.0
82.15,30.0
82.22,3.0
82.28,12.0
82.34,20.0
82.4,21.0
82.47,41.0
82.53,24.0
82.59,48.0
82.66,43.0
82.72,31.0
82.78,13.0
82.85,35.0
82.91,12.0
82.97,33.0
83.03,24.0
83.1,5.0
83.16,24.0
83.22,29.0
83.29,32.0
83.35,35.0
83.41,32.0
83.48,34.0
83.54,33.0
83.6,27.0
83.66,37.0
83.73,32.0
83.79,4.0
83.85,7.0
83.92,8.0
83.98,-11.0
84.04,3.0
84.11,-15.0
84.17,-13.0
84.23,-8.0
84.29,17.0
84.36,17.0
84.42,14.0
84.48,21.0
84.55,19.0
84.61,20.0
84.67,11.0
84.74,2.0
84.8,14.0
84.86,-5.0
84.92,-16.0
84.99,-8.0
85.05,-12.0
85.11,-21.0
85.18,-3.0
85.24,-20.0
85.3,-19.0
85.37,2.0
85.43,15.0
85.49,20.0
85.55,33.0
85.62,41.0
85.68,32.0
85.74,16.0
85.81,24.0
85.87,26.0
85.93,23.0
86.0,30.0
86.06,29.0
86.12,45.0
86.18,34.0
86.25,17.0
86.31,14.0
86.37,19.0
86.44,14.0
86.5,29.0
86.56,20.0
86.63,12.0
86.69,16.0
86.75,17.0
86.81,18.0
86.88,21.0
86.94,10.0
87.0,19.0
87.07,11.0
87.13,24.0
87.19,27.0
87.26,16.0
87.32,22.0
87.38,26.0
87.44,20.0
87.51,19.0
87.57,19.0
87.63,23.0
87.7,27.0
87.76,19.0
87.82,29.0
87.89,29.0
87.95,25.0
88.01,48.0
88.07,33.0
88.14,30.0
88.2,28.0
88.26,43.0
88.33,60.0
88.39,40.0
88.45,39.0
88.52,34.0
88.58,16.0
88.64,29.0
88.7,16.0
88.77,40.0
88.83,32.0
88.89,36.0
88.96,46.0
89.02,34.0
89.08,33.0
89.15,32.0
89.21,13.0
89.27,42.0
89.33,27.0
89.4,15.0
89.46,30.0
89.52,16.0
89.59,30.0
89.65,8.0
89.71,11.0
89.78,10.0
89.84,12.0
89.9,16.0
89.96,15.0
90.03,7.0
90.09,15.0
90.15,4.0
90.22,-4.0
90.28,-13.0
90.34,-26.0
90.41,-13.0
90.47,2.0
90.53,6.0
90.59,-5.0
90.66,15.0
90.72,17.0
90.78,23.0
90.85,11.0
90.91,28.0
90.97,24.0
91.04,21.0
91.1,41.0
91.16,15.0
91.22,33.0
91.29,33.0
91.35,24.0
91.41,30.0
91.48,26.0
91.54,34.0
91.6,30.0
91.67,29.0
91.73,10.0
91.79,27.0
91.85,8.0
91.92,21.0
91.98,24.0
92.04,19.0
92.11,8.0
92.17,7.0
92.23,19.0
92.3,-1.0
92.36,-18.0
92.42,-18.0
92.48,-2.0
92.55,-11.0
92.61,-13.0
92.67,7.0
92.74,2.0
92.8,-6.0
92.86,-20.0
92.93,-20.0
92.99,-22.0
93.05,-27.0
93.11,-5.0
93.18,-16.0
93.24,1.0
93.3,-7.0
93.37,-7.0
93.43,10.0
93.49,6.0
93.56,14.0
93.62,17.0
93.68,37.0
93.74,20.0
93.81,13.0
93.87,15.0
93.93,16.0
94.0,32.0
94.06,24.0
94.12,42.0
94.19,23.0
94.25,36.0
94.31,37.0
94.37,14.0
94.44,17.0
94.5,23.0
94.56,28.0
94.63,19.0
94.69,19.0
94.75,11.0
94.82,12.0
94.88,26.0
94.94,23.0
95.0,23.0
95.07,45.0
95.13,46.0
95.19,44.0
95.26,55.0
95.32,67.0
95.38,58.0
95.45,35.0
95.51,43.0
95.57,53.0
95.63,63.0
95.7,78.0
95.76,57.0
95.82,74.0
95.89,53.0
95.95,49.0
96.01,61.0
96.08,46.0
96.14,74.0
96.2,60.0
96.26,47.0
96.33,65.0
96.39,78.0
96.45,92.0
96.52,81.0
96.58,83.0
96.64,87.0
96.71,92.0
96.77,80.0
96.83,76.0
96.89,101.0
96.96,91.0
97.02,70.0
97.08,60.0
97.15,65.0
97.21,92.0
97.27,84.0
97.34,87.0
97.4,84.0
97.46,90.0
97.52,66.0
97.59,74.0
97.65,65.0
97.71,68.0
97.78,64.0
97.84,59.0
97.9,44.0
97.97,51.0
98.03,47.0
98.09,58.0
98.15,40.0
98.22,68.0
98.28,67.0
98.34,40.0
98.41,54.0
98.47,68.0
98.53,86.0
98.6,83.0
98.66,65.0
98.72,74.0
98.78,54.0
98.85,85.0
98.91,81.0
98.97,86.0
99.04,91.0
99.1,79.0
99.16,94.0
99.23,98.0
99.29,111.0
99.35,104.0
99.41,111.0
99.48,116.0
99.54,107.0
99.6,84.0
99.67,78.0
99.73,76.0
99.79,84.0
99.86,70.0
99.92,72.0
99.98,71.0
100.04,60.0
100.11,49.0
100.17,61.0
100.23,59.0
100.3,56.0
100.36,54.0
100.42,38.0
100.49,48.0
100.55,36.0
100.61,47.0
100.67,22.0
100.74,21.0
100.8,35.0
100.86,36.0
100.93,43.0
100.99,37.0
101.05,41.0
101.12,24.0
101.18,31.0
101.24,33.0
101.3,16.0
101.37,36.0
101.43,37.0
101.49,37.0
101.56,16.0
101.62,39.0
101.68,26.0
101.75,49.0
101.81,39.0
101.87,39.0
101.93,57.0
102.0,54.0
102.06,46.0
102.12,32.0
102.19,28.0
102.25,43.0
102.31,44.0
102.38,57.0
102.44,83.0
102.5,76.0
102.56,70.0
102.63,73.0
102.69,55.0
102.75,56.0
102.82,50.0
102.88,47.0
102.94,45.0
103.01,47.0
103.07,68.0
103.13,72.0
103.19,53.0
103.26,68.0
103.32,49.0
103.38,71.0
103.45,84.0
103.51,70.0
103.57,55.0
103.64,43.0
103.7,41.0
103.76,45.0
103.82,55.0
103.89,65.0
103.95,49.0
104.01,49.0
104.08,47.0
104.14,67.0
104.2,65.0
104.27,59.0
104.33,78.0
104.39,71.0
104.45,64.0
104.52,73.0
104.58,65.0
104.64,55.0
104.71,44.0
104.77,56.0
104.83,43.0
104.9,54.0
104.96,63.0
105.02,43.0
105.08,50.0
105.15,56.0
105.21,67.0
105.27,72.0
105.34,51.0
105.4,46.0
105.46,66.0
105.53,40.0
105.59,43.0
105.65,51.0
105.71,57.0
105.78,72.0
105.84,84.0
105.9,80.0
105.97,76.0
106.03,79.0
106.09,80.0
106.16,101.0
106.22,76.0
106.28,78.0
106.34,70.0
106.41,101.0
106.47,96.0
106.53,102.0
106.6,95.0
106.66,87.0
106.72,64.0
106.79,77.0
106.85,79.0
106.91,74.0
106.97,72.0
107.04,72.0
107.1,77.0
107.16,96.0
107.23,115.0
107.29,98.0
107.35,93.0
107.42,95.0
107.48,84.0
107.54,96.0
107.6,100.0
107.67,91.0
107.73,95.0
107.79,92.0
107.86,102.0
107.92,104.0
107.98,94.0
108.05,102.0
108.11,85.0
108.17,89.0
108.23,91.0
108.3,73.0
108.36,81.0
108.42,71.0
108.49,75.0
108.55,71.0
108.61,49.0
108.68,53.0
108.74,68.0
108.8,69.0
108.86,48.0
108.93,65.0
108.99,39.0
109.05,46.0
109.12,46.0
109.18,33.0
109.24,30.0
109.31,32.0
109.37,34.0
109.43,33.0
109.49,32.0
109.56,43.0
109.62,46.0
109.68,41.0
109.75,45.0
109.81,50.0
109.87,38.0
109.94,30.0
110.0,32.0
110.06,43.0
110.12,53.0
110.19,50.0
110.25,40.0
110.31,61.0
110.38,54.0
110.44,64.0
110.5,46.0
110.57,59.0
110.63,58.0
110.69,63.0
110.75,64.0
110.82,51.0
110.88,65.0
110.94,51.0
111.01,49.0
111.07,47.0
111.13,42.0
111.2,27.0
111.26,53.0
111.32,55.0
111.38,37.0
111.45,34.0
111.51,39.0
111.57,32.0
111.64,42.0
111.7,42.0
111.76,37.0
111.83,28.0
111.89,32.0
111.95,54.0
112.01,57.0
112.08,40.0
112.14,43.0
112.2,62.0
112.27,42.0
112.33,64.0
112.39,67.0
112.46,66.0
112.52,64.0
112.58,66.0
112.64,83.0
112.71,64.0
112.77,73.0
112.83,68.0
112.9,49.0
112.96,64.0
113.02,78.0
113.09,81.0
113.15,67.0
113.21,54.0
113.27,43.0
113.34,47.0
113.4,46.0
113.46,47.0
113.53,31.0
113.59,39.0
113.65,26.0
113.72,25.0
113.78,19.0
113.84,20.0
113.9,16.0
113.97,28.0
114.03,10.0
114.09,21.0
114.16,24.0
114.22,18.0
114.28,25.0
114.35,11.0
114.41,18.0
114.47,-6.0
114.53,11.0
114.6,-4.0
114.66,-6.0
114.72,-10.0
114.79,-7.0
114.85,-8.0
114.91,-6.0
114.98,6.0
115.04,4.0
115.1,1.0
115.16,-18.0
115.23,-7.0
115.29,4.0
115.35,13.0
115.42,12.0
115.48,14.0
115.54,2.0
115.61,15.0
115.67,7.0
115.73,7.0
115.79,-2.0
115.86,-15.0
115.92,-27.0
115.98,-30.0
116.05,-12.0
116.11,-14.0
116.17,-23.0
116.24,-16.0
116.3,-24.0
116.36,-3.0
116.42,-1.0
116.49,-25.0
116.55,-21.0
116.61,-21.0
116.68,-44.0
116.74,-44.0
116.8,-18.0
116.87,-35.0
116.93,-26.0
116.99,-44.0
117.05,-40.0
117.12,-8.0
117.18,-21.0
117.24,-38.0
117.31,-34.0
117.37,-34.0
117.43,-51.0
117.5,-49.0
117.56,-49.0
117.62,-66.0
117.68,-53.0
117.75,-51.0
117.81,-30.0
117.87,-21.0
117.94,-30.0
118.0,-34.0
118.06,-30.0
118.13,-23.0
118.19,-18.0
118.25,-9.0
118.31,-12.0
118.38,-11.0
118.44,5.0
118.5,6.0
118.57,1.0
118.63,2.0
118.69,-14.0
118.76,-16.0
118.82,-18.0
118.88,-19.0
118.94,-34.0
119.01,-14.0
119.07,-32.0
119.13,-43.0
119.2,-40.0
119.26,-11.0
119.32,-23.0
119.39,-31.0
119.45,-7.0
119.51,13.0
119.57,-8.0
119.64,2.0
119.7,-13.0
119.76,-11.0
119.83,1.0
119.89,13.0
119.95,5.0
120.02,24.0
120.08,32.0
120.14,18.0
120.2,0.0
120.27,8.0
120.33,23.0
120.39,31.0
120.46,46.0
120.52,51.0
120.58,48.0
120.65,33.0
120.71,42.0
120.77,53.0
120.83,53.0
120.9,51.0
120.96,32.0
121.02,34.0
121.09,23.0
121.15,28.0
121.21,35.0
121.28,19.0
121.34,32.0
121.4,42.0
121.46,16.0
121.53,14.0
121.59,16.0
121.65,27.0
121.72,31.0
121.78,29.0
121.84,54.0
121.91,39.0
121.97,45.0
122.03,31.0
122.09,25.0
122.16,57.0
122.22,14.0
122.28,2.0
122.35,5.0
122.41,25.0
122.47,33.0
122.54,42.0
122.6,49.0
122.66,27.0
122.72,23.0
122.79,31.0
122.85,18.0
122.91,24.0
122.98,32.0
123.04,15.0
123.1,20.0
123.17,-9.0
123.23,8.0
123.29,21.0
123.35,21.0
123.42,15.0
123.48,20.0
123.54,11.0
123.61,13.0
123.67,16.0
123.73,20.0
123.8,20.0
123.86,2.0
123.92,18.0
123.98,29.0
124.05,14.0
124.11,23.0
124.17,23.0
124.24,10.0
124.3,18.0
124.36,24.0
124.43,13.0
124.49,26.0
124.55,3.0
124.61,-1.0
124.68,-5.0
124.74,12.0
124.8,3.0
124.87,-3.0
124.93,-4.0
124.99,-7.0
125.06,3.0
125.12,16.0
125.18,12.0
125.24,-5.0
125.31,-3.0
125.37,12.0
125.43,-2.0
125.5,-12.0
125.56,-5.0
125.62,-2.0
125.69,16.0
125.75,2.0
125.81,-10.0
125.87,4.0
125.94,2.0
126.0,2.0
126.06,-3.0
126.13,9.0
126.19,19.0
126.25,21.0
126.32,20.0
126.38,13.0
126.44,26.0
126.5,31.0
126.57,52.0
126.63,50.0
126.69,54.0
126.76,33.0
126.82,37.0
126.88,42.0
126.95,24.0
127.01,32.0
127.07,58.0
127.13,33.0
127.2,50.0
127.26,61.0
127.32,53.0
127.39,65.0
127.45,78.0
127.51,68.0
127.58,60.0
127.64,63.0
127.7,51.0
127.76,63.0
127.83,55.0
127.89,62.0
127.95,70.0
128.02,56.0
128.08,74.0
128.14,69.0
128.21,84.0
128.27,66.0
128.33,57.0
128.39,64.0
128.46,70.0
128.52,76.0
128.58,77.0
128.65,75.0
128.71,72.0
128.77,64.0
128.84,57.0
128.9,68.0
128.96,51.0
129.02,44.0
129.09,57.0
129.15,56.0
129.21,73.0
129.28,88.0
129.34,91.0
129.4,87.0
129.47,84.0
129.53,73.0
129.59,73.0
129.65,80.0
129.72,85.0
129.78,80.0
129.84,88.0
129.91,95.0
129.97,91.0
130.03,63.0
130.1,68.0
130.16,87.0
130.22,71.0
130.28,73.0
130.35,68.0
130.41,69.0
130.47,70.0
130.54,75.0
130.6,65.0
130.66,55.0
130.73,49.0
130.79,59.0
130.85,64.0
130.91,64.0
130.98,69.0
131.04,67.0
131.1,58.0
131.17,63.0
131.23,53.0
131.29,55.0
131.36,51.0
131.42,48.0
131.48,60.0
131.54,73.0
131.61,79.0
131.67,68.0
131.73,72.0
131.8,88.0
131.86,94.0
131.92,83.0
131.99,77.0
132.05,68.0
132.11,83.0
132.17,71.0
132.24,46.0
132.3,69.0
132.36,62.0
132.43,66.0
132.49,62.0
132.55,76.0
132.62,77.0
132.68,86.0
132.74,73.0
132.8,74.0
132.87,77.0
132.93,67.0
132.99,92.0
133.06,87.0
133.12,83.0
133.18,80.0
133.25,62.0
133.31,66.0
133.37,44.0
133.43,57.0
133.5,87.0
133.56,73.0
133.62,58.0
133.69,55.0
133.75,39.0
133.81,66.0
133.88,42.0
133.94,39.0
134.0,35.0
134.06,46.0
134.13,58.0
134.19,55.0
134.25,46.0
134.32,22.0
134.38,22.0
134.44,44.0
134.51,36.0
134.57,27.0
134.63,35.0
134.69,30.0
134.76,36.0
134.82,26.0
134.88,40.0
134.95,48.0
135.01,45.0
135.07,46.0
135.14,30.0
135.2,16.0
135.26,20.0
135.32,9.0
135.39,19.0
135.45,8.0
135.51,7.0
135.58,5.0
135.64,-4.0
135.7,-12.0
135.77,16.0
135.83,12.0
135.89,1.0
135.95,24.0
136.02,26.0
136.08,15.0
136.14,25.0
136.21,24.0
136.27,24.0
136.33,19.0
136.4,18.0
136.46,22.0
136.52,16.0
136.58,44.0
136.65,54.0
136.71,49.0
136.77,57.0
136.84,43.0
136.9,51.0
136.96,64.0
137.03,58.0
137.09,62.0
137.15,59.0
137.21,59.0
137.28,62.0
137.34,61.0
137.4,87.0
137.47,87.0
137.53,73.0
137.59,64.0
137.66,52.0
137.72,69.0
137.78,72.0
137.84,75.0
137.91,80.0
137.97,61.0
138.03,59.0
138.1,57.0
138.16,69.0
138.22,79.0
138.29,95.0
138.35,77.0
138.41,46.0
138.47,78.0
138.54,66.0
138.6,65.0
138.66,67.0
138.73,69.0
138.79,96.0
138.85,101.0
138.92,96.0
138.98,96.0
139.04,88.0
139.1,65.0
139.17,73.0
139.23,80.0
139.29,66.0
139.36,64.0
139.42,64.0
139.48,79.0
139.55,93.0
139.61,76.0
139.67,65.0
139.73,65.0
139.8,41.0
139.86,71.0
139.92,52.0
139.99,48.0
140.05,70.0
140.11,61.0
140.18,38.0
140.24,30.0
140.3,44.0
140.36,56.0
140.43,58.0
140.49,46.0
140.55,24.0
140.62,14.0
140.68,17.0
140.74,20.0
140.81,20.0
140.87,13.0
140.93,10.0
140.99,13.0
141.06,12.0
141.12,-3.0
141.18,-6.0
141.25,-7.0
141.31,4.0
141.37,-3.0
141.44,-8.0
141.5,-15.0
141.56,-25.0
141.62,-11.0
141.69,-20.0
141.75,-23.0
141.81,10.0
141.88,-12.0
141.94,-13.0
142.0,-20.0
142.07,-6.0
142.13,-9.0
142.19,6.0
142.25,-5.0
142.32,-13.0
142.38,-6.0
142.44,-18.0
142.51,-30.0
142.57,-16.0
142.63,-18.0
142.7,-19.0
142.76,-9.0
142.82,-17.0
142.88,-19.0
142.95,-7.0
143.01,-1.0
143.07,-2.0
143.14,13.0
143.2,23.0
143.26,-4.0
143.33,-4.0
143.39,7.0
143.45,5.0
143.51,8.0
143.58,-2.0
143.64,13.0
143.7,28.0
143.77,17.0
143.83,16.0
143.89,32.0
143.96,14.0
144.02,21.0
144.08,11.0
144.14,10.0
144.21,16.0
144.27,11.0
144.33,1.0
144.4,-3.0
144.46,-3.0
144.52,4.0
144.59,16.0
144.65,8.0
144.71,8.0
144.77,17.0
144.84,8.0
144.9,4.0
144.96,27.0
145.03,26.0
145.09,16.0
145.15,27.0
145.22,35.0
145.28,24.0
145.34,13.0
145.4,-6.0
145.47,1.0
145.53,31.0
145.59,20.0
145.66,13.0
145.72,29.0
145.78,14.0
145.85,-3.0
145.91,16.0
145.97,12.0
146.03,10.0
146.1,15.0
146.16,23.0
146.22,14.0
146.29,4.0
146.35,11.0
146.41,3.0
146.47,15.0
146.54,17.0
146.6,10.0
146.66,22.0
146.73,33.0
146.79,22.0
146.85,32.0
146.92,8.0
146.98,18.0
147.04,45.0
147.1,61.0
147.17,30.0
147.23,25.0
147.29,46.0
147.36,37.0
147.42,58.0
147.48,26.0
147.55,30.0
147.61,30.0
147.67,22.0
147.73,24.0
147.8,35.0
147.86,14.0
147.92,22.0
147.99,25.0
148.05,33.0
148.11,16.0
148.18,37.0
148.24,32.0
148.3,30.0
148.36,35.0
148.43,20.0
148.49,42.0
148.55,31.0
148.62,5.0
148.68,40.0
148.74,28.0
148.81,21.0
148.87,8.0
148.93,0.0
148.99,11.0
149.06,33.0
149.12,15.0
149.18,20.0
149.25,29.0
149.31,33.0
149.37,18.0
149.44,25.0
149.5,26.0
149.56,32.0
149.62,30.0
149.69,25.0
149.75,40.0
149.81,47.0
149.88,51.0
149.94,41.0
150.0,23.0
150.07,22.0
150.13,17.0
150.19,-2.0
150.25,13.0
150.32,46.0
150.38,7.0
150.44,2.0
150.51,1.0
150.57,10.0
150.63,21.0
150.7,3.0
150.76,-14.0
150.82,7.0
150.88,3.0
150.95,-1.0
151.01,-17.0
151.07,-17.0
151.14,0.0
151.2,-3.0
151.26,-15.0
151.33,-9.0
151.39,17.0
151.45,-10.0
151.51,-23.0
151.58,0.0
151.64,2.0
151.7,-18.0
151.77,-5.0
151.83,-16.0
151.89,2.0
151.96,6.0
152.02,9.0
152.08,22.0
152.14,-2.0
152.21,7.0
152.27,13.0
152.33,10.0
152.4,20.0
152.46,13.0
152.52,9.0
152.59,28.0
152.65,46.0
152.71,35.0
152.77,33.0
152.84,24.0
152.9,43.0
152.96,51.0
153.03,53.0
153.09,65.0
153.15,58.0
153.22,55.0
153.28,70.0
153.34,74.0
153.4,70.0
153.47,76.0
153.53,81.0
153.59,71.0
153.66,75.0
153.72,72.0
153.78,81.0
153.85,90.0
153.91,94.0
153.97,93.0
154.03,97.0
154.1,105.0
154.16,112.0
154.22,112.0
154.29,117.0
154.35,108.0
154.41,112.0
154.48,125.0
154.54,128.0
154.6,138.0
154.66,137.0
154.73,119.0
154.79,123.0
154.85,126.0
154.92,138.0
154.98,133.0
155.04,120.0
155.11,135.0
155.17,149.0
155.23,119.0
155.29,117.0
155.36,138.0
155.42,149.0
155.48,104.0
155.55,106.0
155.61,94.0
155.67,100.0
155.74,112.0
155.8,106.0
155.86,125.0
155.92,120.0
155.99,110.0
156.05,104.0
156.11,115.0
156.18,97.0
156.24,104.0
156.3,104.0
156.37,96.0
156.43,104.0
156.49,87.0
156.55,106.0
156.62,104.0
156.68,93.0
156.74,90.0
156.81,90.0
156.87,86.0
156.93,89.0
157.0,89.0
157.06,111.0
157.12,96.0
157.18,101.0
157.25,88.0
157.31,81.0
157.37,90.0
157.44,95.0
157.5,109.0
157.56,88.0
157.63,120.0
157.69,96.0
157.75,81.0
157.81,77.0
157.88,86.0
157.94,86.0
158.0,76.0
158.07,73.0
158.13,83.0
158.19,80.0
158.26,66.0
158.32,72.0
158.38,92.0
158.44,94.0
158.51,76.0
158.57,83.0
158.63,90.0
158.7,86.0
158.76,86.0
158.82,62.0
158.89,71.0
158.95,76.0
159.01,53.0
159.07,53.0
159.14,59.0
159.2,29.0
159.26,48.0
159.33,54.0
159.39,67.0
159.45,58.0
159.52,33.0
159.58,42.0
159.64,53.0
159.7,59.0
159.77,57.0
159.83,79.0
159.89,81.0
159.96,74.0
160.02,78.0
160.08,79.0
160.15,71.0
160.21,77.0
160.27,72.0
160.33,66.0
160.4,55.0
160.46,67.0
160.52,49.0
160.59,46.0
160.65,51.0
160.71,32.0
160.78,35.0
160.84,48.0
160.9,42.0
160.96,50.0
161.03,50.0
161.09,41.0
161.15,49.0
161.22,42.0
161.28,31.0
161.34,27.0
161.41,15.0
161.47,35.0
161.53,44.0
161.59,32.0
161.66,53.0
161.72,69.0
161.78,73.0
161.85,56.0
161.91,65.0
161.97,100.0
162.04,98.0
162.1,82.0
162.16,58.0
162.22,75.0
162.29,97.0
162.35,97.0
162.41,95.0
162.48,104.0
162.54,105.0
162.6,99.0
162.67,103.0
162.73,88.0
162.79,102.0
162.85,103.0
162.92,80.0
162.98,98.0
163.04,104.0
163.11,81.0
163.17,86.0
163.23,77.0
163.3,82.0
163.36,91.0
163.42,86.0
163.48,100.0
163.55,108.0
163.61,101.0
163.67,87.0
163.74,91.0
163.8,103.0
163.86,92.0
163.93,95.0
163.99,118.0
164.05,97.0
164.11,84.0
164.18,93.0
164.24,72.0
164.3,83.0
164.37,90.0
164.43,80.0
164.49,78.0
164.56,81.0
164.62,96.0
164.68,78.0
164.74,83.0
164.81,89.0
164.87,68.0
164.93,62.0
165.0,58.0
165.06,66.0
165.12,75.0
165.19,65.0
165.25,57.0
165.31,71.0
165.37,58.0
165.44,75.0
165.5,56.0
165.56,73.0
165.63,72.0
165.69,61.0
165.75,75.0
165.82,84.0
165.88,78.0
165.94,79.0
166.0,73.0
166.07,68.0
166.13,64.0
166.19,51.0
166.26,66.0
166.32,49.0
166.38,56.0
166.45,57.0
166.51,38.0
166.57,24.0
166.63,21.0
166.7,32.0
166.76,24.0
166.82,20.0
166.89,4.0
166.95,0.0
167.01,27.0
167.08,33.0
167.14,18.0
167.2,17.0
167.26,10.0
167.33,24.0
167.39,30.0
167.45,31.0
167.52,40.0
167.58,61.0
167.64,47.0
167.71,31.0
167.77,15.0
167.83,-2.0
167.89,12.0
167.96,-1.0
168.02,15.0
168.08,19.0
168.15,25.0
168.21,0.0
168.27,10.0
168.34,-5.0
168.4,4.0
168.46,7.0
168.52,-1.0
168.59,2.0
168.65,-14.0
168.71,-11.0
168.78,-15.0
168.84,-7.0
168.9,-2.0
168.97,-1.0
169.03,20.0
169.09,7.0
169.15,14.0
169.22,-2.0
169.28,-11.0
169.34,-10.0
169.41,-10.0
169.47,-25.0
169.53,0.0
169.6,14.0
169.66,10.0
169.72,17.0
169.78,25.0
169.85,32.0
169.91,25.0
169.97,21.0
170.04,30.0
170.1,34.0
170.16,49.0
170.23,23.0
170.29,34.0
170.35,30.0
170.41,54.0
170.48,52.0
170.54,34.0
170.6,47.0
170.67,50.0
170.73,44.0
170.79,54.0
170.86,77.0
170.92,66.0
170.98,61.0
171.04,70.0
171.11,61.0
171.17,71.0
171.23,50.0
171.3,57.0
171.36,63.0
171.42,51.0
171.49,56.0
171.55,57.0
171.61,52.0
171.67,55.0
171.74,58.0
171.8,52.0
171.86,60.0
171.93,75.0
171.99,52.0
172.05,61.0
172.12,55.0
172.18,52.0
172.24,54.0
172.3,50.0
172.37,61.0
172.43,52.0
172.49,57.0
172.56,52.0
172.62,49.0
172.68,64.0
172.75,76.0
172.81,76.0
172.87,58.0
172.93,72.0
173.0,82.0
173.06,72.0
173.12,67.0
173.19,64.0
173.25,52.0
173.31,54.0
173.38,49.0
173.44,55.0
173.5,69.0
173.56,47.0
173.63,54.0
173.69,51.0
173.75,51.0
173.82,74.0
173.88,58.0
173.94,67.0
174.01,60.0
174.07,54.0
174.13,51.0
174.19,59.0
174.26,70.0
174.32,49.0
174.38,74.0
174.45,74.0
174.51,62.0
174.57,78.0
174.64,82.0
174.7,77.0
174.76,82.0
174.82,87.0
174.89,85.0
174.95,68.0
175.01,71.0
175.08,64.0
175.14,72.0
175.2,63.0
175.27,53.0
175.33,57.0
175.39,74.0
175.45,61.0
175.52,43.0
175.58,60.0
175.64,64.0
175.71,61.0
175.77,61.0
175.83,52.0
175.9,54.0
175.96,54.0
176.02,37.0
176.08,42.0
176.15,43.0
176.21,55.0
176.27,41.0
176.34,22.0
176.4,24.0
176.46,19.0
176.53,24.0
176.59,27.0
176.65,28.0
176.71,39.0
176.78,41.0
176.84,55.0
176.9,41.0
176.97,55.0
177.03,60.0
177.09,61.0
177.16,53.0
177.22,61.0
177.28,60.0
177.34,49.0
177.41,47.0
177.47,41.0
177.53,38.0
177.6,26.0
177.66,19.0
177.72,18.0
177.79,31.0
177.85,26.0
177.91,44.0
177.97,36.0
178.04,39.0
178.1,28.0
178.16,35.0
178.23,29.0
178.29,19.0
178.35,32.0
178.42,43.0
178.48,46.0
178.54,45.0
178.6,46.0
178.67,60.0
178.73,77.0
178.79,54.0
178.86,57.0
178.92,55.0
178.98,61.0
179.05,69.0
179.11,61.0
179.17,60.0
179.23,67.0
179.3,76.0
179.36,63.0
179.42,84.0
179.49,82.0
179.55,91.0
179.61,77.0
179.68,79.0
179.74,96.0
179.8,95.0
179.86,102.0
179.93,90.0
179.99,85.0
180.05,93.0
180.12,88.0
180.18,88.0
180.24,82.0
180.31,74.0
180.37,73.0
180.43,76.0
180.49,73.0
180.56,74.0
180.62,87.0
180.68,71.0
180.75,82.0
180.81,80.0
180.87,72.0
180.94,95.0
181.0,90.0
181.06,79.0
181.12,81.0
181.19,85.0
181.25,98.0
181.31,87.0
181.38,74.0
181.44,65.0
181.5,65.0
181.57,100.0
181.63,90.0
181.69,69.0
181.75,63.0
181.82,59.0
181.88,45.0
181.94,58.0
182.01,55.0
182.07,55.0
182.13,62.0
182.2,46.0
182.26,60.0
182.32,39.0
182.38,41.0
182.45,85.0
182.51,75.0
182.57,84.0
182.64,88.0
182.7,73.0
182.76,70.0
182.83,65.0
182.89,65.0
182.95,55.0
183.01,84.0
183.08,76.0
183.14,67.0
183.2,71.0
183.27,64.0
183.33,34.0
183.39,54.0
183.46,67.0
183.52,61.0
183.58,59.0
183.64,46.0
183.71,55.0
183.77,54.0
183.83,23.0
183.9,34.0
183.96,23.0
184.02,27.0
184.09,32.0
184.15,48.0
184.21,43.0
184.27,36.0
184.34,19.0
184.4,25.0
184.46,36.0
184.53,45.0
184.59,36.0
184.65,26.0
184.72,26.0
184.78,21.0
184.84,34.0
184.9,30.0
184.97,31.0
185.03,28.0
185.09,19.0
185.16,36.0
185.22,26.0
185.28,48.0
185.35,39.0
185.41,40.0
185.47,46.0
185.53,43.0
185.6,53.0
185.66,43.0
185.72,27.0
185.79,22.0
185.85,41.0
185.91,41.0
185.98,35.0
186.04,39.0
186.1,34.0
186.16,42.0
186.23,37.0
186.29,34.0
186.35,43.0
186.42,25.0
186.48,18.0
186.54,12.0
186.61,22.0
186.67,34.0
186.73,28.0
186.79,44.0
186.86,32.0
186.92,41.0
186.98,49.0
187.05,44.0
187.11,78.0
187.17,73.0
187.24,65.0
187.3,62.0
187.36,83.0
187.42,79.0
187.49,86.0
187.55,95.0
187.61,87.0
187.68,62.0
187.74,71.0
187.8,83.0
187.87,80.0
187.93,83.0
187.99,82.0
188.05,90.0
188.12,84.0
188.18,95.0
188.24,128.0
188.31,119.0
188.37,125.0
188.43,107.0
188.5,117.0
188.56,126.0
188.62,108.0
188.68,86.0
188.75,87.0
188.81,100.0
188.87,108.0
188.94,113.0
189.0,133.0
189.06,120.0
189.13,131.0
189.19,121.0
189.25,99.0
189.31,111.0
189.38,126.0
189.44,120.0
189.5,121.0
189.57,109.0
189.63,103.0
189.69,94.0
189.76,88.0
189.82,89.0
189.88,119.0
189.94,126.0
190.01,94.0
190.07,79.0
190.13,87.0
190.2,65.0
190.26,63.0
190.32,63.0
190.39,86.0
190.45,73.0
190.51,72.0
190.57,76.0
190.64,54.0
190.7,83.0
190.76,76.0
190.83,44.0
190.89,72.0
190.95,43.0
191.02,33.0
191.08,52.0
191.14,45.0
191.2,52.0
191.27,49.0
191.33,52.0
191.39,61.0
191.46,51.0
191.52,54.0
191.58,55.0
191.65,48.0
191.71,50.0
191.77,43.0
191.83,31.0
191.9,55.0
191.96,48.0
192.02,44.0
192.09,33.0
192.15,19.0
192.21,22.0
192.28,23.0
192.34,12.0
192.4,29.0
192.46,22.0
192.53,27.0
192.59,46.0
192.65,30.0
192.72,32.0
192.78,34.0
192.84,38.0
192.91,19.0
192.97,-14.0
193.03,-11.0
193.09,7.0
193.16,6.0
193.22,24.0
193.28,16.0
193.35,9.0
193.41,7.0
193.47,16.0
193.54,-3.0
193.6,0.0
193.66,-2.0
193.72,-5.0
193.79,-9.0
193.85,-12.0
193.91,12.0
193.98,8.0
194.04,35.0
194.1,50.0
194.17,35.0
194.23,31.0
194.29,20.0
194.35,37.0
194.42,21.0
194.48,5.0
194.54,24.0
194.61,27.0
194.67,37.0
194.73,31.0
194.8,6.0
194.86,14.0
194.92,16.0
194.98,20.0
195.05,41.0
195.11,46.0
195.17,15.0
195.24,18.0
195.3,11.0
195.36,15.0
195.43,28.0
195.49,27.0
195.55,27.0
195.61,29.0
195.68,27.0
195.74,34.0
195.8,21.0
195.87,16.0
195.93,19.0
195.99,23.0
196.06,29.0
196.12,45.0
196.18,42.0
196.24,26.0
196.31,32.0
196.37,26.0
196.43,36.0
196.5,41.0
196.56,37.0
196.62,49.0
196.69,38.0
196.75,54.0
196.81,49.0
196.87,37.0
196.94,66.0
197.0,34.0
197.06,42.0
197.13,55.0
197.19,50.0
197.25,64.0
197.32,61.0
197.38,59.0
197.44,72.0
197.5,70.0
197.57,68.0
197.63,57.0
197.69,49.0
197.76,74.0
197.82,89.0
197.88,81.0
197.95,79.0
198.01,58.0
198.07,59.0
198.13,70.0
198.2,83.0
198.26,45.0
198.32,59.0
198.39,67.0
198.45,72.0
198.51,64.0
198.58,50.0
198.64,53.0
198.7,60.0
198.76,75.0
198.83,57.0
198.89,51.0
198.95,36.0
199.02,55.0
199.08,69.0
199.14,56.0
199.21,60.0
199.27,65.0
199.33,66.0
199.39,87.0
199.46,84.0
199.52,95.0
199.58,85.0
199.65,94.0
199.71,101.0
199.77,99.0
199.84,88.0
199.9,98.0
199.96,81.0
200.02,77.0
200.09,81.0
200.15,86.0
200.21,87.0
200.28,97.0
200.34,84.0
200.4,70.0
200.47,65.0
200.53,60.0
200.59,53.0
200.65,59.0
200.72,56.0
200.78,67.0
200.84,48.0
200.91,42.0
200.97,59.0
201.03,51.0
201.1,44.0
201.16,37.0
201.22,49.0
201.28,52.0
201.35,31.0
201.41,26.0
201.47,35.0
201.54,35.0
201.6,45.0
201.66,12.0
201.73,13.0
201.79,19.0
201.85,29.0
201.91,36.0
201.98,41.0
202.04,35.0
202.1,39.0
202.17,60.0
202.23,61.0
202.29,60.0
202.36,50.0
202.42,39.0
202.48,32.0
202.54,43.0
202.61,65.0
202.67,48.0
202.73,49.0
202.8,71.0
202.86,53.0
202.92,34.0
202.99,27.0
203.05,27.0
203.11,25.0
203.17,31.0
203.24,43.0
203.3,54.0
203.36,62.0
203.43,76.0
203.49,70.0
203.55,73.0
203.62,77.0
203.68,67.0
203.74,64.0
203.8,101.0
203.87,89.0
203.93,60.0
203.99,82.0
204.06,95.0
204.12,98.0
204.18,114.0
204.25,121.0
204.31,111.0
204.37,112.0
204.43,97.0
204.5,101.0
204.56,90.0
204.62,96.0
204.69,103.0
204.75,98.0
204.81,100.0
204.88,97.0
204.94,94.0
205.0,106.0
205.06,116.0
205.13,108.0
205.19,101.0
205.25,107.0
205.32,113.0
205.38,109.0
205.44,115.0
205.51,100.0
205.57,83.0
205.63,88.0
205.69,78.0
205.76,81.0
205.82,71.0
205.88,77.0
205.95,64.0
206.01,58.0
206.07,60.0
206.14,61.0
206.2,80.0
206.26,83.0
206.32,86.0
206.39,76.0
206.45,82.0
206.51,75.0
206.58,86.0
206.64,84.0
206.7,80.0
206.77,105.0
206.83,107.0
206.89,81.0
206.95,82.0
207.02,80.0
207.08,74.0
207.14,75.0
207.21,71.0
207.27,83.0
207.33,77.0
207.4,46.0
207.46,63.0
207.52,61.0
207.58,42.0
207.65,46.0
207.71,63.0
207.77,46.0
207.84,32.0
207.9,54.0
207.96,41.0
208.03,50.0
208.09,57.0
208.15,60.0
208.21,68.0
208.28,57.0
208.34,46.0
208.4,34.0
208.47,25.0
208.53,30.0
208.59,25.0
208.66,32.0
208.72,32.0
208.78,13.0
208.84,10.0
208.91,22.0
208.97,25.0
209.03,35.0
209.1,33.0
209.16,27.0
209.22,40.0
209.29,18.0
209.35,8.0
209.41,15.0
209.47,31.0
209.54,50.0
209.6,44.0
209.66,59.0
209.73,49.0
209.79,67.0
209.85,57.0
209.92,55.0
209.98,61.0
210.04,43.0
210.1,34.0
210.17,28.0
210.23,26.0
210.29,30.0
210.36,55.0
210.42,31.0
210.48,28.0
210.55,46.0
210.61,38.0
210.67,23.0
210.73,27.0
210.8,24.0
210.86,38.0
210.92,41.0
210.99,56.0
211.05,54.0
211.11,47.0
211.18,45.0
211.24,18.0
211.3,33.0
211.36,27.0
211.43,50.0
211.49,31.0
211.55,32.0
211.62,43.0
211.68,58.0
211.74,53.0
211.81,42.0
211.87,38.0
211.93,42.0
211.99,30.0
212.06,46.0
212.12,47.0
212.18,53.0
212.25,65.0
212.31,57.0
212.37,78.0
212.44,51.0
212.5,31.0
212.56,32.0
212.62,32.0
212.69,40.0
212.75,38.0
212.81,42.0
212.88,23.0
212.94,39.0
213.0,54.0
213.07,25.0
213.13,44.0
213.19,25.0
213.25,50.0
213.32,41.0
213.38,44.0
213.44,50.0
213.51,45.0
213.57,39.0
213.63,31.0
213.7,38.0
213.76,43.0
213.82,48.0
213.88,77.0
213.95,77.0
214.01,90.0
214.07,77.0
214.14,83.0
214.2,57.0
214.26,87.0
214.33,107.0
214.39,89.0
214.45,90.0
214.51,86.0
214.58,92.0
214.64,79.0
214.7,100.0
214.77,86.0
214.83,71.0
214.89,95.0
214.96,93.0
215.02,94.0
215.08,95.0
215.14,91.0
215.21,95.0
215.27,81.0
215.33,95.0
215.4,71.0
215.46,72.0
215.52,108.0
215.59,86.0
215.65,101.0
215.71,101.0
215.77,88.0
215.84,97.0
215.9,73.0
215.96,72.0
216.03,76.0
216.09,75.0
216.15,82.0
216.22,66.0
216.28,46.0
216.34,58.0
216.4,62.0
216.47,67.0
216.53,84.0
216.59,71.0
216.66,58.0
216.72,45.0
216.78,56.0
216.85,40.0
216.91,34.0
216.97,26.0
217.03,16.0
217.1,20.0
217.16,16.0
217.22,16.0
217.29,0.0
217.35,3.0
217.41,-8.0
217.48,-7.0
217.54,-12.0
217.6,-18.0
217.66,-5.0
217.73,9.0
217.79,17.0
217.85,11.0
217.92,-13.0
217.98,-16.0
218.04,-21.0
218.11,-25.0
218.17,-21.0
218.23,2.0
218.29,-2.0
218.36,-20.0
218.42,-7.0
218.48,4.0
218.55,-5.0
218.61,-7.0
218.67,-13.0
218.74,-7.0
218.8,-24.0
218.86,-18.0
218.92,-7.0
218.99,0.0
219.05,-26.0
219.11,-14.0
219.18,-11.0
219.24,-21.0
219.3,-3.0
219.37,-10.0
219.43,0.0
219.49,-23.0
219.55,-13.0
219.62,-11.0
219.68,-9.0
219.74,-3.0
219.81,-16.0
219.87,-7.0
219.93,15.0
220.0,1.0
220.06,6.0
220.12,20.0
220.18,6.0
220.25,1.0
220.31,-3.0
220.37,10.0
220.44,13.0
220.5,7.0
220.56,12.0
220.63,12.0
220.69,9.0
220.75,14.0
220.81,-6.0
220.88,-2.0
220.94,0.0
221.0,16.0
221.07,26.0
221.13,21.0
221.19,22.0
221.26,11.0
221.32,18.0
221.38,16.0
221.44,29.0
221.51,18.0
221.57,29.0
221.63,30.0
221.7,25.0
221.76,27.0
221.82,26.0
221.89,26.0
221.95,22.0
222.01,22.0
222.07,32.0
222.14,31.0
222.2,29.0
222.26,33.0
222.33,32.0
222.39,33.0
222.45,28.0
222.52,33.0
222.58,55.0
222.64,55.0
222.7,45.0
222.77,43.0
222.83,51.0
222.89,39.0
222.96,45.0
223.02,47.0
223.08,41.0
223.15,45.0
223.21,39.0
223.27,51.0
223.33,27.0
223.4,29.0
223.46,40.0
223.52,38.0
223.59,44.0
223.65,46.0
223.71,34.0
223.78,14.0
223.84,18.0
223.9,28.0
223.96,31.0
224.03,36.0
224.09,28.0
224.15,33.0
224.22,36.0
224.28,23.0
224.34,36.0
224.41,34.0
224.47,50.0
224.53,54.0
224.59,55.0
224.66,51.0
224.72,41.0
224.78,47.0
224.85,47.0
224.91,51.0
224.97,52.0
225.04,48.0
225.1,40.0
225.16,41.0
225.22,33.0
225.29,18.0
225.35,36.0
225.41,26.0
225.48,36.0
225.54,53.0
225.6,42.0
225.67,60.0
225.73,46.0
225.79,29.0
225.85,40.0
225.92,33.0
225.98,19.0
226.04,18.0
226.11,37.0
226.17,37.0
226.23,19.0
226.3,39.0
226.36,33.0
226.42,19.0
226.48,9.0
226.55,9.0
226.61,18.0
226.67,26.0
226.74,28.0
226.8,17.0
226.86,25.0
226.93,32.0
226.99,33.0
227.05,38.0
227.11,22.0
227.18,25.0
227.24,35.0
227.3,21.0
227.37,23.0
227.43,25.0
227.49,19.0
227.56,15.0
227.62,15.0
227.68,12.0
227.74,-8.0
227.81,0.0
227.87,25.0
227.93,13.0
228.0,24.0
228.06,22.0
228.12,26.0
228.19,32.0
228.25,27.0
228.31,15.0
228.37,24.0
228.44,25.0
228.5,-4.0
228.56,3.0
228.63,10.0
228.69,7.0
228.75,13.0
228.82,33.0
228.88,22.0
228.94,6.0
229.0,10.0
229.07,14.0
229.13,10.0
229.19,9.0
229.26,20.0
229.32,17.0
229.38,7.0
229.45,15.0
229.51,17.0
229.57,8.0
229.63,16.0
229.7,23.0
229.76,36.0
229.82,24.0
229.89,17.0
229.95,32.0
230.01,21.0
230.08,36.0
230.14,42.0
230.2,46.0
230.26,31.0
230.33,66.0
230.39,60.0
230.45,65.0
230.52,62.0
230.58,88.0
230.64,85.0
230.71,74.0
230.77,92.0
230.83,93.0
230.89,71.0
230.96,81.0
231.02,105.0
231.08,105.0
231.15,101.0
231.21,93.0
231.27,74.0
231.34,61.0
231.4,70.0
231.46,67.0
231.52,79.0
231.59,81.0
231.65,54.0
231.71,74.0
231.78,71.0
231.84,78.0
231.9,86.0
231.97,107.0
232.03,86.0
232.09,91.0
232.15,103.0
232.22,117.0
232.28,103.0
232.34,69.0
232.41,90.0
232.47,104.0
232.53,99.0
232.6,115.0
232.66,133.0
232.72,102.0
232.78,105.0
232.85,90.0
232.91,101.0
232.97,107.0
233.04,122.0
233.1,109.0
233.16,101.0
233.23,72.0
233.29,87.0
233.35,112.0
233.41,90.0
233.48,82.0
233.54,135.0
233.6,89.0
233.67,89.0
233.73,92.0
233.79,90.0
233.86,86.0
233.92,72.0
233.98,73.0
234.04,74.0
234.11,82.0
234.17,81.0
234.23,96.0
234.3,88.0
234.36,90.0
234.42,96.0
234.49,76.0
234.55,82.0
234.61,83.0
234.67,62.0
234.74,66.0
234.8,72.0
234.86,91.0
234.93,97.0
234.99,87.0
235.05,98.0
235.12,83.0
235.18,81.0
235.24,69.0
235.3,79.0
235.37,88.0
235.43,81.0
235.49,75.0
235.56,73.0
235.62,67.0
235.68,59.0
235.75,57.0
235.81,65.0
235.87,53.0
235.93,35.0
236.0,49.0
236.06,46.0
236.12,48.0
236.19,60.0
236.25,59.0
236.31,60.0
236.38,62.0
236.44,94.0
236.5,95.0
236.56,79.0
236.63,69.0
236.69,71.0
236.75,67.0
236.82,68.0
236.88,76.0
236.94,90.0
237.01,84.0
237.07,97.0
237.13,99.0
237.19,106.0
237.26,99.0
237.32,104.0
237.38,77.0
237.45,83.0
237.51,90.0
237.57,83.0
237.64,81.0
237.7,101.0
237.76,106.0
237.82,94.0
237.89,96.0
237.95,106.0
238.01,101.0
238.08,94.0
238.14,105.0
238.2,96.0
238.27,102.0
238.33,102.0
238.39,109.0
238.45,124.0
238.52,116.0
238.58,116.0
238.64,131.0
238.71,139.0
238.77,155.0
238.83,146.0
238.9,139.0
238.96,156.0
239.02,146.0
239.08,163.0
239.15,157.0
239.21,161.0
239.27,164.0
239.34,167.0
239.4,164.0
239.46,156.0
239.53,166.0
239.59,174.0
239.65,125.0
239.71,129.0
239.78,150.0
239.84,143.0
239.9,125.0
239.97,138.0
240.03,130.0
240.09,124.0
240.16,122.0
240.22,119.0
240.28,127.0
240.34,132.0
240.41,144.0
240.47,142.0
240.53,125.0
240.6,127.0
240.66,156.0
240.72,160.0
240.79,158.0
240.85,173.0
240.91,181.0
240.97,156.0
241.04,159.0
241.1,150.0
241.16,139.0
241.23,151.0
241.29,137.0
241.35,142.0
241.42,142.0
241.48,129.0
241.54,134.0
241.6,132.0
241.67,152.0
241.73,151.0
241.79,150.0
241.86,167.0
241.92,135.0
241.98,127.0
242.05,138.0
242.11,127.0
242.17,120.0
242.23,129.0
242.3,123.0
242.36,128.0
242.42,116.0
242.49,125.0
242.55,117.0
242.61,142.0
242.68,112.0
242.74,118.0
242.8,116.0
242.86,90.0
242.93,102.0
242.99,83.0
243.05,89.0
243.12,79.0
243.18,94.0
243.24,87.0
243.31,95.0
243.37,93.0
243.43,90.0
243.49,91.0
243.56,83.0
243.62,102.0
243.68,97.0
243.75,94.0
243.81,86.0
243.87,87.0
243.94,110.0
244.0,107.0
244.06,91.0
244.12,72.0
244.19,71.0
244.25,78.0
244.31,90.0
244.38,81.0
244.44,76.0
244.5,78.0
244.57,82.0
244.63,86.0
244.69,80.0
244.75,90.0
244.82,65.0
244.88,68.0
244.94,83.0
245.01,104.0
245.07,108.0
245.13,87.0
245.2,105.0
245.26,76.0
245.32,79.0
245.38,83.0
245.45,87.0
245.51,98.0
245.57,80.0
245.64,91.0
245.7,104.0
245.76,119.0
245.83,102.0
245.89,97.0
245.95,100.0
246.01,82.0
246.08,103.0
246.14,96.0
246.2,90.0
246.27,79.0
246.33,86.0
246.39,76.0
246.46,71.0
246.52,79.0
246.58,65.0
246.64,67.0
246.71,79.0
246.77,88.0
246.83,78.0
246.9,101.0
246.96,107.0
247.02,98.0
247.09,93.0
247.15,90.0
247.21,90.0
247.27,85.0
247.34,78.0
247.4,89.0
247.46,72.0
247.53,79.0
247.59,72.0
247.65,96.0
247.72,83.0
247.78,93.0
247.84,68.0
247.9,69.0
247.97,76.0
248.03,70.0
248.09,60.0
248.16,48.0
248.22,55.0
248.28,57.0
248.35,94.0
248.41,70.0
248.47,42.0
248.53,60.0
248.6,44.0
248.66,49.0
248.72,47.0
248.79,45.0
248.85,56.0
248.91,44.0
248.98,50.0
249.04,49.0
249.1,54.0
249.16,42.0
249.23,35.0
249.29,13.0
249.35,17.0
249.42,39.0
249.48,8.0
249.54,22.0
249.61,43.0
249.67,28.0
249.73,43.0
249.79,50.0
249.86,35.0
249.92,40.0
249.98,24.0
250.05,27.0
250.11,41.0
250.17,47.0
250.24,37.0
250.3,16.0
250.36,37.0
250.42,32.0
250.49,24.0
250.55,16.0
250.61,5.0
250.68,10.0
250.74,-11.0
250.8,5.0
250.87,-16.0
250.93,-27.0
250.99,-19.0
251.05,-22.0
251.12,-18.0
251.18,-9.0
251.24,-6.0
251.31,-27.0
251.37,-12.0
251.43,-8.0
251.5,-11.0
251.56,-25.0
251.62,-32.0
251.68,-18.0
251.75,-30.0
251.81,-35.0
251.87,-37.0
251.94,-19.0
252.0,-22.0
252.06,-37.0
252.13,-38.0
252.19,-27.0
252.25,-16.0
252.31,-19.0
252.38,-3.0
252.44,-8.0
252.5,-3.0
252.57,-20.0
252.63,-13.0
252.69,-22.0
252.76,-26.0
252.82,-24.0
252.88,-26.0
252.94,-36.0
253.01,-47.0
253.07,-43.0
253.13,-48.0
253.2,-54.0
253.26,-38.0
253.32,-18.0
253.39,-28.0
253.45,-28.0
253.51,-33.0
253.57,-10.0
253.64,-13.0
253.7,-14.0
253.76,-2.0
253.83,-11.0
253.89,-10.0
253.95,-13.0
254.02,-8.0
254.08,4.0
254.14,4.0
254.2,28.0
254.27,28.0
254.33,41.0
254.39,39.0
254.46,43.0
254.52,30.0
254.58,49.0
254.65,50.0
254.71,51.0
254.77,55.0
254.83,60.0
254.9,60.0
254.96,77.0
255.02,89.0
255.09,90.0
255.15,79.0
255.21,82.0
255.28,89.0
255.34,71.0
255.4,100.0
255.46,104.0
255.53,116.0
255.59,118.0
255.65,125.0
255.72,113.0
255.78,111.0
255.84,114.0
255.91,100.0
255.97,110.0
256.03,106.0
256.09,104.0
256.16,117.0
256.22,107.0
256.28,122.0
256.35,132.0
256.41,110.0
256.47,113.0
256.54,112.0
256.6,103.0
256.66,118.0
256.72,126.0
256.79,135.0
256.85,132.0
256.91,132.0
256.98,127.0
257.04,144.0
257.1,149.0
257.17,142.0
257.23,143.0
257.29,135.0
257.35,156.0
257.42,158.0
257.48,148.0
257.54,140.0
257.61,154.0
257.67,140.0
257.73,147.0
257.8,125.0
257.86,122.0
257.92,133.0
257.98,133.0
258.05,129.0
258.11,129.0
258.17,147.0
258.24,147.0
258.3,150.0
258.36,152.0
258.43,151.0
258.49,148.0
258.55,144.0
258.61,150.0
258.68,132.0
258.74,146.0
258.8,157.0
258.87,155.0
258.93,153.0
258.99,156.0
259.06,139.0
259.12,131.0
259.18,141.0
259.24,153.0
259.31,142.0
259.37,125.0
259.43,140.0
259.5,145.0
259.56,145.0
259.62,161.0
259.69,144.0
259.75,131.0
259.81,142.0
259.87,133.0
259.94,109.0
260.0,136.0
260.06,158.0
260.13,151.0
260.19,129.0
260.25,141.0
260.32,120.0
260.38,104.0
260.44,122.0
260.5,127.0
260.57,116.0
260.63,144.0
260.69,134.0
260.76,125.0
260.82,120.0
260.88,127.0
260.95,144.0
261.01,147.0
261.07,131.0
261.13,147.0
261.2,155.0
261.26,132.0
261.32,114.0
261.39,117.0
261.45,124.0
261.51,118.0
261.58,118.0
261.64,138.0
261.7,149.0
261.76,141.0
261.83,132.0
261.89,127.0
261.95,141.0
262.02,142.0
262.08,154.0
262.14,145.0
262.21,150.0
262.27,148.0
262.33,134.0
262.39,143.0
262.46,135.0
262.52,148.0
262.58,144.0
262.65,141.0
262.71,137.0
262.77,155.0
262.84,141.0
262.9,134.0
262.96,120.0
263.02,126.0
263.09,125.0
263.15,127.0
263.21,116.0
263.28,112.0
263.34,137.0
263.4,125.0
263.47,121.0
263.53,115.0
263.59,134.0
263.65,150.0
263.72,144.0
263.78,158.0
263.84,142.0
263.91,137.0
263.97,151.0
264.03,135.0
264.1,132.0
264.16,137.0
264.22,157.0
264.28,148.0
264.35,164.0
264.41,166.0
264.47,147.0
264.54,170.0
264.6,147.0
264.66,158.0
264.73,145.0
264.79,138.0
264.85,144.0
264.91,136.0
264.98,154.0
265.04,164.0
265.1,166.0
265.17,139.0
265.23,145.0
265.29,147.0
265.36,153.0
265.42,147.0
265.48,151.0
265.54,140.0
265.61,143.0
265.67,152.0
265.73,142.0
265.8,144.0
265.86,143.0
265.92,136.0
265.99,137.0
266.05,150.0
266.11,146.0
266.17,134.0
266.24,124.0
266.3,138.0
266.36,142.0
266.43,114.0
266.49,112.0
266.55,126.0
266.62,128.0
266.68,135.0
266.74,109.0
266.8,121.0
266.87,120.0
266.93,96.0
266.99,99.0
267.06,93.0
267.12,84.0
267.18,89.0
267.25,79.0
267.31,73.0
267.37,82.0
267.43,78.0
267.5,80.0
267.56,70.0
267.62,49.0
267.69,66.0
267.75,89.0
267.81,80.0
267.88,77.0
267.94,73.0
268.0,49.0
268.06,48.0
268.13,63.0
268.19,73.0
268.25,70.0
268.32,67.0
268.38,58.0
268.44,53.0
268.51,48.0
268.57,76.0
268.63,69.0
268.69,74.0
268.76,66.0
268.82,71.0
268.88,71.0
268.95,57.0
269.01,67.0
269.07,65.0
269.14,68.0
269.2,51.0
269.26,45.0
269.32,56.0
269.39,41.0
269.45,41.0
269.51,58.0
269.58,48.0
269.64,54.0
269.7,69.0
269.77,66.0
269.83,65.0
269.89,56.0
269.95,54.0
270.02,57.0
270.08,47.0
270.14,41.0
270.21,42.0
270.27,49.0
270.33,52.0
270.4,52.0
270.46,65.0
270.52,44.0
270.58,51.0
270.65,63.0
270.71,57.0
270.77,81.0
270.84,85.0
270.9,78.0
270.96,93.0
271.03,74.0
271.09,74.0
271.15,74.0
271.21,65.0
271.28,85.0
271.34,101.0
271.4,97.0
271.47,76.0
271.53,83.0
271.59,91.0
271.66,89.0
271.72,79.0
271.78,87.0
271.84,85.0
271.91,96.0
271.97,88.0
272.03,74.0
272.1,95.0
272.16,85.0
272.22,94.0
272.29,77.0
272.35,71.0
272.41,86.0
272.47,75.0
272.54,81.0
272.6,87.0
272.66,93.0
272.73,81.0
272.79,84.0
272.85,62.0
272.92,65.0
272.98,65.0
273.04,69.0
273.1,64.0
273.17,44.0
273.23,51.0
273.29,49.0
273.36,65.0
273.42,38.0
273.48,48.0
273.55,40.0
273.61,25.0
273.67,52.0
273.73,37.0
273.8,55.0
273.86,81.0
273.92,68.0
273.99,59.0
274.05,45.0
274.11,63.0
274.18,45.0
274.24,35.0
274.3,45.0
274.36,70.0
274.43,51.0
274.49,47.0
274.55,56.0
274.62,54.0
274.68,39.0
274.74,37.0
274.81,23.0
274.87,42.0
274.93,39.0
274.99,34.0
275.06,21.0
275.12,28.0
275.18,39.0
275.25,15.0
275.31,30.0
275.37,14.0
275.44,5.0
275.5,13.0
275.56,-5.0
275.62,9.0
275.69,0.0
275.75,7.0
275.81,8.0
275.88,2.0
275.94,-10.0
276.0,2.0
276.07,-4.0
276.13,-8.0
276.19,-8.0
276.25,-16.0
276.32,1.0
276.38,-24.0
276.44,-19.0
276.51,-18.0
276.57,-17.0
276.63,-3.0
276.7,-14.0
276.76,5.0
276.82,-15.0
276.88,3.0
276.95,5.0
277.01,8.0
277.07,-4.0
277.14,-13.0
277.2,5.0
277.26,12.0
277.33,11.0
277.39,14.0
277.45,16.0
277.51,31.0
277.58,13.0
277.64,12.0
277.7,21.0
277.77,12.0
277.83,21.0
277.89,14.0
277.96,7.0
278.02,-13.0
278.08,-10.0
278.14,2.0
278.21,4.0
278.27,5.0
278.33,-3.0
278.4,-18.0
278.46,-33.0
278.52,-18.0
278.59,-9.0
278.65,-12.0
278.71,-20.0
278.77,-20.0
278.84,-15.0
278.9,6.0
278.96,-13.0
279.03,16.0
279.09,1.0
279.15,-7.0
279.22,27.0
279.28,5.0
279.34,6.0
279.4,-1.0
279.47,7.0
279.53,4.0
279.59,3.0
279.66,4.0
279.72,20.0
279.78,10.0
279.85,2.0
279.91,39.0
279.97,40.0
280.03,26.0
280.1,42.0
280.16,46.0
280.22,54.0
280.29,40.0
280.35,39.0
280.41,21.0
280.48,37.0
280.54,39.0
280.6,27.0
280.66,32.0
280.73,49.0
280.79,59.0
280.85,45.0
280.92,58.0
280.98,41.0
281.04,61.0
281.11,59.0
281.17,62.0
281.23,75.0
281.29,75.0
281.36,83.0
281.42,96.0
281.48,99.0
281.55,87.0
281.61,97.0
281.67,89.0
281.74,80.0
281.8,101.0
281.86,78.0
281.92,78.0
281.99,95.0
282.05,80.0
282.11,106.0
282.18,91.0
282.24,91.0
282.3,94.0
282.37,115.0
282.43,102.0
282.49,114.0
282.55,123.0
282.62,127.0
282.68,131.0
282.74,135.0
282.81,116.0
282.87,109.0
282.93,102.0
283.0,109.0
283.06,118.0
283.12,128.0
283.18,139.0
283.25,133.0
283.31,117.0
283.37,121.0
283.44,108.0
283.5,120.0
283.56,114.0
283.63,116.0
283.69,117.0
283.75,110.0
283.81,113.0
283.88,124.0
283.94,120.0
284.0,109.0
284.07,117.0
284.13,92.0
284.19,95.0
284.26,89.0
284.32,84.0
284.38,84.0
284.44,113.0
284.51,92.0
284.57,95.0
284.63,90.0
284.7,103.0
284.76,92.0
284.82,66.0
284.89,107.0
284.95,88.0
285.01,86.0
285.07,90.0
285.14,96.0
285.2,69.0
285.26,56.0
285.33,65.0
285.39,64.0
285.45,57.0
285.52,59.0
285.58,70.0
285.64,79.0
285.7,64.0
285.77,71.0
285.83,73.0
285.89,76.0
285.96,68.0
286.02,72.0
286.08,65.0
286.15,55.0
286.21,69.0
286.27,79.0
286.33,80.0
286.4,92.0
286.46,89.0
286.52,83.0
286.59,82.0
286.65,87.0
286.71,97.0
286.78,100.0
286.84,88.0
286.9,102.0
286.96,116.0
287.03,103.0
287.09,81.0
287.15,95.0
287.22,71.0
287.28,76.0
287.34,95.0
287.41,92.0
287.47,102.0
287.53,105.0
287.59,118.0
287.66,92.0
287.72,115.0
287.78,103.0
287.85,122.0
287.91,119.0
287.97,138.0
288.04,127.0
288.1,119.0
288.16,124.0
288.22,112.0
288.29,149.0
288.35,137.0
288.41,143.0
288.48,136.0
288.54,121.0
288.6,109.0
288.67,103.0
288.73,106.0
288.79,92.0
288.85,127.0
288.92,117.0
288.98,117.0
289.04,119.0
289.11,125.0
289.17,132.0
289.23,121.0
289.3,116.0
289.36,140.0
289.42,132.0
289.48,123.0
289.55,114.0
289.61,121.0
289.67,119.0
289.74,101.0
289.8,117.0
289.86,116.0
289.93,117.0
289.99,136.0
290.05,119.0
290.11,117.0
290.18,107.0
290.24,111.0
290.3,126.0
290.37,127.0
290.43,135.0
290.49,122.0
290.56,115.0
290.62,131.0
290.68,109.0
290.74,100.0
290.81,117.0
290.87,111.0
290.93,123.0
291.0,111.0
291.06,119.0
291.12,117.0
291.19,118.0
291.25,105.0
291.31,132.0
291.37,115.0
291.44,128.0
291.5,137.0
291.56,138.0
291.63,157.0
291.69,144.0
291.75,147.0
291.82,140.0
291.88,154.0
291.94,173.0
292.0,166.0
292.07,156.0
292.13,168.0
292.19,174.0
292.26,161.0
292.32,157.0
292.38,154.0
292.45,158.0
292.51,136.0
292.57,173.0
292.63,160.0
292.7,147.0
292.76,155.0
292.82,146.0
292.89,145.0
292.95,119.0
293.01,150.0
293.08,120.0
293.14,118.0
293.2,119.0
293.26,119.0
293.33,118.0
293.39,95.0
293.45,95.0
293.52,109.0
293.58,111.0
293.64,102.0
293.71,100.0
293.77,113.0
293.83,102.0
293.89,87.0
293.96,95.0
294.02,104.0
294.08,102.0
294.15,93.0
294.21,89.0
294.27,82.0
294.34,98.0
294.4,82.0
294.46,91.0
294.52,73.0
294.59,91.0
294.65,107.0
294.71,86.0
294.78,95.0
294.84,86.0
294.9,99.0
294.97,88.0
295.03,120.0
295.09,119.0
295.15,111.0
295.22,89.0
295.28,87.0
295.34,110.0
295.41,103.0
295.47,108.0
295.53,97.0
295.6,89.0
295.66,91.0
295.72,95.0
295.78,98.0
295.85,80.0
295.91,63.0
295.97,70.0
296.04,62.0
296.1,80.0
296.16,94.0
296.23,99.0
296.29,95.0
296.35,113.0
296.41,113.0
296.48,116.0
296.54,107.0
296.6,114.0
296.67,138.0
296.73,118.0
296.79,113.0
296.86,109.0
296.92,126.0
296.98,116.0
297.04,132.0
297.11,127.0
297.17,124.0
297.23,117.0
297.3,113.0
297.36,121.0
297.42,129.0
297.49,133.0
297.55,119.0
297.61,130.0
297.67,128.0
297.74,122.0
297.8,140.0
297.86,127.0
297.93,116.0
297.99,115.0
298.05,131.0
298.12,132.0
298.18,133.0
298.24,130.0
298.3,108.0
298.37,111.0
298.43,97.0
298.49,109.0
298.56,101.0
298.62,102.0
298.68,101.0
298.75,110.0
298.81,124.0
298.87,125.0
298.93,122.0
299.0,142.0
299.06,134.0
299.12,114.0
299.19,146.0
299.25,131.0
299.31,133.0
299.38,120.0
299.44,109.0
299.5,129.0
299.56,138.0
299.63,182.0
299.69,150.0
299.75,156.0
299.82,150.0
299.88,143.0
299.94,135.0
300.01,139.0
300.07,133.0
300.13,133.0
300.19,139.0
300.26,117.0
300.32,106.0
300.38,111.0
300.45,122.0
300.51,113.0
300.57,118.0
300.64,94.0
300.7,121.0
300.76,119.0
300.82,104.0
300.89,107.0
300.95,101.0
301.01,88.0
301.08,74.0
301.14,62.0
301.2,62.0
301.27,71.0
301.33,87.0
301.39,91.0
301.45,91.0
301.52,84.0
301.58,77.0
301.64,80.0
301.71,71.0
301.77,59.0
301.83,68.0
301.9,84.0
301.96,53.0
302.02,50.0
302.08,53.0
302.15,66.0
302.21,52.0
302.27,36.0
302.34,55.0
302.4,42.0
302.46,57.0
302.53,51.0
302.59,47.0
302.65,41.0
302.71,36.0
302.78,25.0
302.84,36.0
302.9,47.0
302.97,46.0
303.03,42.0
303.09,50.0
303.16,32.0
303.22,36.0
303.28,56.0
303.34,33.0
303.41,27.0
303.47,22.0
303.53,15.0
303.6,19.0
303.66,29.0
303.72,32.0
303.79,35.0
303.85,33.0
303.91,36.0
303.97,35.0
304.04,17.0
304.1,42.0
304.16,29.0
304.23,51.0
304.29,47.0
304.35,47.0
304.42,70.0
304.48,73.0
304.54,63.0
304.6,65.0
304.67,64.0
304.73,80.0
304.79,75.0
304.86,56.0
304.92,64.0
304.98,50.0
305.05,64.0
305.11,48.0
305.17,55.0
305.23,53.0
305.3,54.0
305.36,63.0
305.42,68.0
305.49,69.0
305.55,63.0
305.61,67.0
305.68,44.0
305.74,79.0
305.8,84.0
305.86,72.0
305.93,96.0
305.99,96.0
306.05,91.0
306.12,84.0
306.18,77.0
306.24,70.0
306.31,79.0
306.37,63.0
306.43,69.0
306.49,66.0
306.56,83.0
306.62,91.0
306.68,94.0
306.75,98.0
306.81,94.0
306.87,101.0
306.94,91.0
307.0,81.0
307.06,81.0
307.12,80.0
307.19,82.0
307.25,109.0
307.31,96.0
307.38,95.0
307.44,115.0
307.5,95.0
307.57,103.0
307.63,86.0
307.69,94.0
307.75,113.0
307.82,113.0
307.88,108.0
307.94,92.0
308.01,109.0
308.07,110.0
308.13,81.0
308.2,100.0
308.26,73.0
308.32,73.0
308.38,110.0
308.45,88.0
308.51,89.0
308.57,102.0
308.64,78.0
308.7,74.0
308.76,69.0
308.83,98.0
308.89,95.0
308.95,68.0
309.01,97.0
309.08,93.0
309.14,72.0
309.2,65.0
309.27,77.0
309.33,90.0
309.39,67.0
309.46,85.0
309.52,81.0
309.58,88.0
309.64,89.0
309.71,70.0
309.77,69.0
309.83,70.0
309.9,89.0
309.96,70.0
310.02,74.0
310.09,62.0
310.15,73.0
310.21,58.0
310.27,58.0
310.34,73.0
310.4,69.0
310.46,84.0
310.53,61.0
310.59,58.0
310.65,38.0
310.72,70.0
310.78,62.0
310.84,41.0
310.9,48.0
310.97,49.0
311.03,39.0
311.09,37.0
311.16,62.0
311.22,67.0
311.28,38.0
311.35,39.0
311.41,48.0
311.47,42.0
311.53,45.0
311.6,51.0
311.66,67.0
311.72,62.0
311.79,53.0
311.85,70.0
311.91,69.0
311.98,62.0
312.04,87.0
312.1,71.0
312.16,76.0
312.23,75.0
312.29,61.0
312.35,54.0
312.42,50.0
312.48,62.0
312.54,48.0
312.61,68.0
312.67,70.0
312.73,69.0
312.79,47.0
312.86,33.0
312.92,29.0
312.98,55.0
313.05,70.0
313.11,52.0
313.17,46.0
313.24,58.0
313.3,75.0
313.36,59.0
313.42,54.0
313.49,67.0
313.55,67.0
313.61,72.0
313.68,86.0
313.74,78.0
313.8,80.0
313.87,97.0
313.93,98.0
313.99,81.0
314.05,100.0
314.12,92.0
314.18,88.0
314.24,95.0
314.31,85.0
314.37,89.0
314.43,97.0
314.5,86.0
314.56,103.0
314.62,110.0
314.68,109.0
314.75,128.0
314.81,100.0
314.87,106.0
314.94,99.0
315.0,106.0
315.06,106.0
315.13,109.0
315.19,121.0
315.25,109.0
315.31,125.0
315.38,118.0
315.44,153.0
315.5,140.0
315.57,139.0
315.63,117.0
315.69,103.0
315.76,119.0
315.82,110.0
315.88,116.0
315.94,133.0
316.01,132.0
316.07,145.0
316.13,140.0
316.2,138.0
316.26,135.0
316.32,150.0
316.39,138.0
316.45,132.0
316.51,138.0
316.57,131.0
316.64,136.0
316.7,120.0
316.76,109.0
316.83,128.0
316.89,138.0
316.95,131.0
317.02,138.0
317.08,132.0
317.14,145.0
317.2,138.0
317.27,134.0
317.33,140.0
317.39,143.0
317.46,139.0
317.52,144.0
317.58,144.0
317.65,135.0
317.71,140.0
317.77,133.0
317.83,143.0
317.9,141.0
317.96,142.0
318.02,139.0
318.09,158.0
318.15,168.0
318.21,150.0
318.28,132.0
318.34,138.0
318.4,133.0
318.46,124.0
318.53,132.0
318.59,132.0
318.65,129.0
318.72,114.0
318.78,131.0
318.84,118.0
318.91,116.0
318.97,94.0
319.03,97.0
319.09,108.0
319.16,104.0
319.22,102.0
319.28,125.0
319.35,91.0
319.41,84.0
319.47,70.0
319.54,70.0
319.6,76.0
319.66,87.0
319.72,73.0
319.79,66.0
319.85,57.0
319.91,55.0
319.98,52.0
320.04,57.0
320.1,50.0
320.17,50.0
320.23,80.0
320.29,69.0
320.35,62.0
320.42,73.0
320.48,63.0
320.54,70.0
320.61,76.0
320.67,80.0
320.73,76.0
320.8,70.0
320.86,86.0
320.92,65.0
320.98,54.0
321.05,63.0
321.11,72.0
321.17,72.0
321.24,69.0
321.3,95.0
321.36,78.0
321.43,90.0
321.49,103.0
321.55,114.0
321.61,107.0
321.68,94.0
321.74,85.0
321.8,94.0
321.87,82.0
321.93,88.0
321.99,94.0
322.06,102.0
322.12,113.0
322.18,99.0
322.24,120.0
322.31,106.0
322.37,90.0
322.43,110.0
322.5,84.0
322.56,81.0
322.62,82.0
322.69,110.0
322.75,102.0
322.81,108.0
322.87,105.0
322.94,84.0
323.0,98.0
323.06,99.0
323.13,114.0
323.19,110.0
323.25,120.0
323.32,100.0
323.38,105.0
323.44,120.0
323.5,103.0
323.57,112.0
323.63,116.0
323.69,125.0
323.76,139.0
323.82,138.0
323.88,131.0
323.95,132.0
324.01,140.0
324.07,117.0
324.13,113.0
324.2,112.0
324.26,111.0
324.32,106.0
324.39,109.0
324.45,126.0
324.51,116.0
324.58,119.0
324.64,103.0
324.7,111.0
324.76,125.0
324.83,130.0
324.89,153.0
324.95,132.0
325.02,113.0
325.08,135.0
325.14,143.0
325.21,150.0
325.27,128.0
325.33,140.0
325.39,125.0
325.46,128.0
325.52,122.0
325.58,138.0
325.65,135.0
325.71,121.0
325.77,112.0
325.84,117.0
325.9,141.0
325.96,137.0
326.02,127.0
326.09,131.0
326.15,114.0
326.21,117.0
326.28,137.0
326.34,126.0
326.4,114.0
326.47,131.0
326.53,114.0
326.59,108.0
326.65,97.0
326.72,119.0
326.78,145.0
326.84,133.0
326.91,116.0
326.97,103.0
327.03,97.0
327.1,113.0
327.16,114.0
327.22,119.0
327.28,110.0
327.35,103.0
327.41,103.0
327.47,105.0
327.54,95.0
327.6,96.0
327.66,94.0
327.73,75.0
327.79,78.0
327.85,65.0
327.91,70.0
327.98,82.0
328.04,77.0
328.1,67.0
328.17,72.0
328.23,61.0
328.29,67.0
328.36,69.0
328.42,64.0
328.48,47.0
328.54,40.0
328.61,58.0
328.67,36.0
328.73,43.0
328.8,73.0
328.86,72.0
328.92,73.0
328.99,61.0
329.05,58.0
329.11,50.0
329.17,47.0
329.24,58.0
329.3,47.0
329.36,56.0
329.43,48.0
329.49,59.0
329.55,52.0
329.62,40.0
329.68,47.0
329.74,26.0
329.8,45.0
329.87,46.0
329.93,39.0
329.99,41.0
330.06,51.0
330.12,49.0
330.18,47.0
330.25,38.0
330.31,9.0
330.37,25.0
330.43,14.0
330.5,10.0
330.56,30.0
330.62,18.0
330.69,18.0
330.75,15.0
330.81,15.0
330.88,20.0
330.94,11.0
331.0,29.0
331.06,30.0
331.13,12.0
331.19,8.0
331.25,21.0
331.32,33.0
331.38,9.0
331.44,7.0
331.51,17.0
331.57,1.0
331.63,8.0
331.69,26.0
331.76,14.0
331.82,11.0
331.88,27.0
331.95,31.0
332.01,22.0
332.07,38.0
332.14,61.0
332.2,55.0
332.26,36.0
332.32,20.0
332.39,18.0
332.45,37.0
332.51,53.0
332.58,58.0
332.64,56.0
332.7,47.0
332.77,69.0
332.83,55.0
332.89,58.0
332.95,69.0
333.02,68.0
333.08,70.0
333.14,45.0
333.21,42.0
333.27,55.0
333.33,81.0
333.4,81.0
333.46,70.0
333.52,72.0
333.58,68.0
333.65,69.0
333.71,71.0
333.77,62.0
333.84,69.0
333.9,75.0
333.96,54.0
334.03,59.0
334.09,68.0
334.15,64.0
334.21,69.0
334.28,75.0
334.34,65.0
334.4,61.0
334.47,70.0
334.53,69.0
334.59,65.0
334.66,66.0
334.72,63.0
334.78,48.0
334.84,80.0
334.91,56.0
334.97,54.0
335.03,61.0
335.1,59.0
335.16,56.0
335.22,35.0
335.29,42.0
335.35,61.0
335.41,47.0
335.47,33.0
335.54,56.0
335.6,38.0
335.66,34.0
335.73,45.0
335.79,43.0
335.85,41.0
335.92,48.0
335.98,40.0
336.04,35.0
336.1,42.0
336.17,55.0
336.23,54.0
336.29,46.0
336.36,31.0
336.42,41.0
336.48,33.0
336.55,51.0
336.61,48.0
336.67,51.0
336.73,54.0
336.8,51.0
336.86,57.0
336.92,73.0
336.99,69.0
337.05,73.0
337.11,61.0
337.18,70.0
337.24,102.0
337.3,93.0
337.36,84.0
337.43,82.0
337.49,73.0
337.55,77.0
337.62,59.0
337.68,43.0
337.74,75.0
337.81,76.0
337.87,48.0
337.93,43.0
337.99,51.0
338.06,62.0
338.12,70.0
338.18,55.0
338.25,46.0
338.31,27.0
338.37,68.0
338.44,60.0
338.5,68.0
338.56,88.0
338.62,86.0
338.69,76.0
338.75,62.0
338.81,75.0
338.88,52.0
338.94,77.0
339.0,66.0
339.07,84.0
339.13,86.0
339.19,97.0
339.25,108.0
339.32,81.0
339.38,83.0
339.44,87.0
339.51,92.0
339.57,83.0
339.63,97.0
339.7,116.0
339.76,86.0
339.82,106.0
339.88,105.0
339.95,108.0
340.01,101.0
340.07,86.0
340.14,113.0
340.2,119.0
340.26,112.0
340.33,99.0
340.39,102.0
340.45,113.0
340.51,107.0
340.58,87.0
340.64,95.0
340.7,93.0
340.77,108.0
340.83,113.0
340.89,124.0
340.96,116.0
341.02,117.0
341.08,135.0
341.14,134.0
341.21,121.0
341.27,122.0
341.33,123.0
341.4,120.0
341.46,130.0
341.52,108.0
341.59,129.0
341.65,118.0
341.71,117.0
341.77,124.0
341.84,127.0
341.9,128.0
341.96,135.0
342.03,120.0
342.09,132.0
342.15,129.0
342.22,115.0
342.28,134.0
342.34,119.0
342.4,143.0
342.47,122.0
342.53,140.0
342.59,111.0
342.66,117.0
342.72,114.0
342.78,89.0
342.85,109.0
342.91,116.0
342.97,105.0
343.03,124.0
343.1,121.0
343.16,119.0
343.22,118.0
343.29,115.0
343.35,113.0
343.41,115.0
343.48,129.0
343.54,106.0
343.6,119.0
343.66,143.0
343.73,145.0
343.79,130.0
343.85,121.0
343.92,131.0
343.98,158.0
344.04,140.0
344.11,149.0
344.17,128.0
344.23,146.0
344.29,164.0
344.36,136.0
344.42,135.0
344.48,142.0
344.55,125.0
344.61,135.0
344.67,124.0
344.74,135.0
344.8,135.0
344.86,116.0
344.92,128.0
344.99,121.0
345.05,132.0
345.11,139.0
345.18,119.0
345.24,122.0
345.3,148.0
345.37,144.0
345.43,127.0
345.49,101.0
345.55,109.0
345.62,96.0
345.68,84.0
345.74,94.0
345.81,116.0
345.87,113.0
345.93,101.0
346.0,92.0
346.06,103.0
346.12,121.0
346.18,138.0
346.25,129.0
346.31,129.0
346.37,129.0
346.44,114.0
346.5,108.0
346.56,127.0
346.63,117.0
346.69,115.0
346.75,106.0
346.81,107.0
346.88,108.0
346.94,98.0
347.0,89.0
347.07,95.0
347.13,92.0
347.19,77.0
347.26,97.0
347.32,91.0
347.38,92.0
347.44,95.0
347.51,87.0
347.57,92.0
347.63,109.0
347.7,95.0
347.76,85.0
347.82,91.0
347.89,86.0
347.95,102.0
348.01,86.0
348.07,68.0
348.14,84.0
348.2,99.0
348.26,92.0
348.33,88.0
348.39,89.0
348.45,74.0
348.52,87.0
348.58,94.0
348.64,92.0
348.7,105.0
348.77,106.0
348.83,73.0
348.89,99.0
348.96,91.0
349.02,110.0
349.08,110.0
349.15,111.0
349.21,128.0
349.27,117.0
349.33,142.0
349.4,147.0
349.46,133.0
349.52,125.0
349.59,131.0
349.65,125.0
349.71,120.0
349.78,134.0
349.84,136.0
349.9,131.0
349.96,128.0
350.03,113.0
350.09,110.0
350.15,106.0
350.22,99.0
350.28,124.0
350.34,124.0
350.41,111.0
350.47,134.0
350.53,142.0
350.59,119.0
350.66,150.0
350.72,129.0
350.78,121.0
350.85,103.0
350.91,128.0
350.97,133.0
351.04,100.0
351.1,110.0
351.16,94.0
351.22,117.0
351.29,124.0
351.35,110.0
351.41,116.0
351.48,108.0
351.54,87.0
351.6,86.0
351.67,95.0
351.73,103.0
351.79,97.0
351.85,83.0
351.92,91.0
351.98,98.0
352.04,66.0
352.11,69.0
352.17,65.0
352.23,87.0
352.3,91.0
352.36,75.0
352.42,85.0
352.48,81.0
352.55,93.0
352.61,61.0
352.67,61.0
352.74,54.0
352.8,67.0
352.86,73.0
352.93,77.0
352.99,64.0
353.05,80.0
353.11,88.0
353.18,85.0
353.24,65.0
353.3,55.0
353.37,57.0
353.43,42.0
353.49,59.0
353.56,69.0
353.62,58.0
353.68,43.0
353.74,47.0
353.81,67.0
353.87,27.0
353.93,43.0
354.0,44.0
354.06,42.0
354.12,53.0
354.19,48.0
354.25,26.0
354.31,36.0
354.37,61.0
354.44,52.0
354.5,59.0
354.56,45.0
354.63,50.0
354.69,43.0
354.75,23.0
354.82,28.0
354.88,23.0
354.94,30.0
355.0,46.0
355.07,44.0
355.13,36.0
355.19,51.0
355.26,67.0
355.32,71.0
355.38,70.0
355.45,84.0
355.51,82.0
355.57,105.0
355.63,107.0
355.7,84.0
355.76,83.0
355.82,87.0
355.89,76.0
355.95,70.0
356.01,69.0
356.08,76.0
356.14,75.0
356.2,73.0
356.26,75.0
356.33,82.0
356.39,75.0
356.45,78.0
356.52,81.0
356.58,86.0
356.64,88.0
356.71,105.0
356.77,107.0
356.83,98.0
356.89,109.0
356.96,100.0
357.02,103.0
357.08,107.0
357.15,95.0
357.21,80.0
357.27,80.0
357.34,99.0
357.4,92.0
357.46,101.0
357.52,107.0
357.59,85.0
357.65,73.0
357.71,72.0
357.78,86.0
357.84,80.0
357.9,83.0
357.97,83.0
358.03,90.0
358.09,93.0
358.15,83.0
358.22,90.0
358.28,104.0
358.34,116.0
358.41,117.0
358.47,109.0
358.53,121.0
358.6,141.0
358.66,134.0
358.72,141.0
358.78,166.0
358.85,134.0
358.91,131.0
358.97,140.0
359.04,133.0
359.1,128.0
359.16,135.0
359.23,134.0
359.29,144.0
359.35,165.0
359.41,176.0
359.48,138.0
359.54,157.0
359.6,169.0
359.67,142.0
359.73,169.0
359.79,170.0
359.86,154.0
359.92,175.0
359.98,187.0
360.04,190.0
360.11,175.0
360.17,170.0
360.23,168.0
360.3,194.0
360.36,172.0
360.42,189.0
360.49,172.0
360.55,171.0
360.61,179.0
360.67,147.0
360.74,146.0
360.8,153.0
360.86,159.0
360.93,157.0
360.99,144.0
361.05,152.0
361.12,152.0
361.18,155.0
361.24,126.0
361.3,115.0
361.37,97.0
361.43,114.0
361.49,112.0
361.56,100.0
361.62,116.0
361.68,94.0
361.75,88.0
361.81,82.0
361.87,66.0
361.93,76.0
362.0,80.0
362.06,81.0
362.12,70.0
362.19,67.0
362.25,73.0
362.31,74.0
362.38,76.0
362.44,84.0
362.5,94.0
362.56,97.0
362.63,83.0
362.69,94.0
362.75,94.0
362.82,77.0
362.88,77.0
362.94,87.0
363.01,80.0
363.07,99.0
363.13,86.0
363.19,72.0
363.26,75.0
363.32,78.0
363.38,65.0
363.45,83.0
363.51,80.0
363.57,69.0
363.64,100.0
363.7,103.0
363.76,99.0
363.82,93.0
363.89,91.0
363.95,87.0
364.01,117.0
364.08,110.0
364.14,102.0
364.2,103.0
364.27,102.0
364.33,80.0
364.39,75.0
364.45,81.0
364.52,81.0
364.58,112.0
364.64,94.0
364.71,74.0
364.77,95.0
364.83,101.0
364.9,110.0
364.96,109.0
365.02,109.0
365.08,121.0
365.15,117.0
365.21,117.0
365.27,108.0
365.34,102.0
365.4,108.0
365.46,92.0
365.53,85.0
365.59,75.0
365.65,103.0
365.71,94.0
365.78,83.0
365.84,105.0
365.9,91.0
365.97,99.0
366.03,99.0
366.09,98.0
366.16,87.0
366.22,86.0
366.28,86.0
366.34,89.0
366.41,91.0
366.47,90.0
366.53,91.0
366.6,83.0
366.66,93.0
366.72,91.0
366.79,97.0
366.85,117.0
366.91,88.0
366.97,105.0
367.04,101.0
367.1,85.0
367.16,85.0
367.23,84.0
367.29,93.0
367.35,77.0
367.42,94.0
367.48,94.0
367.54,106.0
367.6,88.0
367.67,91.0
367.73,91.0
367.79,74.0
367.86,93.0
367.92,82.0
367.98,80.0
368.05,83.0
368.11,66.0
368.17,67.0
368.23,65.0
368.3,59.0
368.36,65.0
368.42,67.0
368.49,65.0
368.55,62.0
368.61,39.0
368.68,61.0
368.74,42.0
368.8,34.0
368.86,43.0
368.93,29.0
368.99,31.0
369.05,34.0
369.12,37.0
369.18,37.0
369.24,43.0
369.31,44.0
369.37,54.0
369.43,67.0
369.49,45.0
369.56,47.0
369.62,54.0
369.68,51.0
369.75,51.0
369.81,71.0
369.87,86.0
369.94,73.0
370.0,55.0
370.06,66.0
370.12,58.0
370.19,61.0
370.25,38.0
370.31,42.0
370.38,69.0
370.44,44.0
370.5,56.0
370.57,28.0
370.63,45.0
370.69,51.0
370.75,43.0
370.82,52.0
370.88,55.0
370.94,46.0
371.01,47.0
371.07,39.0
371.13,51.0
371.2,56.0
371.26,59.0
371.32,47.0
371.38,61.0
371.45,56.0
371.51,54.0
371.57,60.0
371.64,65.0
371.7,79.0
371.76,83.0
371.83,67.0
371.89,62.0
371.95,69.0
372.01,68.0
372.08,68.0
372.14,62.0
372.2,54.0
372.27,66.0
372.33,73.0
372.39,64.0
372.46,44.0
372.52,52.0
372.58,66.0
372.64,61.0
372.71,33.0
372.77,44.0
372.83,41.0
372.9,49.0
372.96,34.0
373.02,33.0
373.09,61.0
373.15,43.0
373.21,35.0
373.27,40.0
373.34,46.0
373.4,41.0
373.46,39.0
373.53,60.0
373.59,66.0
373.65,78.0
373.72,80.0
373.78,75.0
373.84,83.0
373.9,76.0
373.97,81.0
374.03,54.0
374.09,76.0
374.16,86.0
374.22,92.0
374.28,70.0
374.35,84.0
374.41,88.0
374.47,97.0
374.53,71.0
374.6,48.0
374.66,57.0
374.72,53.0
374.79,51.0
374.85,57.0
374.91,71.0
374.98,62.0
375.04,69.0
375.1,53.0
375.16,59.0
375.23,62.0
375.29,73.0
375.35,76.0
375.42,75.0
375.48,78.0
375.54,66.0
375.61,86.0
375.67,56.0
375.73,51.0
375.79,58.0
375.86,55.0
375.92,56.0
375.98,70.0
376.05,74.0
376.11,73.0
376.17,76.0
376.24,65.0
376.3,64.0
376.36,52.0
376.42,45.0
376.49,44.0
376.55,56.0
376.61,46.0
376.68,59.0
376.74,50.0
376.8,44.0
376.87,72.0
376.93,76.0
376.99,70.0
377.05,69.0
377.12,76.0
377.18,69.0
377.24,58.0
377.31,49.0
377.37,61.0
377.43,73.0
377.5,59.0
377.56,83.0
377.62,65.0
377.68,62.0
377.75,47.0
377.81,56.0
377.87,29.0
377.94,34.0
378.0,28.0
378.06,16.0
378.13,9.0
378.19,11.0
378.25,18.0
378.31,20.0
378.38,32.0
378.44,37.0
378.5,23.0
378.57,12.0
378.63,32.0
378.69,27.0
378.76,28.0
378.82,43.0
378.88,31.0
378.94,27.0
379.01,33.0
379.07,22.0
379.13,7.0
379.2,-5.0
379.26,14.0
379.32,34.0
379.39,23.0
379.45,20.0
379.51,34.0
379.57,25.0
379.64,37.0
379.7,25.0
379.76,39.0
379.83,19.0
379.89,38.0
379.95,34.0
380.02,23.0
380.08,23.0
380.14,21.0
380.2,0.0
380.27,21.0
380.33,28.0
380.39,31.0
380.46,28.0
380.52,17.0
380.58,21.0
380.65,39.0
380.71,26.0
380.77,27.0
380.83,28.0
380.9,36.0
380.96,39.0
381.02,40.0
381.09,45.0
381.15,14.0
381.21,12.0
381.28,35.0
381.34,45.0
381.4,18.0
381.46,5.0
381.53,8.0
381.59,29.0
381.65,-2.0
381.72,9.0
381.78,5.0
381.84,19.0
381.91,10.0
381.97,15.0
382.03,19.0
382.09,9.0
382.16,25.0
382.22,20.0
382.28,23.0
382.35,37.0
382.41,56.0
382.47,42.0
382.54,58.0
382.6,46.0
382.66,42.0
382.72,44.0
382.79,52.0
382.85,37.0
382.91,37.0
382.98,49.0
383.04,40.0
383.1,51.0
383.17,50.0
383.23,52.0
383.29,71.0
383.35,65.0
383.42,79.0
383.48,90.0
383.54,84.0
383.61,90.0
383.67,85.0
383.73,75.0
383.8,56.0
383.86,67.0
383.92,82.0
383.98,101.0
384.05,69.0
384.11,71.0
384.17,47.0
384.24,82.0
384.3,84.0
384.36,79.0
384.43,72.0
384.49,79.0
384.55,87.0
384.61,83.0
384.68,93.0
384.74,97.0
384.8,93.0
384.87,82.0
384.93,86.0
384.99,83.0
385.06,97.0
385.12,86.0
385.18,81.0
385.24,66.0
385.31,98.0
385.37,86.0
385.43,101.0
385.5,101.0
385.56,83.0
385.62,62.0
385.69,60.0
385.75,59.0
385.81,50.0
385.87,67.0
385.94,59.0
386.0,56.0
386.06,48.0
386.13,54.0
386.19,62.0
386.25,64.0
386.32,68.0
386.38,54.0
386.44,53.0
386.5,45.0
386.57,68.0
386.63,84.0
386.69,68.0
386.76,80.0
386.82,64.0
386.88,62.0
386.95,69.0
387.01,62.0
387.07,48.0
387.13,61.0
387.2,65.0
387.26,50.0
387.32,27.0
387.39,29.0
387.45,31.0
387.51,40.0
387.58,47.0
387.64,65.0
387.7,46.0
387.76,52.0
387.83,42.0
387.89,60.0
387.95,41.0
388.02,35.0
388.08,45.0
388.14,32.0
388.21,60.0
388.27,40.0
388.33,20.0
388.39,39.0
388.46,39.0
388.52,39.0
388.58,44.0
388.65,56.0
388.71,54.0
388.77,53.0
388.84,79.0
388.9,72.0
388.96,82.0
389.02,85.0
389.09,79.0
389.15,97.0
389.21,91.0
389.28,100.0
389.34,91.0
389.4,114.0
389.47,108.0
389.53,115.0
389.59,117.0
389.65,97.0
389.72,110.0
389.78,102.0
389.84,130.0
389.91,115.0
389.97,105.0
390.03,92.0
390.1,101.0
390.16,138.0
390.22,114.0
390.28,102.0
390.35,110.0
390.41,105.0
390.47,111.0
390.54,109.0
390.6,132.0
390.66,117.0
390.73,105.0
390.79,130.0
390.85,123.0
390.91,129.0
390.98,126.0
391.04,106.0
391.1,111.0
391.17,108.0
391.23,121.0
391.29,116.0
391.36,120.0
391.42,128.0
391.48,134.0
391.54,139.0
391.61,129.0
391.67,122.0
391.73,122.0
391.8,135.0
391.86,121.0
391.92,135.0
391.99,134.0
392.05,125.0
392.11,120.0
392.17,130.0
392.24,116.0
392.3,119.0
392.36,125.0
392.43,125.0
392.49,147.0
392.55,153.0
392.62,152.0
392.68,139.0
392.74,148.0
392.8,132.0
392.87,128.0
392.93,153.0
392.99,137.0
393.06,147.0
393.12,147.0
393.18,130.0
393.25,151.0
393.31,166.0
393.37,167.0
393.43,169.0
393.5,178.0
393.56,156.0
393.62,154.0
393.69,156.0
393.75,166.0
393.81,174.0
393.88,166.0
393.94,172.0
394.0,163.0
394.06,167.0
394.13,147.0
394.19,154.0
394.25,153.0
394.32,131.0
394.38,175.0
394.44,175.0
394.51,143.0
394.57,158.0
394.63,147.0
394.69,142.0
394.76,140.0
394.82,140.0
394.88,131.0
394.95,125.0
395.01,130.0
395.07,142.0
395.14,137.0
395.2,143.0
395.26,142.0
395.32,139.0
395.39,141.0
395.45,141.0
395.51,123.0
395.58,132.0
395.64,161.0
395.7,141.0
395.77,133.0
395.83,132.0
395.89,135.0
395.95,128.0
396.02,116.0
396.08,128.0
396.14,145.0
396.21,139.0
396.27,148.0
396.33,145.0
396.4,148.0
396.46,155.0
396.52,149.0
396.58,155.0
396.65,132.0
396.71,119.0
396.77,122.0
396.84,129.0
396.9,109.0
396.96,115.0
397.03,125.0
397.09,116.0
397.15,123.0
397.21,133.0
397.28,121.0
397.34,136.0
397.4,139.0
397.47,142.0
397.53,123.0
397.59,115.0
397.66,108.0
397.72,117.0
397.78,100.0
397.84,119.0
397.91,103.0
397.97,115.0
398.03,127.0
398.1,119.0
398.16,116.0
398.22,128.0
398.29,110.0
398.35,122.0
398.41,128.0
398.47,123.0
398.54,108.0
398.6,115.0
398.66,128.0
398.73,142.0
398.79,134.0
398.85,132.0
398.92,125.0
398.98,119.0
399.04,147.0
399.1,147.0
399.17,135.0
399.23,128.0
399.29,159.0
399.36,131.0
399.42,146.0
399.48,139.0
399.55,139.0
399.61,151.0
399.67,157.0
399.73,162.0
399.8,167.0
399.86,159.0
399.92,160.0
399.99,158.0
400.05,174.0
400.11,180.0
400.18,178.0
400.24,155.0
400.3,152.0
400.36,163.0
400.43,165.0
400.49,190.0
400.55,199.0
400.62,180.0
400.68,193.0
400.74,181.0
400.81,174.0
400.87,200.0
400.93,187.0
400.99,159.0
401.06,177.0
401.12,194.0
401.18,196.0
401.25,159.0
401.31,150.0
401.37,137.0
401.44,163.0
401.5,148.0
401.56,161.0
401.62,169.0
401.69,158.0
401.75,139.0
401.81,141.0
401.88,145.0
401.94,162.0
402.0,149.0
402.07,164.0
402.13,174.0
402.19,158.0
402.25,147.0
402.32,128.0
402.38,150.0
402.44,147.0
402.51,134.0
402.57,120.0
402.63,145.0
402.7,167.0
402.76,147.0
402.82,143.0
402.88,142.0
402.95,150.0
403.01,157.0
403.07,172.0
403.14,147.0
403.2,159.0
403.26,158.0
403.33,149.0
403.39,139.0
403.45,139.0
403.51,153.0
403.58,127.0
403.64,141.0
403.7,159.0
403.77,155.0
403.83,157.0
403.89,159.0
403.96,141.0
404.02,134.0
404.08,110.0
404.14,123.0
404.21,142.0
404.27,124.0
404.33,149.0
404.4,130.0
404.46,140.0
404.52,134.0
404.59,147.0
404.65,158.0
404.71,139.0
404.77,152.0
404.84,163.0
404.9,136.0
404.96,131.0
405.03,147.0
405.09,152.0
405.15,134.0
405.22,148.0
405.28,147.0
405.34,153.0
405.4,155.0
405.47,152.0
405.53,145.0
405.59,133.0
405.66,135.0
405.72,141.0
405.78,140.0
405.85,140.0
405.91,139.0
405.97,119.0
406.03,123.0
406.1,130.0
406.16,128.0
406.22,103.0
406.29,90.0
406.35,108.0
406.41,115.0
406.48,116.0
406.54,133.0
406.6,134.0
406.66,121.0
406.73,109.0
406.79,99.0
406.85,115.0
406.92,103.0
406.98,108.0
407.04,111.0
407.11,125.0
407.17,108.0
407.23,126.0
407.29,106.0
407.36,104.0
407.42,115.0
407.48,86.0
407.55,85.0
407.61,92.0
407.67,89.0
407.74,112.0
407.8,86.0
407.86,104.0
407.92,99.0
407.99,92.0
408.05,108.0
408.11,105.0
408.18,94.0
408.24,79.0
408.3,85.0
408.37,84.0
408.43,79.0
408.49,68.0
408.55,86.0
408.62,106.0
408.68,94.0
408.74,107.0
408.81,91.0
408.87,106.0
408.93,127.0
409.0,112.0
409.06,117.0
409.12,103.0
409.18,108.0
409.25,114.0
409.31,86.0
409.37,84.0
409.44,99.0
409.5,103.0
409.56,107.0
409.63,72.0
409.69,89.0
409.75,86.0
409.81,87.0
409.88,89.0
409.94,65.0
410.0,99.0
410.07,101.0
410.13,100.0
410.19,88.0
410.26,95.0
410.32,91.0
410.38,106.0
410.44,95.0
410.51,108.0
410.57,93.0
410.63,87.0
410.7,110.0
410.76,97.0
410.82,102.0
410.89,98.0
410.95,87.0
411.01,112.0
411.07,95.0
411.14,93.0
411.2,105.0
411.26,94.0
411.33,113.0
411.39,115.0
411.45,116.0
411.52,119.0
411.58,140.0
411.64,117.0
411.7,125.0
411.77,101.0
411.83,92.0
411.89,94.0
411.96,79.0
412.02,75.0
412.08,67.0
412.15,79.0
412.21,97.0
412.27,87.0
412.33,73.0
412.4,72.0
412.46,79.0
412.52,83.0
412.59,75.0
412.65,76.0
412.71,98.0
412.78,95.0
412.84,90.0
412.9,68.0
412.96,82.0
413.03,97.0
413.09,92.0
413.15,98.0
413.22,84.0
413.28,91.0
413.34,98.0
413.41,126.0
413.47,103.0
413.53,104.0
413.59,99.0
413.66,86.0
413.72,93.0
413.78,69.0
413.85,101.0
413.91,114.0
413.97,112.0
414.04,101.0
414.1,121.0
414.16,90.0
414.22,112.0
414.29,102.0
414.35,82.0
414.41,95.0
414.48,91.0
414.54,90.0
414.6,90.0
414.67,81.0
414.73,97.0
414.79,90.0
414.85,75.0
414.92,67.0
414.98,101.0
415.04,115.0
415.11,101.0
415.17,103.0
415.23,100.0
415.3,116.0
415.36,102.0
415.42,94.0
415.48,126.0
415.55,125.0
415.61,111.0
415.67,119.0
415.74,113.0
415.8,108.0
415.86,96.0
415.93,127.0
415.99,104.0
416.05,123.0
416.11,104.0
416.18,138.0
416.24,151.0
416.3,145.0
416.37,149.0
416.43,111.0
416.49,120.0
416.56,118.0
416.62,119.0
416.68,114.0
416.74,124.0
416.81,137.0
416.87,138.0
416.93,136.0
417.0,131.0
417.06,141.0
417.12,125.0
417.19,145.0
417.25,118.0
417.31,152.0
417.37,138.0
417.44,140.0
417.5,136.0
417.56,129.0
417.63,129.0
417.69,112.0
417.75,114.0
417.82,136.0
417.88,131.0
417.94,120.0
418.0,128.0
418.07,135.0
418.13,136.0
418.19,124.0
418.26,131.0
418.32,123.0
418.38,137.0
418.45,137.0
418.51,128.0
418.57,114.0
418.63,112.0
418.7,108.0
418.76,100.0
418.82,90.0
418.89,68.0
418.95,82.0
419.01,93.0
419.08,76.0
419.14,83.0
419.2,95.0
419.26,90.0
419.33,78.0
419.39,90.0
419.45,90.0
419.52,106.0
419.58,118.0
419.64,112.0
419.71,111.0
419.77,92.0
419.83,83.0
419.89,104.0
419.96,121.0
420.02,97.0
420.08,104.0
420.15,100.0
420.21,104.0
420.27,106.0
420.34,95.0
420.4,71.0
420.46,92.0
420.52,94.0
420.59,112.0
420.65,119.0
420.71,125.0
420.78,96.0
420.84,112.0
420.9,102.0
420.97,106.0
421.03,113.0
421.09,115.0
421.15,111.0
421.22,103.0
421.28,101.0
421.34,98.0
421.41,91.0
421.47,105.0
421.53,119.0
421.6,94.0
421.66,83.0
421.72,93.0
421.78,111.0
421.85,101.0
421.91,102.0
421.97,75.0
422.04,87.0
422.1,101.0
422.16,103.0
422.23,78.0
422.29,63.0
422.35,83.0
422.41,87.0
422.48,65.0
422.54,67.0
422.6,69.0
422.67,65.0
422.73,61.0
422.79,72.0
422.86,71.0
422.92,86.0
422.98,87.0
423.04,79.0
423.11,68.0
423.17,54.0
423.23,68.0
423.3,72.0
423.36,60.0
423.42,64.0
423.49,56.0
423.55,50.0
423.61,53.0
423.67,62.0
423.74,68.0
423.8,51.0
423.86,49.0
423.93,43.0
423.99,60.0
424.05,67.0
424.12,40.0
424.18,53.0
424.24,55.0
424.3,44.0
424.37,57.0
424.43,52.0
424.49,57.0
424.56,49.0
424.62,39.0
424.68,35.0
424.75,39.0
424.81,53.0
424.87,38.0
424.93,51.0
425.0,31.0
425.06,45.0
425.12,59.0
425.19,62.0
425.25,78.0
425.31,57.0
425.38,56.0
425.44,65.0
425.5,71.0
425.56,59.0
425.63,60.0
425.69,49.0
425.75,69.0
425.82,72.0
425.88,90.0
425.94,81.0
426.01,80.0
426.07,94.0
426.13,89.0
426.19,75.0
426.26,81.0
426.32,104.0
426.38,124.0
426.45,96.0
426.51,89.0
426.57,105.0
426.64,93.0
426.7,105.0
426.76,90.0
426.82,97.0
426.89,108.0
426.95,87.0
427.01,107.0
427.08,100.0
427.14,81.0
427.2,90.0
427.27,89.0
427.33,112.0
427.39,118.0
427.45,124.0
427.52,124.0
427.58,131.0
427.64,124.0
427.71,105.0
427.77,116.0
427.83,117.0
427.9,119.0
427.96,117.0
428.02,103.0
428.08,116.0
428.15,134.0
428.21,121.0
428.27,98.0
428.34,104.0
428.4,90.0
428.46,92.0
428.53,72.0
428.59,83.0
428.65,78.0
428.71,70.0
428.78,75.0
428.84,75.0
428.9,78.0
428.97,74.0
429.03,79.0
429.09,99.0
429.16,72.0
429.22,73.0
429.28,68.0
429.34,80.0
429.41,75.0
429.47,67.0
429.53,63.0
429.6,66.0
429.66,60.0
429.72,53.0
429.79,64.0
429.85,60.0
429.91,50.0
429.97,64.0
430.04,67.0
430.1,60.0
430.16,61.0
430.23,61.0
430.29,62.0
430.35,79.0
430.42,84.0
430.48,76.0
430.54,88.0
430.6,91.0
430.67,63.0
430.73,100.0
430.79,110.0
430.86,82.0
430.92,89.0
430.98,83.0
431.05,90.0
431.11,91.0
431.17,94.0
431.23,97.0
431.3,83.0
431.36,86.0
431.42,74.0
431.49,82.0
431.55,89.0
431.61,72.0
431.68,71.0
431.74,60.0
431.8,56.0
431.86,74.0
431.93,60.0
431.99,54.0
432.05,49.0
432.12,51.0
432.18,76.0
432.24,68.0
432.31,65.0
432.37,65.0
432.43,57.0
432.49,50.0
432.56,66.0
432.62,71.0
432.68,81.0
432.75,99.0
432.81,74.0
432.87,79.0
432.94,75.0
433.0,70.0
433.06,68.0
433.12,62.0
433.19,56.0
433.25,51.0
433.31,62.0
433.38,50.0
433.44,51.0
433.5,75.0
433.57,82.0
433.63,68.0
433.69,60.0
433.75,64.0
433.82,65.0
433.88,59.0
433.94,41.0
434.01,67.0
434.07,68.0
434.13,71.0
434.2,76.0
434.26,75.0
434.32,43.0
434.38,48.0
434.45,52.0
434.51,60.0
434.57,59.0
434.64,82.0
434.7,57.0
434.76,47.0
434.83,46.0
434.89,62.0
434.95,50.0
435.01,57.0
435.08,32.0
435.14,39.0
435.2,48.0
435.27,30.0
435.33,31.0
435.39,25.0
435.46,45.0
435.52,51.0
435.58,28.0
435.64,46.0
435.71,39.0
435.77,66.0
435.83,48.0
435.9,61.0
435.96,24.0
436.02,42.0
436.09,34.0
436.15,31.0
436.21,31.0
436.27,23.0
436.34,32.0
436.4,37.0
436.46,35.0
436.53,52.0
436.59,39.0
436.65,54.0
436.72,56.0
436.78,40.0
436.84,51.0
436.9,66.0
436.97,51.0
437.03,57.0
437.09,53.0
437.16,40.0
437.22,48.0
437.28,39.0
437.35,24.0
437.41,23.0
437.47,23.0
437.53,10.0
437.6,2.0
437.66,13.0
437.72,14.0
437.79,6.0
437.85,32.0
437.91,42.0
437.98,23.0
438.04,17.0
438.1,20.0
438.16,21.0
438.23,21.0
438.29,10.0
438.35,-9.0
438.42,19.0
438.48,4.0
438.54,-9.0
438.61,-4.0
438.67,-9.0
438.73,1.0
438.79,8.0
438.86,20.0
438.92,13.0
438.98,6.0
439.05,10.0
439.11,7.0
439.17,21.0
439.24,28.0
439.3,18.0
439.36,23.0
439.42,27.0
439.49,52.0
439.55,40.0
439.61,11.0
439.68,29.0
439.74,26.0
439.8,27.0
439.87,42.0
439.93,26.0
439.99,20.0
440.05,11.0
440.12,10.0
440.18,23.0
440.24,11.0
440.31,14.0
440.37,21.0
440.43,21.0
440.5,33.0
440.56,32.0
440.62,28.0
440.68,54.0
440.75,47.0
440.81,36.0
440.87,46.0
440.94,41.0
441.0,46.0
441.06,48.0
441.13,45.0
441.19,41.0
441.25,52.0
441.31,65.0
441.38,46.0
441.44,43.0
441.5,48.0
441.57,43.0
441.63,48.0
441.69,46.0
441.76,64.0
441.82,48.0
441.88,35.0
441.94,57.0
442.01,54.0
442.07,61.0
442.13,66.0
442.2,64.0
442.26,77.0
442.32,76.0
442.39,83.0
442.45,60.0
442.51,58.0
442.57,73.0
442.64,55.0
442.7,88.0
442.76,74.0
442.83,74.0
442.89,97.0
442.95,109.0
443.02,95.0
443.08,81.0
443.14,69.0
443.2,86.0
443.27,100.0
443.33,121.0
443.39,85.0
443.46,98.0
443.52,102.0
443.58,91.0
443.65,88.0
443.71,90.0
443.77,84.0
443.83,91.0
443.9,91.0
443.96,94.0
444.02,88.0
444.09,93.0
444.15,96.0
444.21,95.0
444.28,97.0
444.34,95.0
444.4,100.0
444.46,77.0
444.53,95.0
444.59,84.0
444.65,83.0
444.72,65.0
444.78,81.0
444.84,77.0
444.91,61.0
444.97,57.0
445.03,53.0
445.09,68.0
445.16,68.0
445.22,78.0
445.28,71.0
445.35,62.0
445.41,77.0
445.47,64.0
445.54,52.0
445.6,70.0
445.66,73.0
445.72,79.0
445.79,87.0
445.85,88.0
445.91,89.0
445.98,88.0
446.04,85.0
446.1,88.0
446.17,106.0
446.23,101.0
446.29,94.0
446.35,89.0
446.42,90.0
446.48,104.0
446.54,110.0
446.61,116.0
446.67,113.0
446.73,106.0
446.8,109.0
446.86,124.0
446.92,115.0
446.98,124.0
447.05,110.0
447.11,115.0
447.17,127.0
447.24,122.0
447.3,113.0
447.36,103.0
447.43,105.0
447.49,97.0
447.55,115.0
447.61,131.0
447.68,137.0
447.74,143.0
447.8,129.0
447.87,121.0
447.93,131.0
447.99,112.0
448.06,113.0
448.12,124.0
448.18,124.0
448.24,128.0
448.31,135.0
448.37,132.0
448.43,133.0
448.5,116.0
448.56,126.0
448.62,120.0
448.69,116.0
448.75,122.0
448.81,113.0
448.87,126.0
448.94,118.0
449.0,139.0
449.06,149.0
449.13,128.0
449.19,133.0
449.25,146.0
449.32,116.0
449.38,130.0
449.44,132.0
449.5,122.0
449.57,149.0
449.63,154.0
449.69,132.0
449.76,134.0
449.82,142.0
449.88,149.0
449.95,160.0
450.01,148.0
450.07,153.0
450.13,169.0
450.2,177.0
450.26,173.0
450.32,178.0
450.39,169.0
450.45,165.0
450.51,171.0
450.58,168.0
450.64,190.0
450.7,178.0
450.76,168.0
450.83,182.0
450.89,178.0
450.95,170.0
451.02,183.0
451.08,179.0
451.14,190.0
451.21,173.0
451.27,178.0
451.33,190.0
451.39,178.0
451.46,171.0
451.52,182.0
451.58,190.0
451.65,180.0
451.71,182.0
451.77,183.0
451.84,179.0
451.9,200.0
451.96,172.0
452.02,168.0
452.09,162.0
452.15,160.0
452.21,186.0
452.28,193.0
452.34,180.0
452.4,189.0
452.47,173.0
452.53,193.0
452.59,189.0
452.65,172.0
452.72,186.0
452.78,179.0
452.84,160.0
452.91,168.0
452.97,179.0
453.03,171.0
453.1,147.0
453.16,146.0
453.22,146.0
453.28,151.0
453.35,167.0
453.41,157.0
453.47,157.0
453.54,172.0
453.6,146.0
453.66,134.0
453.73,133.0
453.79,127.0
453.85,132.0
453.91,142.0
453.98,110.0
454.04,124.0
454.1,114.0
454.17,114.0
454.23,113.0
454.29,126.0
454.36,121.0
454.42,120.0
454.48,116.0
454.54,124.0
454.61,127.0
454.67,106.0
454.73,124.0
454.8,122.0
454.86,125.0
454.92,120.0
454.99,121.0
455.05,121.0
455.11,128.0
455.17,117.0
455.24,110.0
455.3,113.0
455.36,130.0
455.43,133.0
455.49,140.0
455.55,143.0
455.62,122.0
455.68,124.0
455.74,121.0
455.8,140.0
455.87,124.0
455.93,124.0
455.99,118.0
456.06,109.0
456.12,120.0
456.18,126.0
456.25,137.0
456.31,125.0
456.37,148.0
456.43,130.0
456.5,126.0
456.56,137.0
456.62,111.0
456.69,110.0
456.75,110.0
456.81,114.0
456.88,113.0
456.94,105.0
457.0,76.0
457.06,109.0
457.13,100.0
457.19,86.0
457.25,88.0
457.32,80.0
457.38,80.0
457.44,65.0
457.51,80.0
457.57,76.0
457.63,91.0
457.69,83.0
457.76,85.0
457.82,73.0
457.88,67.0
457.95,87.0
458.01,95.0
458.07,83.0
458.14,57.0
458.2,55.0
458.26,44.0
458.32,58.0
458.39,51.0
458.45,52.0
458.51,85.0
458.58,63.0
458.64,65.0
458.7,60.0
458.77,64.0
458.83,57.0
458.89,75.0
458.95,65.0
459.02,60.0
459.08,55.0
459.14,57.0
459.21,52.0
459.27,69.0
459.33,61.0
459.4,61.0
459.46,50.0
459.52,48.0
459.58,55.0
459.65,58.0
459.71,47.0
459.77,55.0
459.84,46.0
459.9,58.0
459.96,54.0
460.03,61.0
460.09,63.0
460.15,62.0
460.21,61.0
460.28,50.0
460.34,35.0
460.4,67.0
460.47,48.0
460.53,36.0
460.59,52.0
460.66,50.0
460.72,32.0
460.78,38.0
460.84,50.0
460.91,47.0
460.97,48.0
461.03,50.0
461.1,46.0
461.16,30.0
461.22,47.0
461.29,39.0
461.35,43.0
461.41,53.0
461.47,51.0
461.54,56.0
461.6,20.0
461.66,37.0
461.73,45.0
461.79,30.0
461.85,48.0
461.92,50.0
461.98,50.0
462.04,34.0
462.1,36.0
462.17,56.0
462.23,51.0
462.29,44.0
462.36,47.0
462.42,43.0
462.48,58.0
462.55,38.0
462.61,52.0
462.67,49.0
462.73,46.0
462.8,45.0
462.86,56.0
462.92,48.0
462.99,69.0
463.05,66.0
463.11,54.0
463.18,56.0
463.24,44.0
463.3,65.0
463.36,57.0
463.43,40.0
463.49,29.0
463.55,46.0
463.62,47.0
463.68,56.0
463.74,59.0
463.81,46.0
463.87,21.0
463.93,32.0
463.99,55.0
464.06,49.0
464.12,57.0
464.18,69.0
464.25,81.0
464.31,76.0
464.37,70.0
464.44,60.0
464.5,55.0
464.56,56.0
464.62,53.0
464.69,58.0
464.75,63.0
464.81,73.0
464.88,84.0
464.94,91.0
465.0,98.0
465.07,73.0
465.13,69.0
465.19,83.0
465.25,75.0
465.32,88.0
465.38,86.0
465.44,80.0
465.51,86.0
465.57,102.0
465.63,100.0
465.7,101.0
465.76,69.0
465.82,71.0
465.88,101.0
465.95,77.0
466.01,57.0
466.07,61.0
466.14,96.0
466.2,84.0
466.26,104.0
466.33,98.0
466.39,112.0
466.45,112.0
466.51,121.0
466.58,129.0
466.64,102.0
466.7,93.0
466.77,66.0
466.83,70.0
466.89,68.0
466.96,64.0
467.02,68.0
467.08,67.0
467.14,73.0
467.21,89.0
467.27,85.0
467.33,67.0
467.4,61.0
467.46,71.0
467.52,66.0
467.59,60.0
467.65,65.0
467.71,66.0
467.77,58.0
467.84,69.0
467.9,73.0
467.96,77.0
468.03,93.0
468.09,94.0
468.15,80.0
468.22,89.0
468.28,80.0
468.34,87.0
468.4,97.0
468.47,105.0
468.53,128.0
468.59,109.0
468.66,96.0
468.72,74.0
468.78,81.0
468.85,93.0
468.91,86.0
468.97,79.0
469.03,58.0
469.1,72.0
469.16,75.0
469.22,74.0
469.29,77.0
469.35,78.0
469.41,89.0
469.48,61.0
469.54,77.0
469.6,89.0
469.66,85.0
469.73,91.0
469.79,93.0
469.85,77.0
469.92,69.0
469.98,73.0
470.04,69.0
470.11,60.0
470.17,58.0
470.23,70.0
470.29,72.0
470.36,68.0
470.42,60.0
470.48,44.0
470.55,39.0
470.61,66.0
470.67,32.0
470.74,40.0
470.8,32.0
470.86,53.0
470.92,65.0
470.99,71.0
471.05,43.0
471.11,33.0
471.18,58.0
471.24,65.0
471.3,59.0
471.37,60.0
471.43,46.0
471.49,51.0
471.55,54.0
471.62,54.0
471.68,66.0
471.74,70.0
471.81,77.0
471.87,72.0
471.93,84.0
472.0,87.0
472.06,109.0
472.12,91.0
472.18,85.0
472.25,87.0
472.31,89.0
472.37,117.0
472.44,98.0
472.5,109.0
472.56,105.0
472.63,114.0
472.69,123.0
472.75,115.0
472.81,109.0
472.88,132.0
472.94,139.0
473.0,135.0
473.07,135.0
473.13,138.0
473.19,134.0
473.26,109.0
473.32,102.0
473.38,92.0
473.44,71.0
473.51,98.0
473.57,108.0
473.63,99.0
473.7,101.0
473.76,102.0
473.82,123.0
473.89,112.0
473.95,110.0
474.01,105.0
474.07,102.0
474.14,112.0
474.2,112.0
474.26,132.0
474.33,143.0
474.39,137.0
474.45,127.0
474.52,120.0
474.58,118.0
474.64,103.0
474.7,110.0
474.77,117.0
474.83,102.0
474.89,107.0
474.96,123.0
475.02,117.0
475.08,122.0
475.15,121.0
475.21,114.0
475.27,99.0
475.33,121.0
475.4,121.0
475.46,117.0
475.52,125.0
475.59,112.0
475.65,112.0
475.71,102.0
475.78,103.0
475.84,118.0
475.9,127.0
475.96,115.0
476.03,124.0
476.09,136.0
476.15,151.0
476.22,146.0
476.28,120.0
476.34,127.0
476.41,137.0
476.47,130.0
476.53,137.0
476.59,135.0
476.66,127.0
476.72,127.0
476.78,136.0
476.85,145.0
476.91,148.0
476.97,142.0
477.04,148.0
477.1,147.0
477.16,129.0
477.22,126.0
477.29,121.0
477.35,128.0
477.41,131.0
477.48,131.0
477.54,129.0
477.6,116.0
477.67,112.0
477.73,102.0
477.79,98.0
477.85,102.0
477.92,102.0
477.98,89.0
478.04,94.0
478.11,109.0
478.17,109.0
478.23,106.0
478.3,104.0
478.36,113.0
478.42,107.0
478.48,123.0
478.55,119.0
478.61,92.0
478.67,102.0
478.74,95.0
478.8,102.0
478.86,109.0
478.93,105.0
478.99,92.0
479.05,79.0
479.11,83.0
479.18,84.0
479.24,74.0
479.3,71.0
479.37,70.0
479.43,61.0
479.49,71.0
479.56,89.0
479.62,68.0
479.68,62.0
479.74,58.0
479.81,71.0
479.87,51.0
479.93,64.0
480.0,55.0
480.06,35.0
480.12,36.0
480.19,45.0
480.25,53.0
480.31,41.0
480.37,47.0
480.44,36.0
480.5,36.0
480.56,39.0
480.63,49.0
480.69,32.0
480.75,25.0
480.82,45.0
480.88,27.0
480.94,44.0
481.0,45.0
481.07,51.0
481.13,39.0
481.19,33.0
481.26,41.0
481.32,55.0
481.38,60.0
481.45,61.0
481.51,65.0
481.57,39.0
481.63,42.0
481.7,61.0
481.76,61.0
481.82,74.0
481.89,90.0
481.95,80.0
482.01,61.0
482.08,74.0
482.14,80.0
482.2,60.0
482.26,65.0
482.33,89.0
482.39,77.0
482.45,70.0
482.52,77.0
482.58,77.0
482.64,65.0
482.71,83.0
482.77,88.0
482.83,82.0
482.89,79.0
482.96,101.0
483.02,83.0
483.08,92.0
483.15,83.0
483.21,87.0
483.27,82.0
483.34,77.0
483.4,74.0
483.46,83.0
483.52,80.0
483.59,72.0
483.65,86.0
483.71,74.0
483.78,72.0
483.84,63.0
483.9,66.0
483.97,63.0
484.03,68.0
484.09,61.0
484.15,60.0
484.22,69.0
484.28,64.0
484.34,40.0
484.41,25.0
484.47,47.0
484.53,26.0
484.6,13.0
484.66,43.0
484.72,52.0
484.78,40.0
484.85,43.0
484.91,18.0
484.97,26.0
485.04,30.0
485.1,28.0
485.16,27.0
485.23,35.0
485.29,51.0
485.35,29.0
485.41,31.0
485.48,29.0
485.54,30.0
485.6,41.0
485.67,38.0
485.73,35.0
485.79,47.0
485.86,51.0
485.92,41.0
485.98,54.0
486.04,36.0
486.11,25.0
486.17,43.0
486.23,36.0
486.3,40.0
486.36,25.0
486.42,24.0
486.49,14.0
486.55,-12.0
486.61,-9.0
486.67,8.0
486.74,6.0
486.8,4.0
486.86,2.0
486.93,-6.0
486.99,-6.0
487.05,-14.0
487.12,1.0
487.18,-7.0
487.24,9.0
487.3,14.0
487.37,8.0
487.43,4.0
487.49,14.0
487.56,15.0
487.62,1.0
487.68,-10.0
487.75,-18.0
487.81,3.0
487.87,5.0
487.93,4.0
488.0,3.0
488.06,1.0
488.12,17.0
488.19,19.0
488.25,16.0
488.31,-6.0
488.38,-15.0
488.44,-8.0
488.5,14.0
488.56,8.0
488.63,-12.0
488.69,-20.0
488.75,-11.0
488.82,9.0
488.88,1.0
488.94,1.0
489.01,15.0
489.07,8.0
489.13,-3.0
489.19,8.0
489.26,18.0
489.32,18.0
489.38,14.0
489.45,14.0
489.51,20.0
489.57,37.0
489.64,25.0
489.7,23.0
489.76,23.0
489.82,6.0
489.89,-10.0
489.95,-8.0
490.01,11.0
490.08,10.0
490.14,12.0
490.2,20.0
490.27,25.0
490.33,17.0
490.39,8.0
490.45,11.0
490.52,37.0
490.58,24.0
490.64,14.0
490.71,17.0
490.77,26.0
490.83,5.0
490.9,-10.0
490.96,24.0
491.02,4.0
491.08,2.0
491.15,25.0
491.21,23.0
491.27,13.0
491.34,7.0
491.4,42.0
491.46,48.0
491.53,16.0
491.59,40.0
491.65,61.0
491.71,46.0
491.78,29.0
491.84,35.0
491.9,46.0
491.97,51.0
492.03,50.0
492.09,32.0
492.16,36.0
492.22,14.0
492.28,35.0
492.34,36.0
492.41,32.0
492.47,44.0
492.53,53.0
492.6,42.0
492.66,34.0
492.72,53.0
492.79,58.0
492.85,65.0
492.91,76.0
492.97,84.0
493.04,78.0
493.1,90.0
493.16,88.0
493.23,101.0
493.29,105.0
493.35,85.0
493.42,115.0
493.48,123.0
493.54,91.0
493.6,118.0
493.67,116.0
493.73,112.0
493.79,127.0
493.86,113.0
493.92,117.0
493.98,113.0
494.05,125.0
494.11,131.0
494.17,113.0
494.23,114.0
494.3,121.0
494.36,133.0
494.42,138.0
494.49,141.0
494.55,136.0
494.61,105.0
494.68,98.0
494.74,109.0
494.8,98.0
494.86,104.0
494.93,110.0
494.99,98.0
495.05,108.0
495.12,128.0
495.18,126.0
495.24,136.0
495.31,127.0
495.37,125.0
495.43,132.0
495.49,147.0
495.56,148.0
495.62,142.0
495.68,135.0
495.75,126.0
495.81,131.0
495.87,109.0
495.94,122.0
496.0,121.0
496.06,126.0
496.12,126.0
496.19,153.0
496.25,144.0
496.31,132.0
496.38,151.0
496.44,165.0
496.5,174.0
496.57,168.0
496.63,172.0
496.69,155.0
496.75,160.0
496.82,143.0
496.88,136.0
496.94,142.0
497.01,155.0
497.07,168.0
497.13,171.0
497.2,159.0
497.26,157.0
497.32,167.0
497.38,192.0
497.45,201.0
497.51,190.0
497.57,186.0
497.64,173.0
497.7,182.0
497.76,165.0
497.83,177.0
497.89,181.0
497.95,159.0
498.01,156.0
498.08,152.0
498.14,160.0
498.2,163.0
498.27,166.0
498.33,133.0
498.39,137.0
498.46,148.0
498.52,141.0
498.58,148.0
498.64,148.0
498.71,145.0
498.77,153.0
498.83,143.0
498.9,153.0
498.96,151.0
499.02,116.0
499.09,138.0
499.15,133.0
499.21,146.0
499.27,138.0
499.34,143.0
499.4,133.0
499.46,143.0
499.53,156.0
499.59,166.0
499.65,180.0
499.72,160.0
499.78,171.0
499.84,173.0
499.9,171.0
499.97,164.0
500.03,166.0
500.09,158.0
500.16,174.0
500.22,167.0
500.28,155.0
500.35,182.0
500.41,186.0
500.47,164.0
500.53,182.0
500.6,181.0
500.66,183.0
500.72,177.0
500.79,205.0
500.85,221.0
500.91,203.0
500.98,193.0
501.04,189.0
501.1,204.0
501.16,202.0
501.23,213.0
501.29,196.0
501.35,207.0
501.42,209.0
501.48,196.0
501.54,192.0
501.61,202.0
501.67,196.0
501.73,170.0
501.79,184.0
501.86,170.0
501.92,169.0
501.98,185.0
502.05,174.0
502.11,185.0
502.17,182.0
502.24,179.0
502.3,157.0
502.36,163.0
502.42,162.0
502.49,140.0
502.55,133.0
502.61,151.0
502.68,157.0
502.74,134.0
502.8,133.0
502.87,134.0
502.93,145.0
502.99,143.0
503.05,142.0
503.12,150.0
503.18,129.0
503.24,131.0
503.31,139.0
503.37,122.0
503.43,134.0
503.5,127.0
503.56,127.0
503.62,140.0
503.68,133.0
503.75,123.0
503.81,127.0
503.87,133.0
503.94,136.0
504.0,120.0
504.06,133.0
504.13,127.0
504.19,126.0
504.25,136.0
504.31,126.0
504.38,119.0
504.44,117.0
504.5,111.0
504.57,128.0
504.63,136.0
504.69,130.0
504.76,149.0
504.82,135.0
504.88,136.0
504.94,152.0
505.01,139.0
505.07,160.0
505.13,168.0
505.2,145.0
505.26,149.0
505.32,146.0
505.39,136.0
505.45,117.0
505.51,133.0
505.57,133.0
505.64,138.0
505.7,157.0
505.76,133.0
505.83,115.0
505.89,133.0
505.95,115.0
506.02,103.0
506.08,113.0
506.14,100.0
506.2,123.0
506.27,118.0
506.33,106.0
506.39,112.0
506.46,135.0
506.52,151.0
506.58,134.0
506.65,123.0
506.71,112.0
506.77,134.0
506.83,117.0
506.9,128.0
506.96,132.0
507.02,134.0
507.09,137.0
507.15,136.0
507.21,131.0
507.28,121.0
507.34,145.0
507.4,119.0
507.46,114.0
507.53,116.0
507.59,141.0
507.65,141.0
507.72,130.0
507.78,145.0
507.84,140.0
507.91,139.0
507.97,127.0
508.03,141.0
508.09,126.0
508.16,133.0
508.22,154.0
508.28,137.0
508.35,127.0
508.41,129.0
508.47,128.0
508.54,129.0
508.6,130.0
508.66,153.0
508.72,120.0
508.79,140.0
508.85,142.0
508.91,131.0
508.98,148.0
509.04,152.0
509.1,155.0
509.17,130.0
509.23,133.0
509.29,141.0
509.35,136.0
509.42,134.0
509.48,138.0
509.54,128.0
509.61,135.0
509.67,137.0
509.73,120.0
509.8,128.0
509.86,114.0
509.92,128.0
509.98,126.0
510.05,131.0
510.11,130.0
510.17,128.0
510.24,142.0
510.3,133.0
510.36,123.0
510.43,103.0
510.49,94.0
510.55,109.0
510.61,110.0
510.68,111.0
510.74,107.0
510.8,93.0
510.87,111.0
510.93,96.0
510.99,101.0
511.06,104.0
511.12,93.0
511.18,86.0
511.24,98.0
511.31,103.0
511.37,103.0
511.43,99.0
511.5,137.0
511.56,127.0
511.62,109.0
511.69,121.0
511.75,120.0
511.81,123.0
511.87,106.0
511.94,99.0
512.0,119.0
512.06,117.0
512.13,81.0
512.19,107.0
512.25,100.0
512.32,87.0
512.38,89.0
512.44,78.0
512.5,84.0
512.57,81.0
512.63,109.0
512.69,114.0
512.76,84.0
512.82,63.0
512.88,75.0
512.95,89.0
513.01,69.0
513.07,60.0
513.13,77.0
513.2,75.0
513.26,60.0
513.32,61.0
513.39,62.0
513.45,57.0
513.51,81.0
513.58,74.0
513.64,72.0
513.7,61.0
513.76,76.0
513.83,69.0
513.89,94.0
513.95,84.0
514.02,98.0
514.08,87.0
514.14,95.0
514.21,89.0
514.27,86.0
514.33,73.0
514.39,108.0
514.46,97.0
514.52,106.0
514.58,109.0
514.65,85.0
514.71,86.0
514.77,96.0
514.84,114.0
514.9,92.0
514.96,82.0
515.02,92.0
515.09,90.0
515.15,94.0
515.21,91.0
515.28,86.0
515.34,97.0
515.4,98.0
515.47,93.0
515.53,90.0
515.59,93.0
515.65,84.0
515.72,79.0
515.78,91.0
515.84,78.0
515.91,81.0
515.97,82.0
516.03,92.0
516.1,97.0
516.16,87.0
516.22,86.0
516.28,71.0
516.35,77.0
516.41,62.0
516.47,68.0
516.54,59.0
516.6,56.0
516.66,84.0
516.73,68.0
516.79,75.0
516.85,65.0
516.91,67.0
516.98,56.0
517.04,53.0
517.1,66.0
517.17,40.0
517.23,26.0
517.29,18.0
517.36,46.0
517.42,75.0
517.48,50.0
517.54,42.0
517.61,36.0
517.67,43.0
517.73,38.0
517.8,29.0
517.86,59.0
517.92,43.0
517.99,31.0
518.05,35.0
518.11,31.0
518.17,56.0
518.24,34.0
518.3,36.0
518.36,53.0
518.43,39.0
518.49,37.0
518.55,26.0
518.62,48.0
518.68,59.0
518.74,60.0
518.8,50.0
518.87,64.0
518.93,64.0
518.99,64.0
519.06,57.0
519.12,64.0
519.18,55.0
519.25,60.0
519.31,68.0
519.37,75.0
519.43,79.0
519.5,61.0
519.56,63.0
519.62,76.0
519.69,87.0
519.75,69.0
519.81,73.0
519.88,86.0
519.94,93.0
520.0,96.0
520.06,89.0
520.13,109.0
520.19,90.0
520.25,73.0
520.32,70.0
520.38,74.0
520.44,82.0
520.51,93.0
520.57,88.0
520.63,75.0
520.69,72.0
520.76,60.0
520.82,77.0
520.88,87.0
520.95,69.0
521.01,73.0
521.07,68.0
521.14,73.0
521.2,55.0
521.26,64.0
521.32,65.0
521.39,74.0
521.45,71.0
521.51,63.0
521.58,78.0
521.64,72.0
521.7,66.0
521.77,86.0
521.83,86.0
521.89,89.0
521.95,97.0
522.02,82.0
522.08,112.0
522.14,114.0
522.21,104.0
522.27,98.0
522.33,103.0
522.4,103.0
522.46,97.0
522.52,123.0
522.58,112.0
522.65,123.0
522.71,130.0
522.77,137.0
522.84,115.0
522.9,108.0
522.96,105.0
523.03,118.0
523.09,130.0
523.15,130.0
523.21,117.0
523.28,122.0
523.34,138.0
523.4,136.0
523.47,134.0
523.53,130.0
523.59,140.0
523.66,127.0
523.72,134.0
523.78,137.0
523.84,130.0
523.91,132.0
523.97,128.0
524.03,138.0
524.1,129.0
524.16,126.0
524.22,143.0
524.29,148.0
524.35,146.0
524.41,158.0
524.47,156.0
524.54,135.0
524.6,136.0
524.66,130.0
524.73,129.0
524.79,147.0
524.85,144.0
524.92,134.0
524.98,119.0
525.04,147.0
525.1,137.0
525.17,141.0
525.23,134.0
525.29,120.0
525.36,135.0
525.42,141.0
525.48,147.0
525.55,131.0
525.61,124.0
525.67,131.0
525.73,127.0
525.8,129.0
525.86,101.0
525.92,100.0
525.99,117.0
526.05,111.0
526.11,117.0
526.18,104.0
526.24,110.0
526.3,124.0
526.36,108.0
526.43,119.0
526.49,101.0
526.55,92.0
526.62,110.0
526.68,94.0
526.74,90.0
526.81,90.0
526.87,68.0
526.93,92.0
526.99,80.0
527.06,79.0
527.12,96.0
527.18,84.0
527.25,78.0
527.31,93.0
527.37,71.0
527.44,84.0
527.5,81.0
527.56,103.0
527.62,114.0
527.69,102.0
527.75,95.0
527.81,97.0
527.88,91.0
527.94,90.0
528.0,102.0
528.07,98.0
528.13,79.0
528.19,92.0
528.25,95.0
528.32,128.0
528.38,119.0
528.44,109.0
528.51,112.0
528.57,104.0
528.63,100.0
528.7,93.0
528.76,89.0
528.82,77.0
528.88,89.0
528.95,82.0
529.01,89.0
529.07,84.0
529.14,93.0
529.2,84.0
529.26,82.0
529.33,98.0
529.39,96.0
529.45,89.0
529.51,79.0
529.58,83.0
529.64,109.0
529.7,87.0
529.77,104.0
529.83,78.0
529.89,66.0
529.96,77.0
530.02,97.0
530.08,85.0
530.14,73.0
530.21,67.0
530.27,66.0
530.33,75.0
530.4,98.0
530.46,90.0
530.52,92.0
530.59,108.0
530.65,104.0
530.71,109.0
530.77,92.0
530.84,112.0
530.9,117.0
530.96,128.0
531.03,130.0
531.09,146.0
531.15,119.0
531.22,117.0
531.28,122.0
531.34,108.0
531.4,104.0
531.47,99.0
531.53,97.0
531.59,103.0
531.66,114.0
531.72,96.0
531.78,111.0
531.85,97.0
531.91,109.0
531.97,95.0
532.03,105.0
532.1,95.0
532.16,84.0
532.22,86.0
532.29,81.0
532.35,100.0
532.41,79.0
532.48,81.0
532.54,105.0
532.6,92.0
532.66,101.0
532.73,114.0
532.79,104.0
532.85,111.0
532.92,125.0
532.98,129.0
533.04,107.0
533.11,101.0
533.17,109.0
533.23,117.0
533.29,115.0
533.36,121.0
533.42,114.0
533.48,118.0
533.55,131.0
533.61,100.0
533.67,118.0
533.74,146.0
533.8,119.0
533.86,124.0
533.92,108.0
533.99,118.0
534.05,115.0
534.11,119.0
534.18,133.0
534.24,124.0
534.3,120.0
534.37,106.0
534.43,101.0
534.49,120.0
534.55,114.0
534.62,111.0
534.68,105.0
534.74,100.0
534.81,95.0
534.87,108.0
534.93,115.0
535.0,109.0
535.06,119.0
535.12,98.0
535.18,93.0
535.25,111.0
535.31,117.0
535.37,100.0
535.44,120.0
535.5,111.0
535.56,103.0
535.63,116.0
535.69,104.0
535.75,119.0
535.81,110.0
535.88,86.0
535.94,103.0
536.0,121.0
536.07,106.0
536.13,87.0
536.19,95.0
536.26,75.0
536.32,94.0
536.38,105.0
536.44,87.0
536.51,96.0
536.57,78.0
536.63,79.0
536.7,97.0
536.76,81.0
536.82,67.0
536.89,68.0
536.95,101.0
537.01,88.0
537.07,63.0
537.14,57.0
537.2,35.0
537.26,48.0
537.33,68.0
537.39,73.0
537.45,87.0
537.52,77.0
537.58,72.0
537.64,72.0
537.7,72.0
537.77,54.0
537.83,69.0
537.89,70.0
537.96,97.0
538.02,90.0
538.08,83.0
538.15,102.0
538.21,109.0
538.27,105.0
538.33,111.0
538.4,105.0
538.46,105.0
538.52,97.0
538.59,97.0
538.65,93.0
538.71,82.0
538.78,104.0
538.84,90.0
538.9,88.0
538.96,84.0
539.03,79.0
539.09,105.0
539.15,89.0
539.22,104.0
539.28,97.0
539.34,82.0
539.41,109.0
539.47,89.0
539.53,107.0
539.59,113.0
539.66,81.0
539.72,97.0
539.78,85.0
539.85,72.0
539.91,84.0
539.97,85.0
540.04,86.0
540.1,84.0
540.16,97.0
540.22,84.0
540.29,99.0
540.35,103.0
540.41,109.0
540.48,115.0
540.54,90.0
540.6,90.0
540.67,84.0
540.73,96.0
540.79,94.0
540.85,83.0
540.92,73.0
540.98,78.0
541.04,71.0
541.11,65.0
541.17,80.0
541.23,81.0
541.3,83.0
541.36,62.0
541.42,68.0
541.48,71.0
541.55,79.0
541.61,65.0
541.67,49.0
541.74,73.0
541.8,75.0
541.86,61.0
541.93,72.0
541.99,53.0
542.05,84.0
542.11,59.0
542.18,61.0
542.24,75.0
542.3,58.0
542.37,81.0
542.43,81.0
542.49,71.0
542.56,62.0
542.62,64.0
542.68,79.0
542.74,74.0
542.81,64.0
542.87,64.0
542.93,62.0
543.0,39.0
543.06,64.0
543.12,60.0
543.19,59.0
543.25,73.0
543.31,84.0
543.37,73.0
543.44,58.0
543.5,60.0
543.56,49.0
543.63,57.0
543.69,57.0
543.75,54.0
543.82,63.0
543.88,40.0
543.94,36.0
544.0,49.0
544.07,62.0
544.13,48.0
544.19,60.0
544.26,46.0
544.32,64.0
544.38,47.0
544.45,43.0
544.51,59.0
544.57,85.0
544.63,87.0
544.7,78.0
544.76,67.0
544.82,66.0
544.89,58.0
544.95,84.0
545.01,64.0
545.08,75.0
545.14,87.0
545.2,76.0
545.26,87.0
545.33,75.0
545.39,84.0
545.45,101.0
545.52,79.0
545.58,78.0
545.64,79.0
545.71,73.0
545.77,96.0
545.83,92.0
545.89,87.0
545.96,75.0
546.02,75.0
546.08,75.0
546.15,86.0
546.21,90.0
546.27,63.0
546.34,67.0
546.4,64.0
546.46,67.0
546.52,92.0
546.59,88.0
546.65,79.0
546.71,75.0
546.78,57.0
546.84,59.0
546.9,76.0
546.97,69.0
547.03,79.0
547.09,91.0
547.15,67.0
547.22,66.0
547.28,84.0
547.34,77.0
547.41,76.0
547.47,79.0
547.53,66.0
547.6,91.0
547.66,92.0
547.72,90.0
547.78,95.0
547.85,75.0
547.91,106.0
547.97,112.0
548.04,111.0
548.1,104.0
548.16,109.0
548.23,122.0
548.29,118.0
548.35,120.0
548.41,132.0
548.48,102.0
548.54,116.0
548.6,126.0
548.67,119.0
548.73,121.0
548.79,126.0
548.86,123.0
548.92,108.0
548.98,130.0
549.04,119.0
549.11,134.0
549.17,147.0
549.23,134.0
549.3,123.0
549.36,126.0
549.42,131.0
549.49,136.0
549.55,145.0
549.61,153.0
549.67,135.0
549.74,134.0
549.8,166.0
549.86,148.0
549.93,145.0
549.99,140.0
550.05,138.0
550.12,167.0
550.18,156.0
550.24,159.0
550.3,164.0
550.37,142.0
550.43,163.0
550.49,156.0
550.56,162.0
550.62,164.0
550.68,141.0
550.75,162.0
550.81,161.0
550.87,128.0
550.93,135.0
551.0,133.0
551.06,119.0
551.12,133.0
551.19,139.0
551.25,137.0
551.31,136.0
551.38,131.0
551.44,125.0
551.5,124.0
551.56,113.0
551.63,96.0
551.69,100.0
551.75,92.0
551.82,105.0
551.88,105.0
551.94,108.0
552.01,92.0
552.07,105.0
552.13,99.0
552.19,85.0
552.26,115.0
552.32,86.0
552.38,84.0
552.45,103.0
552.51,92.0
552.57,118.0
552.64,97.0
552.7,99.0
552.76,109.0
552.82,88.0
552.89,103.0
552.95,94.0
553.01,80.0
553.08,66.0
553.14,85.0
553.2,87.0
553.27,72.0
553.33,88.0
553.39,99.0
553.45,103.0
553.52,88.0
553.58,68.0
553.64,78.0
553.71,97.0
553.77,87.0
553.83,88.0
553.9,82.0
553.96,79.0
554.02,76.0
554.08,81.0
554.15,94.0
554.21,70.0
554.27,70.0
554.34,55.0
554.4,97.0
554.46,80.0
554.53,71.0
554.59,82.0
554.65,83.0
554.71,76.0
554.78,70.0
554.84,65.0
554.9,66.0
554.97,75.0
555.03,61.0
555.09,64.0
555.16,72.0
555.22,78.0
555.28,73.0
555.34,71.0
555.41,78.0
555.47,97.0
555.53,103.0
555.6,90.0
555.66,61.0
555.72,67.0
555.79,69.0
555.85,85.0
555.91,81.0
555.97,84.0
556.04,67.0
556.1,77.0
556.16,81.0
556.23,78.0
556.29,82.0
556.35,81.0
556.42,92.0
556.48,100.0
556.54,111.0
556.6,101.0
556.67,104.0
556.73,111.0
556.79,111.0
556.86,110.0
556.92,112.0
556.98,123.0
557.05,130.0
557.11,109.0
557.17,114.0
557.23,120.0
557.3,129.0
557.36,114.0
557.42,125.0
557.49,114.0
557.55,120.0
557.61,109.0
557.68,132.0
557.74,152.0
557.8,134.0
557.86,128.0
557.93,130.0
557.99,158.0
558.05,137.0
558.12,141.0
558.18,125.0
558.24,128.0
558.31,127.0
558.37,122.0
558.43,149.0
558.49,150.0
558.56,147.0
558.62,146.0
558.68,149.0
558.75,168.0
558.81,163.0
558.87,176.0
558.94,184.0
559.0,169.0
559.06,159.0
559.12,164.0
559.19,174.0
559.25,178.0
559.31,185.0
559.38,162.0
559.44,185.0
559.5,167.0
559.57,158.0
559.63,156.0
559.69,160.0
559.75,174.0
559.82,165.0
559.88,180.0
559.94,165.0
560.01,178.0
560.07,174.0
560.13,181.0
560.2,185.0
560.26,190.0
560.32,175.0
560.38,172.0
560.45,174.0
560.51,161.0
560.57,166.0
560.64,164.0
560.7,149.0
560.76,161.0
560.83,161.0
560.89,193.0
560.95,191.0
561.01,183.0
561.08,181.0
561.14,188.0
561.2,163.0
561.27,175.0
561.33,172.0
561.39,155.0
561.46,177.0
561.52,163.0
561.58,156.0
561.64,163.0
561.71,178.0
561.77,174.0
561.83,183.0
561.9,175.0
561.96,173.0
562.02,165.0
562.09,193.0
562.15,161.0
562.21,157.0
562.27,171.0
562.34,157.0
562.4,167.0
562.46,176.0
562.53,156.0
562.59,148.0
562.65,150.0
562.72,144.0
562.78,166.0
562.84,157.0
562.9,153.0
562.97,163.0
563.03,155.0
563.09,149.0
563.16,142.0
563.22,143.0
563.28,151.0
563.35,152.0
563.41,136.0
563.47,132.0
563.53,134.0
563.6,142.0
563.66,153.0
563.72,170.0
563.79,169.0
563.85,136.0
563.91,142.0
563.98,150.0
564.04,162.0
564.1,172.0
564.16,170.0
564.23,152.0
564.29,164.0
564.35,155.0
564.42,157.0
564.48,162.0
564.54,168.0
564.61,147.0
564.67,159.0
564.73,186.0
564.79,183.0
564.86,185.0
564.92,180.0
564.98,182.0
565.05,170.0
565.11,170.0
565.17,179.0
565.24,202.0
565.3,191.0
565.36,188.0
565.42,196.0
565.49,197.0
565.55,192.0
565.61,176.0
565.68,197.0
565.74,173.0
565.8,198.0
565.87,195.0
565.93,190.0
565.99,188.0
566.05,182.0
566.12,193.0
566.18,189.0
566.24,185.0
566.31,192.0
566.37,204.0
566.43,200.0
566.5,213.0
566.56,200.0
566.62,192.0
566.68,204.0
566.75,193.0
566.81,170.0
566.87,198.0
566.94,198.0
567.0,215.0
567.06,203.0
567.13,175.0
567.19,174.0
567.25,174.0
567.31,183.0
567.38,164.0
567.44,152.0
567.5,164.0
567.57,163.0
567.63,161.0
567.69,164.0
567.76,162.0
567.82,133.0
567.88,135.0
567.94,157.0
568.01,136.0
568.07,120.0
568.13,129.0
568.2,115.0
568.26,95.0
568.32,108.0
568.39,117.0
568.45,111.0
568.51,112.0
568.57,140.0
568.64,111.0
568.7,99.0
568.76,94.0
568.83,94.0
568.89,99.0
568.95,96.0
569.02,104.0
569.08,108.0
569.14,103.0
569.2,102.0
569.27,115.0
569.33,109.0
569.39,108.0
569.46,81.0
569.52,79.0
569.58,82.0
569.65,80.0
569.71,77.0
569.77,89.0
569.83,92.0
569.9,83.0
569.96,91.0
570.02,94.0
570.09,83.0
570.15,93.0
570.21,72.0
570.28,82.0
570.34,75.0
570.4,94.0
570.46,76.0
570.53,80.0
570.59,74.0
570.65,50.0
570.72,61.0
570.78,57.0
570.84,57.0
570.91,40.0
570.97,32.0
571.03,20.0
571.09,24.0
571.16,24.0
571.22,7.0
571.28,15.0
571.35,7.0
571.41,4.0
571.47,18.0
571.54,31.0
571.6,23.0
571.66,24.0
571.72,1.0
571.79,-4.0
571.85,12.0
571.91,23.0
571.98,21.0
572.04,5.0
572.1,4.0
572.17,20.0
572.23,33.0
572.29,27.0
572.35,35.0
572.42,22.0
572.48,8.0
572.54,-18.0
572.61,-37.0
572.67,7.0
572.73,2.0
572.8,11.0
572.86,-15.0
572.92,2.0
572.98,16.0
573.05,17.0
573.11,25.0
573.17,10.0
573.24,2.0
573.3,8.0
573.36,24.0
573.43,11.0
573.49,7.0
573.55,9.0
573.61,4.0
573.68,-4.0
573.74,8.0
573.8,-5.0
573.87,-3.0
573.93,-16.0
573.99,0.0
574.06,0.0
574.12,-4.0
574.18,-19.0
574.24,-9.0
574.31,-13.0
574.37,5.0
574.43,-7.0
574.5,-9.0
574.56,-17.0
574.62,-12.0
574.69,-27.0
574.75,-24.0
574.81,-7.0
574.87,12.0
574.94,0.0
575.0,18.0
575.06,13.0
575.13,4.0
575.19,-3.0
575.25,-6.0
575.32,7.0
575.38,12.0
575.44,6.0
575.5,-7.0
575.57,-10.0
575.63,3.0
575.69,-13.0
575.76,-3.0
575.82,-12.0
575.88,21.0
575.95,21.0
576.01,25.0
576.07,37.0
576.13,32.0
576.2,39.0
576.26,36.0
576.32,47.0
576.39,44.0
576.45,32.0
576.51,25.0
576.58,19.0
576.64,16.0
576.7,26.0
576.76,8.0
576.83,32.0
576.89,29.0
576.95,14.0
577.02,16.0
577.08,25.0
577.14,13.0
577.21,36.0
577.27,36.0
577.33,32.0
577.39,25.0
577.46,23.0
577.52,25.0
577.58,36.0
577.65,14.0
577.71,6.0
577.77,9.0
577.84,9.0
577.9,7.0
577.96,14.0
578.02,-5.0
578.09,11.0
578.15,30.0
578.21,20.0
578.28,22.0
578.34,13.0
578.4,6.0
578.47,13.0
578.53,14.0
578.59,32.0
578.65,28.0
578.72,24.0
578.78,25.0
578.84,23.0
578.91,22.0
578.97,20.0
579.03,23.0
579.1,13.0
579.16,21.0
579.22,13.0
579.28,3.0
579.35,19.0
579.41,30.0
579.47,35.0
579.54,25.0
579.6,23.0
579.66,39.0
579.73,19.0
579.79,20.0
579.85,29.0
579.91,33.0
579.98,27.0
580.04,63.0
580.1,39.0
580.17,43.0
580.23,44.0
580.29,51.0
580.36,65.0
580.42,63.0
580.48,78.0
580.54,76.0
580.61,102.0
580.67,91.0
580.73,85.0
580.8,106.0
580.86,103.0
580.92,89.0
580.99,79.0
581.05,87.0
581.11,113.0
581.17,112.0
581.24,101.0
581.3,83.0
581.36,108.0
581.43,114.0
581.49,109.0
581.55,113.0
581.62,105.0
581.68,115.0
581.74,109.0
581.8,116.0
581.87,145.0
581.93,119.0
581.99,127.0
582.06,148.0
582.12,133.0
582.18,141.0
582.25,139.0
582.31,130.0
582.37,138.0
582.43,149.0
582.5,127.0
582.56,136.0
582.62,153.0
582.69,164.0
582.75,156.0
582.81,165.0
582.88,151.0
582.94,162.0
583.0,168.0
583.06,153.0
583.13,163.0
583.19,178.0
583.25,170.0
583.32,165.0
583.38,162.0
583.44,176.0
583.51,178.0
583.57,162.0
583.63,205.0
583.69,199.0
583.76,201.0
583.82,204.0
583.88,196.0
583.95,210.0
584.01,204.0
584.07,206.0
584.14,201.0
584.2,206.0
584.26,189.0
584.32,190.0
584.39,200.0
584.45,196.0
584.51,192.0
584.58,197.0
584.64,188.0
584.7,184.0
584.77,167.0
584.83,183.0
584.89,182.0
584.95,180.0
585.02,189.0
585.08,160.0
585.14,167.0
585.21,159.0
585.27,152.0
585.33,172.0
585.4,174.0
585.46,195.0
585.52,173.0
585.58,193.0
585.65,172.0
585.71,185.0
585.77,193.0
585.84,183.0
585.9,182.0
585.96,184.0
586.03,171.0
586.09,176.0
586.15,201.0
586.21,163.0
586.28,180.0
586.34,178.0
586.4,186.0
586.47,186.0
586.53,174.0
586.59,178.0
586.66,188.0
586.72,201.0
586.78,200.0
586.84,193.0
586.91,157.0
586.97,165.0
587.03,163.0
587.1,187.0
587.16,180.0
587.22,167.0
587.29,190.0
587.35,171.0
587.41,185.0
587.47,178.0
587.54,163.0
587.6,160.0
587.66,149.0
587.73,159.0
587.79,157.0
587.85,139.0
587.92,143.0
587.98,151.0
588.04,148.0
588.1,142.0
588.17,138.0
588.23,157.0
588.29,150.0
588.36,140.0
588.42,139.0
588.48,139.0
588.55,172.0
588.61,181.0
588.67,162.0
588.73,158.0
588.8,146.0
588.86,149.0
588.92,150.0
588.99,160.0
589.05,141.0
589.11,145.0
589.18,156.0
589.24,147.0
589.3,157.0
589.36,178.0
589.43,162.0
589.49,134.0
589.55,130.0
589.62,132.0
589.68,145.0
589.74,134.0
589.81,128.0
589.87,144.0
589.93,155.0
589.99,152.0
590.06,160.0
590.12,143.0
590.18,147.0
590.25,167.0
590.31,159.0
590.37,167.0
590.44,176.0
590.5,148.0
590.56,151.0
590.62,160.0
590.69,151.0
590.75,171.0
590.81,174.0
590.88,167.0
590.94,184.0
591.0,179.0
591.07,178.0
591.13,198.0
591.19,174.0
591.25,156.0
591.32,161.0
591.38,171.0
591.44,176.0
591.51,187.0
591.57,157.0
591.63,150.0
591.7,144.0
591.76,155.0
591.82,155.0
591.88,116.0
591.95,135.0
592.01,123.0
592.07,130.0
592.14,135.0
592.2,115.0
592.26,147.0
592.33,137.0
592.39,137.0
592.45,140.0
592.51,141.0
592.58,143.0
592.64,135.0
592.7,141.0
592.77,151.0
592.83,139.0
592.89,127.0
592.96,124.0
593.02,126.0
593.08,117.0
593.14,116.0
593.21,109.0
593.27,126.0
593.33,113.0
593.4,110.0
593.46,114.0
593.52,88.0
593.59,105.0
593.65,87.0
593.71,97.0
593.77,93.0
593.84,108.0
593.9,93.0
593.96,94.0
594.03,76.0
594.09,79.0
594.15,68.0
594.22,66.0
594.28,80.0
594.34,68.0
594.4,75.0
594.47,76.0
594.53,62.0
594.59,70.0
594.66,65.0
594.72,80.0
594.78,104.0
594.85,57.0
594.91,57.0
594.97,79.0
595.03,80.0
595.1,94.0
595.16,79.0
595.22,61.0
595.29,83.0
595.35,107.0
595.41,94.0
595.48,84.0
595.54,82.0
595.6,74.0
595.66,83.0
595.73,97.0
595.79,78.0
595.85,74.0
595.92,59.0
595.98,50.0
596.04,42.0
596.11,43.0
596.17,44.0
596.23,55.0
596.29,34.0
596.36,27.0
596.42,11.0
596.48,7.0
596.55,0.0
596.61,12.0
596.67,4.0
596.74,10.0
596.8,22.0
596.86,21.0
596.92,13.0
596.99,25.0
597.05,11.0
597.11,2.0
597.18,14.0
597.24,19.0
597.3,13.0
597.37,10.0
597.43,21.0
597.49,20.0
597.55,25.0
597.62,11.0
597.68,18.0
597.74,39.0
597.81,35.0
597.87,23.0
597.93,4.0
598.0,31.0
598.06,35.0
598.12,36.0
598.18,52.0
598.25,48.0
598.31,35.0
598.37,39.0
598.44,63.0
598.5,52.0
598.56,38.0
598.63,60.0
598.69,56.0
598.75,50.0
598.81,33.0
598.88,30.0
598.94,39.0
599.0,48.0
599.07,57.0
599.13,42.0
599.19,54.0
599.26,30.0
599.32,44.0
599.38,64.0
599.44,68.0
599.51,54.0
599.57,54.0
599.63,76.0
599.7,82.0
599.76,87.0
599.82,100.0
599.89,87.0
599.95,99.0
600.01,93.0
600.07,78.0
600.14,105.0
600.2,96.0
600.26,111.0
600.33,119.0
600.39,97.0
600.45,111.0
600.52,138.0
600.58,141.0
600.64,112.0
600.7,137.0
600.77,139.0
600.83,119.0
600.89,123.0
600.96,131.0
601.02,109.0
601.08,123.0
601.15,123.0
601.21,138.0
601.27,143.0
601.33,135.0
601.4,149.0
601.46,136.0
601.52,127.0
601.59,119.0
601.65,126.0
601.71,137.0
601.78,148.0
601.84,134.0
601.9,144.0
601.96,138.0
602.03,121.0
602.09,115.0
602.15,125.0
602.22,120.0
602.28,117.0
602.34,102.0
602.41,109.0
602.47,109.0
602.53,106.0
602.59,84.0
602.66,85.0
602.72,84.0
602.78,85.0
602.85,85.0
602.91,90.0
602.97,100.0
603.04,112.0
603.1,105.0
603.16,84.0
603.22,87.0
603.29,75.0
603.35,78.0
603.41,76.0
603.48,82.0
603.54,77.0
603.6,76.0
603.67,84.0
603.73,104.0
603.79,86.0
603.85,93.0
603.92,103.0
603.98,107.0
604.04,115.0
604.11,104.0
604.17,100.0
604.23,111.0
604.3,115.0
604.36,98.0
604.42,117.0
604.48,127.0
604.55,123.0
604.61,118.0
604.67,99.0
604.74,97.0
604.8,110.0
604.86,94.0
604.93,102.0
604.99,91.0
605.05,87.0
605.11,108.0
605.18,105.0
605.24,87.0
605.3,80.0
605.37,86.0
605.43,95.0
605.49,92.0
605.56,90.0
605.62,108.0
605.68,109.0
605.74,100.0
605.81,102.0
605.87,115.0
605.93,117.0
606.0,118.0
606.06,112.0
606.12,95.0
606.19,115.0
606.25,123.0
606.31,123.0
606.37,128.0
606.44,116.0
606.5,146.0
606.56,157.0
606.63,119.0
606.69,134.0
606.75,123.0
606.82,119.0
606.88,117.0
606.94,129.0
607.0,126.0
607.07,113.0
607.13,108.0
607.19,130.0
607.26,150.0
607.32,119.0
607.38,117.0
607.45,116.0
607.51,92.0
607.57,96.0
607.63,99.0
607.7,110.0
607.76,104.0
607.82,134.0
607.89,149.0
607.95,150.0
608.01,131.0
608.08,120.0
608.14,143.0
608.2,159.0
608.26,138.0
608.33,134.0
608.39,157.0
608.45,148.0
608.52,145.0
608.58,146.0
608.64,144.0
608.71,138.0
608.77,128.0
608.83,145.0
608.89,131.0
608.96,129.0
609.02,135.0
609.08,141.0
609.15,148.0
609.21,147.0
609.27,140.0
609.34,123.0
609.4,141.0
609.46,122.0
609.52,127.0
609.59,148.0
609.65,138.0
609.71,140.0
609.78,157.0
609.84,152.0
609.9,142.0
609.97,148.0
610.03,157.0
610.09,136.0
610.15,118.0
610.22,137.0
610.28,122.0
610.34,132.0
610.41,135.0
610.47,131.0
610.53,143.0
610.6,142.0
610.66,134.0
610.72,126.0
610.78,120.0
610.85,145.0
610.91,130.0
610.97,127.0
611.04,93.0
611.1,91.0
611.16,114.0
611.23,118.0
611.29,121.0
611.35,99.0
611.41,113.0
611.48,112.0
611.54,120.0
611.6,116.0
611.67,113.0
611.73,116.0
611.79,132.0
611.86,120.0
611.92,104.0
611.98,117.0
612.04,122.0
612.11,112.0
612.17,108.0
612.23,107.0
612.3,93.0
612.36,126.0
612.42,104.0
612.49,94.0
612.55,71.0
612.61,73.0
612.67,70.0
612.74,93.0
612.8,87.0
612.86,77.0
612.93,83.0
612.99,58.0
613.05,68.0
613.12,72.0
613.18,67.0
613.24,55.0
613.3,49.0
613.37,32.0
613.43,37.0
613.49,49.0
613.56,40.0
613.62,34.0
613.68,7.0
613.75,27.0
613.81,28.0
613.87,35.0
613.93,49.0
614.0,38.0
614.06,39.0
614.12,61.0
614.19,64.0
614.25,38.0
614.31,42.0
614.38,51.0
614.44,29.0
614.5,37.0
614.56,49.0
614.63,63.0
614.69,66.0
614.75,53.0
614.82,52.0
614.88,76.0
614.94,69.0
615.01,62.0
615.07,87.0
615.13,92.0
615.19,66.0
615.26,82.0
615.32,74.0
615.38,93.0
615.45,91.0
615.51,99.0
615.57,119.0
615.64,107.0
615.7,87.0
615.76,89.0
615.82,97.0
615.89,102.0
615.95,117.0
616.01,141.0
616.08,128.0
616.14,111.0
616.2,97.0
616.27,94.0
616.33,120.0
616.39,104.0
616.45,112.0
616.52,130.0
616.58,114.0
616.64,126.0
616.71,99.0
616.77,114.0
616.83,115.0
616.9,110.0
616.96,125.0
617.02,124.0
617.08,131.0
617.15,135.0
617.21,126.0
617.27,141.0
617.34,127.0
617.4,139.0
617.46,123.0
617.53,135.0
617.59,124.0
617.65,124.0
617.71,124.0
617.78,113.0
617.84,110.0
617.9,104.0
617.97,125.0
618.03,111.0
618.09,102.0
618.16,112.0
618.22,96.0
618.28,98.0
618.34,101.0
618.41,86.0
618.47,96.0
618.53,96.0
618.6,93.0
618.66,88.0
618.72,88.0
618.79,110.0
618.85,73.0
618.91,65.0
618.97,61.0
619.04,85.0
619.1,81.0
619.16,76.0
619.23,53.0
619.29,47.0
619.35,59.0
619.42,61.0
619.48,63.0
619.54,70.0
619.6,49.0
619.67,46.0
619.73,49.0
619.79,54.0
619.86,57.0
619.92,50.0
619.98,44.0
620.05,61.0
620.11,61.0
620.17,63.0
620.23,60.0
620.3,40.0
620.36,69.0
620.42,43.0
620.49,48.0
620.55,65.0
620.61,56.0
620.68,63.0
620.74,72.0
620.8,58.0
620.86,46.0
620.93,42.0
620.99,43.0
621.05,46.0
621.12,53.0
621.18,38.0
621.24,37.0
621.31,37.0
621.37,28.0
621.43,9.0
621.49,13.0
621.56,17.0
621.62,36.0
621.68,25.0
621.75,11.0
621.81,10.0
621.87,10.0
621.94,19.0
622.0,8.0
622.06,28.0
622.12,35.0
622.19,42.0
622.25,43.0
622.31,43.0
622.38,31.0
622.44,30.0
622.5,40.0
622.57,55.0
622.63,41.0
622.69,52.0
622.75,49.0
622.82,46.0
622.88,55.0
622.94,58.0
623.01,72.0
623.07,65.0
623.13,63.0
623.2,61.0
623.26,66.0
623.32,66.0
623.38,50.0
623.45,64.0
623.51,69.0
623.57,61.0
623.64,61.0
623.7,75.0
623.76,83.0
623.83,100.0
623.89,105.0
623.95,101.0
624.01,81.0
624.08,101.0
624.14,83.0
624.2,63.0
624.27,58.0
624.33,72.0
624.39,62.0
624.46,80.0
624.52,86.0
624.58,88.0
624.64,106.0
624.71,89.0
624.77,97.0
624.83,109.0
624.9,101.0
624.96,120.0
625.02,127.0
625.09,116.0
625.15,115.0
625.21,117.0
625.27,104.0
625.34,99.0
625.4,104.0
625.46,97.0
625.53,110.0
625.59,113.0
625.65,116.0
625.72,136.0
625.78,132.0
625.84,130.0
625.9,138.0
625.97,156.0
626.03,145.0
626.09,138.0
626.16,119.0
626.22,145.0
626.28,143.0
626.35,140.0
626.41,148.0
626.47,137.0
626.53,133.0
626.6,148.0
626.66,145.0
626.72,153.0
626.79,148.0
626.85,145.0
626.91,141.0
626.98,145.0
627.04,151.0
627.1,149.0
627.16,142.0
627.23,136.0
627.29,131.0
627.35,125.0
627.42,112.0
627.48,133.0
627.54,141.0
627.61,135.0
627.67,141.0
627.73,138.0
627.79,145.0
627.86,141.0
627.92,148.0
627.98,127.0
628.05,130.0
628.11,137.0
628.17,145.0
628.24,144.0
628.3,121.0
628.36,116.0
628.42,132.0
628.49,133.0
628.55,104.0
628.61,103.0
628.68,104.0
628.74,101.0
628.8,104.0
628.87,87.0
628.93,90.0
628.99,82.0
629.05,90.0
629.12,93.0
629.18,93.0
629.24,85.0
629.31,72.0
629.37,72.0
629.43,89.0
629.5,103.0
629.56,98.0
629.62,90.0
629.68,82.0
629.75,88.0
629.81,72.0
629.87,83.0
629.94,88.0
630.0,88.0
630.06,96.0
630.13,70.0
630.19,80.0
630.25,80.0
630.31,88.0
630.38,76.0
630.44,75.0
630.5,76.0
630.57,83.0
630.63,73.0
630.69,68.0
630.76,72.0
630.82,62.0
630.88,78.0
630.94,74.0
631.01,79.0
631.07,79.0
631.13,87.0
631.2,87.0
631.26,102.0
631.32,93.0
631.39,96.0
631.45,91.0
631.51,80.0
631.57,80.0
631.64,73.0
631.7,75.0
631.76,90.0
631.83,92.0
631.89,82.0
631.95,67.0
632.02,60.0
632.08,80.0
632.14,101.0
632.2,74.0
632.27,79.0
632.33,75.0
632.39,63.0
632.46,73.0
632.52,69.0
632.58,69.0
632.65,101.0
632.71,88.0
632.77,85.0
632.83,94.0
632.9,87.0
632.96,101.0
633.02,108.0
633.09,94.0
633.15,96.0
633.21,93.0
633.28,99.0
633.34,102.0
633.4,120.0
633.46,124.0
633.53,125.0
633.59,141.0
633.65,145.0
633.72,126.0
633.78,121.0
633.84,107.0
633.91,97.0
633.97,111.0
634.03,97.0
634.09,122.0
634.16,122.0
634.22,110.0
634.28,104.0
634.35,110.0
634.41,112.0
634.47,116.0
634.54,107.0
634.6,111.0
634.66,108.0
634.72,97.0
634.79,96.0
634.85,83.0
634.91,95.0
634.98,97.0
635.04,99.0
635.1,77.0
635.17,78.0
635.23,96.0
635.29,83.0
635.35,60.0
635.42,71.0
635.48,71.0
635.54,79.0
635.61,71.0
635.67,70.0
635.73,82.0
635.8,107.0
635.86,92.0
635.92,77.0
635.98,69.0
636.05,68.0
636.11,80.0
636.17,77.0
636.24,86.0
636.3,84.0
636.36,68.0
636.43,74.0
636.49,93.0
636.55,58.0
636.61,68.0
636.68,81.0
636.74,69.0
636.8,80.0
636.87,79.0
636.93,85.0
636.99,66.0
637.06,57.0
637.12,60.0
637.18,60.0
637.24,78.0
637.31,80.0
637.37,93.0
637.43,85.0
637.5,73.0
637.56,85.0
637.62,94.0
637.69,91.0
637.75,88.0
637.81,93.0
637.87,98.0
637.94,81.0
638.0,80.0
638.06,72.0
638.13,74.0
638.19,92.0
638.25,99.0
638.32,82.0
638.38,75.0
638.44,79.0
638.5,79.0
638.57,99.0
638.63,94.0
638.69,83.0
638.76,88.0
638.82,102.0
638.88,85.0
638.95,85.0
639.01,101.0
639.07,91.0
639.13,75.0
639.2,95.0
639.26,104.0
639.32,106.0
639.39,112.0
639.45,117.0
639.51,123.0
639.58,119.0
639.64,94.0
639.7,86.0
639.76,105.0
639.83,91.0
639.89,112.0
639.95,109.0
640.02,110.0
640.08,124.0
640.14,99.0
640.21,115.0
640.27,139.0
640.33,124.0
640.39,135.0
640.46,148.0
640.52,134.0
640.58,126.0
640.65,129.0
640.71,133.0
640.77,150.0
640.84,134.0
640.9,145.0
640.96,138.0
641.02,142.0
641.09,127.0
641.15,145.0
641.21,127.0
641.28,148.0
641.34,143.0
641.4,158.0
641.47,176.0
641.53,178.0
641.59,174.0
641.65,180.0
641.72,196.0
641.78,185.0
641.84,184.0
641.91,176.0
641.97,203.0
642.03,202.0
642.1,220.0
642.16,200.0
642.22,185.0
642.28,197.0
642.35,195.0
642.41,200.0
642.47,208.0
642.54,231.0
642.6,222.0
642.66,221.0
642.73,211.0
642.79,212.0
642.85,221.0
642.91,224.0
642.98,208.0
643.04,204.0
643.1,215.0
643.17,225.0
643.23,194.0
643.29,180.0
643.36,187.0
643.42,176.0
643.48,183.0
643.54,171.0
643.61,165.0
643.67,178.0
643.73,175.0
643.8,163.0
643.86,139.0
643.92,154.0
643.99,168.0
644.05,145.0
644.11,166.0
644.17,153.0
644.24,154.0
644.3,157.0
644.36,180.0
644.43,184.0
644.49,158.0
644.55,167.0
644.62,157.0
644.68,153.0
644.74,146.0
644.8,135.0
644.87,152.0
644.93,172.0
644.99,182.0
645.06,160.0
645.12,165.0
645.18,171.0
645.25,167.0
645.31,158.0
645.37,163.0
645.43,156.0
645.5,170.0
645.56,163.0
645.62,146.0
645.69,146.0
645.75,136.0
645.81,119.0
645.88,140.0
645.94,125.0
646.0,133.0
646.06,121.0
646.13,124.0
646.19,119.0
646.25,116.0
646.32,119.0
646.38,127.0
646.44,116.0
646.51,127.0
646.57,119.0
646.63,130.0
646.69,112.0
646.76,107.0
646.82,109.0
646.88,99.0
646.95,99.0
647.01,87.0
647.07,77.0
647.14,64.0
647.2,87.0
647.26,79.0
647.32,78.0
647.39,85.0
647.45,87.0
647.51,61.0
647.58,53.0
647.64,59.0
647.7,61.0
647.77,61.0
647.83,69.0
647.89,67.0
647.95,80.0
648.02,91.0
648.08,97.0
648.14,68.0
648.21,90.0
648.27,81.0
648.33,101.0
648.4,77.0
648.46,79.0
648.52,95.0
648.58,90.0
648.65,64.0
648.71,79.0
648.77,86.0
648.84,74.0
648.9,82.0
648.96,67.0
649.03,88.0
649.09,70.0
649.15,77.0
649.21,78.0
649.28,89.0
649.34,96.0
649.4,91.0
649.47,96.0
649.53,83.0
649.59,86.0
649.66,79.0
649.72,72.0
649.78,93.0
649.84,71.0
649.91,91.0
649.97,101.0
650.03,87.0
650.1,79.0
650.16,89.0
650.22,104.0
650.29,115.0
650.35,117.0
650.41,124.0
650.47,122.0
650.54,108.0
650.6,120.0
650.66,107.0
650.73,113.0
650.79,113.0
650.85,118.0
650.92,131.0
650.98,93.0
651.04,106.0
651.1,120.0
651.17,111.0
651.23,121.0
651.29,132.0
651.36,115.0
651.42,123.0
651.48,108.0
651.55,116.0
651.61,109.0
651.67,111.0
651.73,105.0
651.8,98.0
651.86,104.0
651.92,80.0
651.99,96.0
652.05,94.0
652.11,108.0
652.18,79.0
652.24,90.0
652.3,103.0
652.36,86.0
652.43,101.0
652.49,78.0
652.55,87.0
652.62,96.0
652.68,63.0
652.74,76.0
652.81,74.0
652.87,76.0
652.93,80.0
652.99,58.0
653.06,65.0
653.12,51.0
653.18,61.0
653.25,46.0
653.31,55.0
653.37,45.0
653.44,61.0
653.5,50.0
653.56,41.0
653.62,37.0
653.69,43.0
653.75,58.0
653.81,75.0
653.88,52.0
653.94,74.0
654.0,68.0
654.07,47.0
654.13,28.0
654.19,23.0
654.25,13.0
654.32,18.0
654.38,7.0
654.44,12.0
654.51,14.0
654.57,16.0
654.63,24.0
654.7,3.0
654.76,0.0
654.82,-1.0
654.88,-14.0
654.95,-7.0
655.01,-15.0
655.07,-19.0
655.14,-5.0
655.2,-21.0
655.26,-21.0
655.33,-11.0
655.39,-14.0
655.45,-6.0
655.51,-1.0
655.58,-21.0
655.64,6.0
655.7,17.0
655.77,9.0
655.83,2.0
655.89,-14.0
655.96,8.0
656.02,-12.0
656.08,11.0
656.14,15.0
656.21,4.0
656.27,8.0
656.33,12.0
656.4,7.0
656.46,15.0
656.52,29.0
656.59,44.0
656.65,17.0
656.71,18.0
656.77,20.0
656.84,38.0
656.9,38.0
656.96,47.0
657.03,33.0
657.09,37.0
657.15,40.0
657.22,50.0
657.28,57.0
657.34,61.0
657.4,62.0
657.47,70.0
657.53,68.0
657.59,71.0
657.66,86.0
657.72,74.0
657.78,71.0
657.85,77.0
657.91,63.0
657.97,80.0
658.03,82.0
658.1,79.0
658.16,73.0
658.22,66.0
658.29,72.0
658.35,60.0
658.41,66.0
658.48,79.0
658.54,70.0
658.6,65.0
658.66,66.0
658.73,58.0
658.79,60.0
658.85,79.0
658.92,97.0
658.98,87.0
659.04,73.0
659.11,89.0
659.17,91.0
659.23,97.0
659.29,86.0
659.36,94.0
659.42,107.0
659.48,115.0
659.55,117.0
659.61,120.0
659.67,120.0
659.74,121.0
659.8,117.0
659.86,128.0
659.92,117.0
659.99,128.0
660.05,103.0
660.11,113.0
660.18,106.0
660.24,140.0
660.3,140.0
660.37,106.0
660.43,132.0
660.49,130.0
660.55,132.0
660.62,138.0
660.68,106.0
660.74,119.0
660.81,95.0
660.87,104.0
660.93,117.0
661.0,101.0
661.06,92.0
661.12,106.0
661.18,99.0
661.25,120.0
661.31,109.0
661.37,112.0
661.44,126.0
661.5,121.0
661.56,121.0
661.63,137.0
661.69,140.0
661.75,120.0
661.81,132.0
661.88,135.0
661.94,148.0
662.0,154.0
662.07,147.0
662.13,160.0
662.19,137.0
662.26,145.0
662.32,156.0
662.38,139.0
662.44,138.0
662.51,154.0
662.57,144.0
662.63,113.0
662.7,118.0
662.76,107.0
662.82,85.0
662.89,104.0
662.95,112.0
663.01,92.0
663.07,80.0
663.14,100.0
663.2,100.0
663.26,110.0
663.33,111.0
663.39,109.0
663.45,122.0
663.52,118.0
663.58,105.0
663.64,95.0
663.7,104.0
663.77,132.0
663.83,125.0
663.89,111.0
663.96,121.0
664.02,130.0
664.08,135.0
664.15,142.0
664.21,130.0
664.27,142.0
664.33,143.0
664.4,131.0
664.46,136.0
664.52,148.0
664.59,149.0
664.65,136.0
664.71,138.0
664.78,147.0
664.84,156.0
664.9,154.0
664.96,155.0
665.03,156.0
665.09,144.0
665.15,155.0
665.22,159.0
665.28,147.0
665.34,164.0
665.41,161.0
665.47,141.0
665.53,150.0
665.59,160.0
665.66,179.0
665.72,163.0
665.78,159.0
665.85,158.0
665.91,168.0
665.97,164.0
666.04,165.0
666.1,182.0
666.16,169.0
666.22,164.0
666.29,161.0
666.35,171.0
666.41,183.0
666.48,182.0
666.54,173.0
666.6,190.0
666.67,193.0
666.73,205.0
666.79,190.0
666.85,180.0
666.92,208.0
666.98,196.0
667.04,206.0
667.11,193.0
667.17,203.0
667.23,201.0
667.3,206.0
667.36,210.0
667.42,192.0
667.48,194.0
667.55,179.0
667.61,198.0
667.67,210.0
667.74,215.0
667.8,201.0
667.86,194.0
667.93,215.0
667.99,223.0
668.05,230.0
668.11,234.0
668.18,217.0
668.24,221.0
668.3,231.0
668.37,205.0
668.43,195.0
668.49,193.0
668.56,172.0
668.62,174.0
668.68,175.0
668.74,165.0
668.81,164.0
668.87,170.0
668.93,169.0
669.0,156.0
669.06,153.0
669.12,149.0
669.19,143.0
669.25,149.0
669.31,146.0
669.37,132.0
669.44,143.0
669.5,164.0
669.56,146.0
669.63,154.0
669.69,135.0
669.75,153.0
669.82,174.0
669.88,169.0
669.94,171.0
670.0,131.0
670.07,152.0
670.13,159.0
670.19,154.0
670.26,141.0
670.32,134.0
670.38,142.0
670.45,147.0
670.51,142.0
670.57,150.0
670.63,128.0
670.7,129.0
670.76,132.0
670.82,143.0
670.89,131.0
670.95,134.0
671.01,139.0
671.08,129.0
671.14,139.0
671.2,137.0
671.26,144.0
671.33,142.0
671.39,145.0
671.45,138.0
671.52,139.0
671.58,131.0
671.64,134.0
671.71,101.0
671.77,102.0
671.83,99.0
671.89,110.0
671.96,107.0
672.02,80.0
672.08,63.0
672.15,74.0
672.21,83.0
672.27,69.0
672.34,75.0
672.4,76.0
672.46,75.0
672.52,70.0
672.59,79.0
672.65,86.0
672.71,86.0
672.78,91.0
672.84,84.0
672.9,91.0
672.97,83.0
673.03,63.0
673.09,69.0
673.15,68.0
673.22,75.0
673.28,61.0
673.34,60.0
673.41,69.0
673.47,83.0
673.53,75.0
673.6,48.0
673.66,62.0
673.72,67.0
673.78,58.0
673.85,70.0
673.91,63.0
673.97,73.0
674.04,69.0
674.1,69.0
674.16,74.0
674.23,91.0
674.29,87.0
674.35,60.0
674.41,66.0
674.48,60.0
674.54,68.0
674.6,94.0
674.67,95.0
674.73,97.0
674.79,91.0
674.86,88.0
674.92,83.0
674.98,93.0
675.04,110.0
675.11,103.0
675.17,97.0
675.23,91.0
675.3,88.0
675.36,82.0
675.42,76.0
675.49,85.0
675.55,80.0
675.61,79.0
675.67,95.0
675.74,88.0
675.8,87.0
675.86,70.0
675.93,79.0
675.99,105.0
676.05,95.0
676.12,101.0
676.18,88.0
676.24,98.0
676.3,99.0
676.37,84.0
676.43,94.0
676.49,91.0
676.56,99.0
676.62,85.0
676.68,84.0
676.75,100.0
676.81,80.0
676.87,91.0
676.93,66.0
677.0,71.0
677.06,71.0
677.12,77.0
677.19,73.0
677.25,81.0
677.31,80.0
677.38,69.0
677.44,78.0
677.5,75.0
677.56,53.0
677.63,80.0
677.69,80.0
677.75,73.0
677.82,96.0
677.88,88.0
677.94,94.0
678.01,88.0
678.07,93.0
678.13,104.0
678.19,99.0
678.26,85.0
678.32,85.0
678.38,96.0
678.45,89.0
678.51,66.0
678.57,72.0
678.64,80.0
678.7,83.0
678.76,86.0
678.82,64.0
678.89,67.0
678.95,74.0
679.01,68.0
679.08,54.0
679.14,66.0
679.2,77.0
679.27,64.0
679.33,62.0
679.39,44.0
679.45,36.0
679.52,46.0
679.58,29.0
679.64,35.0
679.71,29.0
679.77,7.0
679.83,3.0
679.9,5.0
679.96,14.0
680.02,15.0
680.08,7.0
680.15,5.0
680.21,-2.0
680.27,-1.0
680.34,-13.0
680.4,-14.0
680.46,-8.0
680.53,-11.0
680.59,-6.0
680.65,2.0
680.71,6.0
680.78,1.0
680.84,-2.0
680.9,10.0
680.97,20.0
681.03,12.0
681.09,16.0
681.16,24.0
681.22,-3.0
681.28,15.0
681.34,40.0
681.41,34.0
681.47,11.0
681.53,19.0
681.6,36.0
681.66,28.0
681.72,31.0
681.79,35.0
681.85,47.0
681.91,42.0
681.97,34.0
682.04,53.0
682.1,66.0
682.16,52.0
682.23,62.0
682.29,58.0
682.35,60.0
682.42,70.0
682.48,70.0
682.54,69.0
682.6,59.0
682.67,52.0
682.73,65.0
682.79,52.0
682.86,45.0
682.92,69.0
682.98,74.0
683.05,83.0
683.11,86.0
683.17,96.0
683.23,133.0
683.3,106.0
683.36,109.0
683.42,119.0
683.49,109.0
683.55,130.0
683.61,123.0
683.68,120.0
683.74,127.0
683.8,122.0
683.86,139.0
683.93,133.0
683.99,139.0
684.05,156.0
684.12,136.0
684.18,137.0
684.24,159.0
684.31,143.0
684.37,160.0
684.43,148.0
684.49,129.0
684.56,143.0
684.62,150.0
684.68,170.0
684.75,177.0
684.81,185.0
684.87,162.0
684.94,175.0
685.0,182.0
685.06,171.0
685.12,180.0
685.19,158.0
685.25,161.0
685.31,172.0
685.38,162.0
685.44,172.0
685.5,176.0
685.57,194.0
685.63,189.0
685.69,187.0
685.75,187.0
685.82,189.0
685.88,173.0
685.94,192.0
686.01,178.0
686.07,143.0
686.13,177.0
686.2,165.0
686.26,169.0
686.32,171.0
686.38,173.0
686.45,184.0
686.51,163.0
686.57,161.0
686.64,176.0
686.7,184.0
686.76,181.0
686.83,185.0
686.89,199.0
686.95,209.0
687.01,191.0
687.08,207.0
687.14,198.0
687.2,180.0
687.27,174.0
687.33,186.0
687.39,173.0
687.46,183.0
687.52,165.0
687.58,165.0
687.64,155.0
687.71,155.0
687.77,172.0
687.83,163.0
687.9,174.0
687.96,162.0
688.02,153.0
688.09,164.0
688.15,166.0
688.21,179.0
688.27,190.0
688.34,163.0
688.4,175.0
688.46,155.0
688.53,160.0
688.59,146.0
688.65,133.0
688.72,157.0
688.78,156.0
688.84,172.0
688.9,173.0
688.97,165.0
689.03,152.0
689.09,168.0
689.16,175.0
689.22,170.0
689.28,167.0
689.35,176.0
689.41,193.0
689.47,178.0
689.53,221.0
689.6,197.0
689.66,200.0
689.72,199.0
689.79,214.0
689.85,213.0
689.91,215.0
689.98,232.0
690.04,229.0
690.1,213.0
690.16,221.0
690.23,217.0
690.29,185.0
690.35,213.0
690.42,194.0
690.48,191.0
690.54,191.0
690.61,184.0
690.67,200.0
690.73,189.0
690.79,175.0
690.86,188.0
690.92,185.0
690.98,197.0
691.05,185.0
691.11,179.0
691.17,178.0
691.24,184.0
691.3,190.0
691.36,201.0
691.42,201.0
691.49,199.0
691.55,179.0
691.61,166.0
691.68,178.0
691.74,186.0
691.8,201.0
691.87,218.0
691.93,210.0
691.99,220.0
692.05,227.0
692.12,235.0
692.18,210.0
692.24,214.0
692.31,204.0
692.37,214.0
692.43,207.0
692.5,204.0
692.56,215.0
692.62,217.0
692.68,209.0
692.75,199.0
692.81,197.0
692.87,197.0
692.94,186.0
693.0,177.0
693.06,198.0
693.13,191.0
693.19,191.0
693.25,211.0
693.31,186.0
693.38,202.0
693.44,199.0
693.5,198.0
693.57,208.0
693.63,193.0
693.69,203.0
693.76,201.0
693.82,190.0
693.88,206.0
693.94,210.0
694.01,207.0
694.07,212.0
694.13,208.0
694.2,220.0
694.26,199.0
694.32,184.0
694.39,197.0
694.45,192.0
694.51,199.0
694.57,192.0
694.64,186.0
694.7,201.0
694.76,202.0
694.83,199.0
694.89,191.0
694.95,196.0
695.02,201.0
695.08,200.0
695.14,177.0
695.2,184.0
695.27,205.0
695.33,192.0
695.39,193.0
695.46,185.0
695.52,191.0
695.58,171.0
695.65,177.0
695.71,179.0
695.77,163.0
695.83,168.0
695.9,165.0
695.96,170.0
696.02,180.0
696.09,166.0
696.15,164.0
696.21,177.0
696.28,158.0
696.34,139.0
696.4,125.0
696.46,131.0
696.53,119.0
696.59,118.0
696.65,119.0
696.72,124.0
696.78,98.0
696.84,86.0
696.91,83.0
696.97,113.0
697.03,105.0
697.09,78.0
697.16,100.0
697.22,100.0
697.28,90.0
697.35,81.0
697.41,87.0
697.47,85.0
697.54,61.0
697.6,56.0
697.66,52.0
697.72,57.0
697.79,51.0
697.85,57.0
697.91,53.0
697.98,53.0
698.04,71.0
698.1,65.0
698.17,66.0
698.23,70.0
698.29,63.0
698.35,58.0
698.42,77.0
698.48,53.0
698.54,63.0
698.61,71.0
698.67,72.0
698.73,78.0
698.8,38.0
698.86,44.0
698.92,38.0
698.98,34.0
699.05,32.0
699.11,32.0
699.17,51.0
699.24,50.0
699.3,56.0
699.36,49.0
699.43,50.0
699.49,46.0
699.55,41.0
699.61,38.0
699.68,47.0
699.74,18.0
699.8,19.0
699.87,34.0
699.93,57.0
699.99,85.0
700.06,63.0
700.12,50.0
700.18,56.0
700.24,41.0
700.31,54.0
700.37,82.0
700.43,69.0
700.5,83.0
700.56,80.0
700.62,79.0
700.69,88.0
700.75,73.0
700.81,79.0
700.87,93.0
700.94,91.0
701.0,91.0
701.06,80.0
701.13,66.0
701.19,79.0
701.25,86.0
701.32,83.0
701.38,55.0
701.44,61.0
701.5,51.0
701.57,71.0
701.63,62.0
701.69,63.0
701.76,74.0
701.82,61.0
701.88,67.0
701.95,51.0
702.01,65.0
702.07,51.0
702.13,56.0
702.2,45.0
702.26,13.0
702.32,56.0
702.39,39.0
702.45,23.0
702.51,44.0
702.58,19.0
702.64,29.0
702.7,30.0
702.76,39.0
702.83,33.0
702.89,26.0
702.95,16.0
703.02,3.0
703.08,-2.0
703.14,19.0
703.21,22.0
703.27,20.0
703.33,31.0
703.39,22.0
703.46,23.0
703.52,45.0
703.58,50.0
703.65,53.0
703.71,49.0
703.77,55.0
703.84,56.0
703.9,56.0
703.96,53.0
704.02,48.0
704.09,37.0
704.15,35.0
704.21,54.0
704.28,47.0
704.34,46.0
704.4,47.0
704.47,44.0
704.53,51.0
704.59,41.0
704.65,39.0
704.72,20.0
704.78,32.0
704.84,44.0
704.91,48.0
704.97,46.0
705.03,24.0
705.1,33.0
705.16,31.0
705.22,16.0
705.28,30.0
705.35,14.0
705.41,18.0
705.47,29.0
705.54,19.0
705.6,37.0
705.66,32.0
705.73,-11.0
705.79,-9.0
705.85,23.0
705.91,7.0
705.98,7.0
706.04,1.0
706.1,-9.0
706.17,2.0
706.23,-7.0
706.29,-1.0
706.36,24.0
706.42,-6.0
706.48,-20.0
706.54,-3.0
706.61,20.0
706.67,3.0
706.73,8.0
706.8,8.0
706.86,16.0
706.92,11.0
706.99,19.0
707.05,18.0
707.11,35.0
707.17,32.0
707.24,22.0
707.3,32.0
707.36,36.0
707.43,47.0
707.49,52.0
707.55,13.0
707.62,32.0
707.68,45.0
707.74,65.0
707.8,76.0
707.87,63.0
707.93,75.0
707.99,72.0
708.06,62.0
708.12,64.0
708.18,65.0
708.25,81.0
708.31,79.0
708.37,81.0
708.43,81.0
708.5,91.0
708.56,109.0
708.62,89.0
708.69,72.0
708.75,78.0
708.81,80.0
708.88,109.0
708.94,94.0
709.0,97.0
709.06,106.0
709.13,127.0
709.19,99.0
709.25,93.0
709.32,105.0
709.38,120.0
709.44,111.0
709.51,124.0
709.57,130.0
709.63,123.0
709.69,137.0
709.76,136.0
709.82,130.0
709.88,138.0
709.95,134.0
710.01,143.0
710.07,138.0
710.14,138.0
710.2,152.0
710.26,166.0
710.32,143.0
710.39,166.0
710.45,134.0
710.51,144.0
710.58,127.0
710.64,138.0
710.7,140.0
710.77,131.0
710.83,136.0
710.89,142.0
710.95,156.0
711.02,152.0
711.08,157.0
711.14,167.0
711.21,161.0
711.27,184.0
711.33,209.0
711.4,193.0
711.46,182.0
711.52,197.0
711.58,186.0
711.65,169.0
711.71,159.0
711.77,174.0
711.84,188.0
711.9,176.0
711.96,192.0
712.03,179.0
712.09,172.0
712.15,178.0
712.21,198.0
712.28,190.0
712.34,180.0
712.4,184.0
712.47,189.0
712.53,185.0
712.59,176.0
712.66,163.0
712.72,171.0
712.78,167.0
712.84,174.0
712.91,159.0
712.97,143.0
713.03,143.0
713.1,147.0
713.16,167.0
713.22,156.0
713.29,139.0
713.35,138.0
713.41,135.0
713.47,135.0
713.54,144.0
713.6,112.0
713.66,111.0
713.73,104.0
713.79,109.0
713.85,113.0
713.92,98.0
713.98,80.0
714.04,96.0
714.1,74.0
714.17,66.0
714.23,69.0
714.29,61.0
714.36,86.0
714.42,80.0
714.48,54.0
714.55,70.0
714.61,72.0
714.67,75.0
714.73,76.0
714.8,74.0
714.86,50.0
714.92,50.0
714.99,58.0
715.05,60.0
715.11,60.0
715.18,54.0
715.24,49.0
715.3,44.0
715.36,52.0
715.43,52.0
715.49,63.0
715.55,38.0
715.62,40.0
715.68,46.0
715.74,54.0
715.81,68.0
715.87,78.0
715.93,85.0
715.99,72.0
716.06,65.0
716.12,76.0
716.18,77.0
716.25,53.0
716.31,50.0
716.37,66.0
716.44,71.0
716.5,57.0
716.56,62.0
716.62,81.0
716.69,63.0
716.75,67.0
716.81,67.0
716.88,71.0
716.94,87.0
717.0,85.0
717.07,78.0
717.13,105.0
717.19,111.0
717.25,90.0
717.32,103.0
717.38,93.0
717.44,108.0
717.51,127.0
717.57,112.0
717.63,112.0
717.7,122.0
717.76,138.0
717.82,141.0
717.88,128.0
717.95,130.0
718.01,122.0
718.07,127.0
718.14,152.0
718.2,133.0
718.26,126.0
718.33,135.0
718.39,124.0
718.45,114.0
718.51,115.0
718.58,111.0
718.64,122.0
718.7,115.0
718.77,98.0
718.83,115.0
718.89,119.0
718.96,115.0
719.02,116.0
719.08,127.0
719.14,128.0
719.21,119.0
719.27,110.0
719.33,143.0
719.4,124.0
719.46,118.0
719.52,123.0
719.59,113.0
719.65,116.0
719.71,114.0
719.77,115.0
719.84,111.0
719.9,101.0
719.96,107.0
720.03,83.0
720.09,91.0
720.15,96.0
720.22,103.0
720.28,105.0
720.34,99.0
720.4,102.0
720.47,116.0
720.53,92.0
720.59,105.0
720.66,105.0
720.72,112.0
720.78,116.0
720.85,91.0
720.91,85.0
720.97,96.0
721.03,109.0
721.1,102.0
721.16,89.0
721.22,94.0
721.29,93.0
721.35,101.0
721.41,97.0
721.48,87.0
721.54,108.0
721.6,95.0
721.66,95.0
721.73,112.0
721.79,110.0
721.85,109.0
721.92,96.0
721.98,85.0
722.04,88.0
722.11,86.0
722.17,105.0
722.23,73.0
722.29,66.0
722.36,76.0
722.42,61.0
722.48,83.0
722.55,73.0
722.61,61.0
722.67,67.0
722.74,61.0
722.8,66.0
722.86,67.0
722.92,79.0
722.99,45.0
723.05,52.0
723.11,54.0
723.18,56.0
723.24,79.0
723.3,74.0
723.37,72.0
723.43,90.0
723.49,75.0
723.55,61.0
723.62,45.0
723.68,43.0
723.74,55.0
723.81,57.0
723.87,60.0
723.93,60.0
724.0,66.0
724.06,70.0
724.12,51.0
724.18,72.0
724.25,72.0
724.31,60.0
724.37,68.0
724.44,60.0
724.5,61.0
724.56,65.0
724.63,79.0
724.69,78.0
724.75,72.0
724.81,96.0
724.88,83.0
724.94,84.0
725.0,87.0
725.07,93.0
725.13,92.0
725.19,103.0
725.26,105.0
725.32,107.0
725.38,116.0
725.44,108.0
725.51,83.0
725.57,96.0
725.63,108.0
725.7,115.0
725.76,116.0
725.82,107.0
725.89,117.0
725.95,124.0
726.01,110.0
726.07,112.0
726.14,124.0
726.2,109.0
726.26,121.0
726.33,138.0
726.39,134.0
726.45,154.0
726.52,148.0
726.58,138.0
726.64,151.0
726.7,131.0
726.77,156.0
726.83,147.0
726.89,125.0
726.96,157.0
727.02,146.0
727.08,147.0
727.15,135.0
727.21,146.0
727.27,146.0
727.33,131.0
727.4,140.0
727.46,137.0
727.52,138.0
727.59,127.0
727.65,129.0
727.71,140.0
727.78,131.0
727.84,144.0
727.9,140.0
727.96,138.0
728.03,129.0
728.09,138.0
728.15,123.0
728.22,143.0
728.28,143.0
728.34,132.0
728.41,137.0
728.47,126.0
728.53,142.0
728.59,151.0
728.66,156.0
728.72,136.0
728.78,142.0
728.85,139.0
728.91,134.0
728.97,148.0
729.04,137.0
729.1,159.0
729.16,158.0
729.22,164.0
729.29,147.0
729.35,129.0
729.41,155.0
729.48,144.0
729.54,134.0
729.6,121.0
729.67,137.0
729.73,159.0
729.79,129.0
729.85,129.0
729.92,130.0
729.98,138.0
730.04,124.0
730.11,135.0
730.17,138.0
730.23,132.0
730.3,143.0
730.36,134.0
730.42,141.0
730.48,123.0
730.55,126.0
730.61,130.0
730.67,117.0
730.74,127.0
730.8,127.0
730.86,118.0
730.93,120.0
730.99,116.0
731.05,108.0
731.11,114.0
731.18,113.0
731.24,123.0
731.3,112.0
731.37,121.0
731.43,116.0
731.49,103.0
731.56,118.0
731.62,105.0
731.68,105.0
731.74,98.0
731.81,102.0
731.87,91.0
731.93,119.0
732.0,105.0
732.06,100.0
732.12,94.0
732.19,82.0
732.25,104.0
732.31,96.0
732.37,100.0
732.44,84.0
732.5,102.0
732.56,124.0
732.63,130.0
732.69,124.0
732.75,123.0
732.82,125.0
732.88,106.0
732.94,120.0
733.0,116.0
733.07,125.0
733.13,119.0
733.19,136.0
733.26,136.0
733.32,147.0
733.38,152.0
733.45,151.0
733.51,141.0
733.57,135.0
733.63,156.0
733.7,153.0
733.76,163.0
733.82,139.0
733.89,124.0
733.95,144.0
734.01,153.0
734.08,150.0
734.14,161.0
734.2,170.0
734.26,169.0
734.33,190.0
734.39,192.0
734.45,181.0
734.52,173.0
734.58,178.0
734.64,184.0
734.71,197.0
734.77,167.0
734.83,168.0
734.89,184.0
734.96,167.0
735.02,176.0
735.08,186.0
735.15,188.0
735.21,207.0
735.27,194.0
735.34,177.0
735.4,163.0
735.46,170.0
735.52,173.0
735.59,181.0
735.65,178.0
735.71,175.0
735.78,190.0
735.84,186.0
735.9,181.0
735.97,171.0
736.03,183.0
736.09,186.0
736.15,170.0
736.22,168.0
736.28,184.0
736.34,192.0
736.41,152.0
736.47,127.0
736.53,153.0
736.6,167.0
736.66,157.0
736.72,166.0
736.78,157.0
736.85,146.0
736.91,134.0
736.97,138.0
737.04,136.0
737.1,164.0
737.16,180.0
737.23,173.0
737.29,151.0
737.35,163.0
737.41,168.0
737.48,149.0
737.54,146.0
737.6,146.0
737.67,157.0
737.73,152.0
737.79,148.0
737.86,145.0
737.92,163.0
737.98,127.0
738.04,138.0
738.11,151.0
738.17,141.0
738.23,143.0
738.3,142.0
738.36,127.0
738.42,134.0
738.49,149.0
738.55,124.0
738.61,117.0
738.67,129.0
738.74,134.0
738.8,105.0
738.86,102.0
738.93,109.0
738.99,125.0
739.05,120.0
739.12,93.0
739.18,101.0
739.24,97.0
739.3,114.0
739.37,131.0
739.43,116.0
739.49,119.0
739.56,118.0
739.62,118.0
739.68,94.0
739.75,124.0
739.81,97.0
739.87,98.0
739.93,122.0
740.0,102.0
740.06,92.0
740.12,105.0
740.19,89.0
740.25,71.0
740.31,92.0
740.38,93.0
740.44,94.0
740.5,98.0
740.56,83.0
740.63,100.0
740.69,90.0
740.75,105.0
740.82,89.0
740.88,92.0
740.94,99.0
741.01,85.0
741.07,62.0
741.13,85.0
741.19,98.0
741.26,107.0
741.32,103.0
741.38,86.0
741.45,113.0
741.51,107.0
741.57,94.0
741.64,95.0
741.7,93.0
741.76,72.0
741.82,82.0
741.89,77.0
741.95,81.0
742.01,90.0
742.08,79.0
742.14,94.0
742.2,87.0
742.27,88.0
742.33,88.0
742.39,94.0
742.45,105.0
742.52,116.0
742.58,115.0
742.64,94.0
742.71,101.0
742.77,80.0
742.83,77.0
742.9,96.0
742.96,108.0
743.02,109.0
743.08,113.0
743.15,118.0
743.21,119.0
743.27,129.0
743.34,125.0
743.4,115.0
743.46,119.0
743.53,142.0
743.59,154.0
743.65,133.0
743.71,127.0
743.78,119.0
743.84,145.0
743.9,138.0
743.97,156.0
744.03,145.0
744.09,135.0
744.16,139.0
744.22,133.0
744.28,134.0
744.34,136.0
744.41,152.0
744.47,171.0
744.53,152.0
744.6,145.0
744.66,151.0
744.72,151.0
744.79,158.0
744.85,159.0
744.91,171.0
744.97,159.0
745.04,183.0
745.1,176.0
745.16,173.0
745.23,177.0
745.29,185.0
745.35,198.0
745.42,189.0
745.48,188.0
745.54,202.0
745.6,206.0
745.67,204.0
745.73,208.0
745.79,199.0
745.86,200.0
745.92,198.0
745.98,189.0
746.05,198.0
746.11,203.0
746.17,206.0
746.23,195.0
746.3,196.0
746.36,192.0
746.42,178.0
746.49,188.0
746.55,163.0
746.61,175.0
746.68,167.0
746.74,182.0
746.8,189.0
746.86,167.0
746.93,173.0
746.99,162.0
747.05,150.0
747.12,168.0
747.18,161.0
747.24,163.0
747.31,176.0
747.37,154.0
747.43,177.0
747.49,172.0
747.56,152.0
747.62,134.0
747.68,144.0
747.75,148.0
747.81,132.0
747.87,107.0
747.94,122.0
748.0,116.0
748.06,119.0
748.12,110.0
748.19,107.0
748.25,115.0
748.31,113.0
748.38,121.0
748.44,126.0
748.5,108.0
748.57,106.0
748.63,124.0
748.69,116.0
748.75,118.0
748.82,107.0
748.88,99.0
748.94,117.0
749.01,114.0
749.07,102.0
749.13,83.0
749.2,108.0
749.26,92.0
749.32,105.0
749.38,86.0
749.45,85.0
749.51,108.0
749.57,102.0
749.64,113.0
749.7,104.0
749.76,119.0
749.83,126.0
749.89,117.0
749.95,129.0
750.01,123.0
750.08,119.0
750.14,116.0
750.2,120.0
750.27,121.0
750.33,123.0
750.39,117.0
750.46,126.0
750.52,117.0
750.58,128.0
750.64,110.0
750.71,112.0
750.77,128.0
750.83,116.0
750.9,122.0
750.96,129.0
751.02,150.0
751.09,137.0
751.15,146.0
751.21,132.0
751.27,139.0
751.34,158.0
751.4,125.0
751.46,115.0
751.53,116.0
751.59,118.0
751.65,124.0
751.72,132.0
751.78,137.0
751.84,139.0
751.9,127.0
751.97,108.0
752.03,104.0
752.09,123.0
752.16,134.0
752.22,137.0
752.28,133.0
752.35,128.0
752.41,124.0
752.47,129.0
752.53,116.0
752.6,128.0
752.66,127.0
752.72,131.0
752.79,115.0
752.85,99.0
752.91,97.0
752.98,108.0
753.04,123.0
753.1,115.0
753.16,121.0
753.23,110.0
753.29,120.0
753.35,112.0
753.42,94.0
753.48,106.0
753.54,130.0
753.61,135.0
753.67,114.0
753.73,97.0
753.79,110.0
753.86,111.0
753.92,101.0
753.98,86.0
754.05,84.0
754.11,87.0
754.17,96.0
754.24,76.0
754.3,97.0
754.36,101.0
754.42,89.0
754.49,101.0
754.55,97.0
754.61,98.0
754.68,116.0
754.74,106.0
754.8,100.0
754.87,93.0
754.93,93.0
754.99,97.0
755.05,94.0
755.12,86.0
755.18,96.0
755.24,94.0
755.31,101.0
755.37,84.0
755.43,85.0
755.5,74.0
755.56,99.0
755.62,90.0
755.68,74.0
755.75,70.0
755.81,76.0
755.87,65.0
755.94,47.0
756.0,57.0
756.06,72.0
756.13,65.0
756.19,74.0
756.25,87.0
756.31,71.0
756.38,91.0
756.44,66.0
756.5,69.0
756.57,76.0
756.63,72.0
756.69,104.0
756.76,84.0
756.82,81.0
756.88,93.0
756.94,94.0
757.01,79.0
757.07,66.0
757.13,65.0
757.2,54.0
757.26,53.0
757.32,69.0
757.39,59.0
757.45,66.0
757.51,62.0
757.57,57.0
757.64,41.0
757.7,33.0
757.76,34.0
757.83,32.0
757.89,28.0
757.95,21.0
758.02,26.0
758.08,25.0
758.14,31.0
758.2,46.0
758.27,24.0
758.33,46.0
758.39,60.0
758.46,50.0
758.52,55.0
758.58,33.0
758.65,44.0
758.71,33.0
758.77,40.0
758.83,46.0
758.9,56.0
758.96,62.0
759.02,51.0
759.09,47.0
759.15,25.0
759.21,41.0
759.28,62.0
759.34,55.0
759.4,53.0
759.46,50.0
759.53,55.0
759.59,50.0
759.65,40.0
759.72,57.0
759.78,60.0
759.84,65.0
759.91,75.0
759.97,52.0
760.03,67.0
760.09,78.0
760.16,46.0
760.22,55.0
760.28,66.0
760.35,83.0
760.41,80.0
760.47,88.0
760.54,91.0
760.6,77.0
760.66,87.0
760.72,94.0
760.79,106.0
760.85,97.0
760.91,101.0
760.98,109.0
761.04,122.0
761.1,114.0
761.17,105.0
761.23,108.0
761.29,101.0
761.35,109.0
761.42,105.0
761.48,112.0
761.54,116.0
761.61,104.0
761.67,104.0
761.73,119.0
761.8,104.0
761.86,116.0
761.92,124.0
761.98,110.0
762.05,121.0
762.11,113.0
762.17,116.0
762.24,111.0
762.3,121.0
762.36,133.0
762.43,124.0
762.49,115.0
762.55,113.0
762.61,103.0
762.68,104.0
762.74,123.0
762.8,125.0
762.87,123.0
762.93,112.0
762.99,96.0
763.06,86.0
763.12,76.0
763.18,87.0
763.24,81.0
763.31,76.0
763.37,87.0
763.43,101.0
763.5,102.0
763.56,73.0
763.62,72.0
763.69,62.0
763.75,49.0
763.81,63.0
763.87,67.0
763.94,62.0
764.0,49.0
764.06,58.0
764.13,48.0
764.19,44.0
764.25,32.0
764.32,27.0
764.38,31.0
764.44,27.0
764.5,35.0
764.57,41.0
764.63,42.0
764.69,34.0
764.76,24.0
764.82,32.0
764.88,28.0
764.95,17.0
765.01,43.0
765.07,50.0
765.13,29.0
765.2,33.0
765.26,30.0
765.32,39.0
765.39,37.0
765.45,27.0
765.51,41.0
765.58,39.0
765.64,46.0
765.7,27.0
765.76,14.0
765.83,49.0
765.89,55.0
765.95,46.0
766.02,52.0
766.08,61.0
766.14,70.0
766.21,69.0
766.27,71.0
766.33,73.0
766.39,84.0
766.46,98.0
766.52,86.0
766.58,86.0
766.65,89.0
766.71,92.0
766.77,86.0
766.84,98.0
766.9,91.0
766.96,96.0
767.02,74.0
767.09,88.0
767.15,71.0
767.21,71.0
767.28,64.0
767.34,74.0
767.4,94.0
767.47,78.0
767.53,87.0
767.59,77.0
767.65,87.0
767.72,91.0
767.78,73.0
767.84,72.0
767.91,90.0
767.97,105.0
768.03,92.0
768.1,112.0
768.16,98.0
768.22,90.0
768.28,92.0
768.35,115.0
768.41,105.0
768.47,119.0
768.54,113.0
768.6,112.0
768.66,131.0
768.73,124.0
768.79,137.0
768.85,124.0
768.91,116.0
768.98,144.0
769.04,153.0
769.1,152.0
769.17,171.0
769.23,129.0
769.29,154.0
769.36,151.0
769.42,127.0
769.48,122.0
769.54,88.0
769.61,97.0
769.67,98.0
769.73,104.0
769.8,97.0
769.86,105.0
769.92,101.0
769.99,116.0
770.05,94.0
770.11,104.0
770.17,99.0
770.24,105.0
770.3,95.0
770.36,99.0
770.43,97.0
770.49,112.0
770.55,91.0
770.62,90.0
770.68,108.0
770.74,101.0
770.8,114.0
770.87,138.0
770.93,129.0
770.99,111.0
771.06,132.0
771.12,137.0
771.18,140.0
771.25,127.0
771.31,115.0
771.37,126.0
771.43,118.0
771.5,135.0
771.56,146.0
771.62,118.0
771.69,127.0
771.75,129.0
771.81,122.0
771.88,135.0
771.94,145.0
772.0,138.0
772.06,146.0
772.13,156.0
772.19,154.0
772.25,159.0
772.32,170.0
772.38,148.0
772.44,146.0
772.51,144.0
772.57,112.0
772.63,120.0
772.69,124.0
772.76,146.0
772.82,152.0
772.88,137.0
772.95,128.0
773.01,131.0
773.07,140.0
773.14,131.0
773.2,118.0
773.26,122.0
773.32,139.0
773.39,116.0
773.45,112.0
773.51,105.0
773.58,88.0
773.64,99.0
773.7,95.0
773.77,107.0
773.83,83.0
773.89,91.0
773.95,91.0
774.02,90.0
774.08,99.0
774.14,79.0
774.21,76.0
774.27,68.0
774.33,75.0
774.4,50.0
774.46,79.0
774.52,56.0
774.58,79.0
774.65,76.0
774.71,58.0
774.77,72.0
774.84,58.0
774.9,46.0
774.96,46.0
775.03,83.0
775.09,71.0
775.15,62.0
775.21,71.0
775.28,73.0
775.34,98.0
775.4,88.0
775.47,87.0
775.53,108.0
775.59,118.0
775.66,108.0
775.72,113.0
775.78,114.0
775.84,123.0
775.91,105.0
775.97,132.0
776.03,123.0
776.1,145.0
776.16,121.0
776.22,127.0
776.29,136.0
776.35,127.0
776.41,123.0
776.47,124.0
776.54,123.0
776.6,121.0
776.66,118.0
776.73,158.0
776.79,146.0
776.85,118.0
776.92,131.0
776.98,129.0
777.04,131.0
777.1,127.0
777.17,146.0
777.23,135.0
777.29,124.0
777.36,121.0
777.42,116.0
777.48,130.0
777.55,127.0
777.61,120.0
777.67,132.0
777.73,140.0
777.8,138.0
777.86,129.0
777.92,131.0
777.99,145.0
778.05,105.0
778.11,138.0
778.18,142.0
778.24,128.0
778.3,142.0
778.36,128.0
778.43,130.0
778.49,124.0
778.55,112.0
778.62,123.0
778.68,140.0
778.74,139.0
778.81,141.0
778.87,136.0
778.93,143.0
778.99,146.0
779.06,141.0
779.12,143.0
779.18,148.0
779.25,139.0
779.31,146.0
779.37,152.0
779.44,159.0
779.5,157.0
779.56,160.0
779.62,156.0
779.69,150.0
779.75,171.0
779.81,167.0
779.88,166.0
779.94,146.0
780.0,137.0
780.07,149.0
780.13,135.0
780.19,166.0
780.25,159.0
780.32,151.0
780.38,134.0
780.44,122.0
780.51,127.0
780.57,131.0
780.63,143.0
780.7,154.0
780.76,148.0
780.82,138.0
780.88,126.0
780.95,128.0
781.01,155.0
781.07,152.0
781.14,148.0
781.2,131.0
781.26,125.0
781.33,143.0
781.39,118.0
781.45,114.0
781.51,86.0
781.58,107.0
781.64,129.0
781.7,121.0
781.77,116.0
781.83,112.0
781.89,129.0
781.96,124.0
782.02,106.0
782.08,113.0
782.14,115.0
782.21,108.0
782.27,112.0
782.33,113.0
782.4,126.0
782.46,96.0
782.52,103.0
782.59,107.0
782.65,95.0
782.71,92.0
782.77,105.0
782.84,104.0
782.9,105.0
782.96,86.0
783.03,94.0
783.09,110.0
783.15,105.0
783.22,87.0
783.28,83.0
783.34,94.0
783.4,99.0
783.47,106.0
783.53,121.0
783.59,94.0
783.66,113.0
783.72,115.0
783.78,97.0
783.85,113.0
783.91,97.0
783.97,93.0
784.03,112.0
784.1,116.0
784.16,123.0
784.22,131.0
784.29,134.0
784.35,136.0
784.41,126.0
784.48,99.0
784.54,123.0
784.6,112.0
784.66,127.0
784.73,124.0
784.79,110.0
784.85,123.0
784.92,105.0
784.98,92.0
785.04,116.0
785.11,116.0
785.17,120.0
785.23,101.0
785.29,132.0
785.36,115.0
785.42,101.0
785.48,104.0
785.55,97.0
785.61,97.0
785.67,105.0
785.74,118.0
785.8,127.0
785.86,115.0
785.92,124.0
785.99,117.0
786.05,114.0
786.11,120.0
786.18,141.0
786.24,132.0
786.3,134.0
786.37,113.0
786.43,105.0
786.49,114.0
786.55,107.0
786.62,94.0
786.68,117.0
786.74,91.0
786.81,85.0
786.87,86.0
786.93,100.0
787.0,83.0
787.06,79.0
787.12,60.0
787.18,67.0
787.25,80.0
787.31,58.0
787.37,61.0
787.44,57.0
787.5,53.0
787.56,53.0
787.63,83.0
787.69,85.0
787.75,75.0
787.81,64.0
787.88,72.0
787.94,64.0
788.0,77.0
788.07,87.0
788.13,79.0
788.19,77.0
788.26,68.0
788.32,52.0
788.38,74.0
788.44,89.0
788.51,79.0
788.57,84.0
788.63,66.0
788.7,73.0
788.76,54.0
788.82,55.0
788.89,52.0
788.95,44.0
789.01,49.0
789.07,68.0
789.14,67.0
789.2,55.0
789.26,62.0
789.33,29.0
789.39,46.0
789.45,38.0
789.52,35.0
789.58,37.0
789.64,51.0
789.7,39.0
789.77,43.0
789.83,61.0
789.89,63.0
789.96,64.0
790.02,58.0
790.08,64.0
790.15,49.0
790.21,56.0
790.27,38.0
790.33,48.0
790.4,49.0
790.46,42.0
790.52,31.0
790.59,27.0
790.65,42.0
790.71,59.0
790.78,32.0
790.84,23.0
790.9,46.0
790.96,32.0
791.03,38.0
791.09,44.0
791.15,43.0
791.22,53.0
791.28,60.0
791.34,55.0
791.41,46.0
791.47,45.0
791.53,30.0
791.59,55.0
791.66,57.0
791.72,35.0
791.78,57.0
791.85,61.0
791.91,69.0
791.97,57.0
792.04,61.0
792.1,80.0
792.16,68.0
792.22,90.0
792.29,86.0
792.35,79.0
792.41,77.0
792.48,86.0
792.54,112.0
792.6,97.0
792.67,102.0
792.73,106.0
792.79,134.0
792.85,135.0
792.92,134.0
792.98,138.0
793.04,137.0
793.11,135.0
793.17,134.0
793.23,145.0
793.3,128.0
793.36,124.0
793.42,128.0
793.48,139.0
793.55,134.0
793.61,143.0
793.67,151.0
793.74,145.0
793.8,134.0
793.86,122.0
793.93,147.0
793.99,154.0
794.05,132.0
794.11,146.0
794.18,164.0
794.24,143.0
794.3,137.0
794.37,167.0
794.43,149.0
794.49,156.0
794.56,165.0
794.62,179.0
794.68,174.0
794.74,175.0
794.81,191.0
794.87,189.0
794.93,188.0
795.0,178.0
795.06,187.0
795.12,165.0
795.19,195.0
795.25,203.0
795.31,187.0
795.37,207.0
795.44,189.0
795.5,196.0
795.56,209.0
795.63,189.0
795.69,204.0
795.75,211.0
795.82,223.0
795.88,233.0
795.94,217.0
796.0,216.0
796.07,222.0
796.13,220.0
796.19,216.0
796.26,240.0
796.32,251.0
796.38,245.0
796.45,247.0
796.51,217.0
796.57,237.0
796.63,209.0
796.7,228.0
796.76,233.0
796.82,231.0
796.89,224.0
796.95,214.0
797.01,227.0
797.08,220.0
797.14,199.0
797.2,192.0
797.26,214.0
797.33,225.0
797.39,230.0
797.45,229.0
797.52,201.0
797.58,209.0
797.64,221.0
797.71,201.0
797.77,214.0
797.83,194.0
797.89,198.0
797.96,199.0
798.02,181.0
798.08,187.0
798.15,188.0
798.21,204.0
798.27,187.0
798.34,193.0
798.4,193.0
798.46,204.0
798.52,189.0
798.59,211.0
798.65,205.0
798.71,222.0
798.78,217.0
798.84,192.0
798.9,184.0
798.97,198.0
799.03,206.0
799.09,195.0
799.15,186.0
799.22,170.0
799.28,156.0
799.34,141.0
799.41,141.0
799.47,132.0
799.53,149.0
799.6,184.0
799.66,146.0
799.72,164.0
799.78,170.0
799.85,164.0
799.91,163.0
799.97,182.0
800.04,171.0
800.1,163.0
800.16,159.0
800.23,151.0
800.29,156.0
800.35,167.0
800.41,135.0
800.48,153.0
800.54,156.0
800.6,156.0
800.67,158.0
800.73,164.0
800.79,160.0
800.86,156.0
800.92,139.0
800.98,160.0
801.04,168.0
801.11,171.0
801.17,153.0
801.23,146.0
801.3,120.0
801.36,147.0
801.42,146.0
801.49,159.0
801.55,148.0
801.61,162.0
801.67,169.0
801.74,164.0
801.8,176.0
801.86,154.0
801.93,165.0
801.99,167.0
802.05,176.0
802.12,181.0
802.18,159.0
802.24,186.0
802.3,161.0
802.37,157.0
802.43,156.0
802.49,152.0
802.56,174.0
802.62,142.0
802.68,138.0
802.75,143.0
802.81,121.0
802.87,124.0
802.93,130.0
803.0,130.0
803.06,131.0
803.12,155.0
803.19,159.0
803.25,166.0
803.31,162.0
803.38,141.0
803.44,149.0
803.5,142.0
803.56,132.0
803.63,135.0
803.69,128.0
803.75,126.0
803.82,147.0
803.88,136.0
803.94,143.0
804.01,156.0
804.07,146.0
804.13,168.0
804.19,149.0
804.26,126.0
804.32,136.0
804.38,153.0
804.45,145.0
804.51,127.0
804.57,131.0
804.64,120.0
804.7,135.0
804.76,137.0
804.82,148.0
804.89,140.0
804.95,145.0
805.01,129.0
805.08,105.0
805.14,140.0
805.2,125.0
805.27,133.0
805.33,131.0
805.39,141.0
805.45,138.0
805.52,140.0
805.58,118.0
805.64,123.0
805.71,137.0
805.77,124.0
805.83,107.0
805.9,100.0
805.96,123.0
806.02,109.0
806.08,115.0
806.15,118.0
806.21,114.0
806.27,141.0
806.34,120.0
806.4,109.0
806.46,102.0
806.53,80.0
806.59,82.0
806.65,90.0
806.71,91.0
806.78,81.0
806.84,115.0
806.9,105.0
806.97,87.0
807.03,105.0
807.09,102.0
807.16,104.0
807.22,102.0
807.28,97.0
807.34,81.0
807.41,98.0
807.47,88.0
807.53,90.0
807.6,102.0
807.66,82.0
807.72,90.0
807.79,77.0
807.85,96.0
807.91,81.0
807.97,66.0
808.04,77.0
808.1,69.0
808.16,69.0
808.23,64.0
808.29,80.0
808.35,66.0
808.42,51.0
808.48,44.0
808.54,57.0
808.6,68.0
808.67,62.0
808.73,61.0
808.79,61.0
808.86,56.0
808.92,38.0
808.98,29.0
809.05,61.0
809.11,52.0
809.17,54.0
809.23,51.0
809.3,59.0
809.36,72.0
809.42,58.0
809.49,61.0
809.55,42.0
809.61,44.0
809.68,51.0
809.74,65.0
809.8,61.0
809.86,66.0
809.93,53.0
809.99,53.0
810.05,53.0
810.12,52.0
810.18,68.0
810.24,72.0
810.31,72.0
810.37,58.0
810.43,64.0
810.49,54.0
810.56,47.0
810.62,49.0
810.68,27.0
810.75,50.0
810.81,43.0
810.87,33.0
810.94,48.0
811.0,61.0
811.06,60.0
811.12,43.0
811.19,57.0
811.25,53.0
811.31,34.0
811.38,61.0
811.44,61.0
811.5,81.0
811.57,83.0
811.63,74.0
811.69,81.0
811.75,68.0
811.82,75.0
811.88,78.0
811.94,86.0
812.01,77.0
812.07,61.0
812.13,57.0
812.2,72.0
812.26,64.0
812.32,74.0
812.38,97.0
812.45,101.0
812.51,95.0
812.57,78.0
812.64,102.0
812.7,98.0
812.76,114.0
812.83,107.0
812.89,94.0
812.95,87.0
813.01,87.0
813.08,92.0
813.14,106.0
813.2,85.0
813.27,57.0
813.33,68.0
813.39,94.0
813.46,96.0
813.52,79.0
813.58,69.0
813.64,73.0
813.71,63.0
813.77,70.0
813.83,72.0
813.9,51.0
813.96,64.0
814.02,65.0
814.09,67.0
814.15,71.0
814.21,61.0
814.27,75.0
814.34,68.0
814.4,93.0
814.46,78.0
814.53,71.0
814.59,50.0
814.65,47.0
814.72,50.0
814.78,42.0
814.84,54.0
814.9,30.0
814.97,48.0
815.03,41.0
815.09,46.0
815.16,47.0
815.22,38.0
815.28,46.0
815.35,55.0
815.41,58.0
815.47,47.0
815.53,65.0
815.6,57.0
815.66,53.0
815.72,70.0
815.79,62.0
815.85,66.0
815.91,66.0
815.98,66.0
816.04,55.0
816.1,84.0
816.16,76.0
816.23,60.0
816.29,81.0
816.35,99.0
816.42,74.0
816.48,55.0
816.54,58.0
816.61,86.0
816.67,88.0
816.73,100.0
816.79,85.0
816.86,99.0
816.92,83.0
816.98,86.0
817.05,112.0
817.11,76.0
817.17,89.0
817.24,81.0
817.3,85.0
817.36,94.0
817.42,67.0
817.49,100.0
817.55,64.0
817.61,79.0
817.68,84.0
817.74,61.0
817.8,79.0
817.87,73.0
817.93,69.0
817.99,87.0
818.05,104.0
818.12,98.0
818.18,91.0
818.24,114.0
818.31,120.0
818.37,122.0
818.43,123.0
818.5,129.0
818.56,121.0
818.62,94.0
818.68,81.0
818.75,102.0
818.81,107.0
818.87,130.0
818.94,125.0
819.0,115.0
819.06,96.0
819.13,113.0
819.19,115.0
819.25,114.0
819.31,116.0
819.38,108.0
819.44,119.0
819.5,121.0
819.57,123.0
819.63,112.0
819.69,111.0
819.76,103.0
819.82,103.0
819.88,98.0
819.94,109.0
820.01,109.0
820.07,96.0
820.13,100.0
820.2,100.0
820.26,92.0
820.32,99.0
820.39,101.0
820.45,91.0
820.51,98.0
820.57,102.0
820.64,135.0
820.7,108.0
820.76,93.0
820.83,106.0
820.89,116.0
820.95,118.0
821.02,109.0
821.08,121.0
821.14,121.0
821.2,95.0
821.27,94.0
821.33,90.0
821.39,94.0
821.46,108.0
821.52,89.0
821.58,91.0
821.65,106.0
821.71,118.0
821.77,103.0
821.83,96.0
821.9,112.0
821.96,105.0
822.02,101.0
822.09,105.0
822.15,97.0
822.21,87.0
822.28,109.0
822.34,98.0
822.4,105.0
822.46,109.0
822.53,104.0
822.59,116.0
822.65,108.0
822.72,113.0
822.78,128.0
822.84,135.0
822.91,112.0
822.97,111.0
823.03,104.0
823.09,112.0
823.16,121.0
823.22,98.0
823.28,112.0
823.35,115.0
823.41,102.0
823.47,112.0
823.54,126.0
823.6,101.0
823.66,109.0
823.72,118.0
823.79,92.0
823.85,100.0
823.91,99.0
823.98,93.0
824.04,114.0
824.1,104.0
824.17,93.0
824.23,80.0
824.29,84.0
824.35,79.0
824.42,63.0
824.48,69.0
824.54,94.0
824.61,82.0
824.67,77.0
824.73,58.0
824.8,72.0
824.86,64.0
824.92,57.0
824.98,43.0
825.05,46.0
825.11,44.0
825.17,57.0
825.24,33.0
825.3,55.0
825.36,66.0
825.43,58.0
825.49,51.0
825.55,62.0
825.61,60.0
825.68,61.0
825.74,54.0
825.8,53.0
825.87,58.0
825.93,54.0
825.99,86.0
826.06,102.0
826.12,97.0
826.18,93.0
826.24,76.0
826.31,76.0
826.37,92.0
826.43,101.0
826.5,99.0
826.56,98.0
826.62,126.0
826.69,116.0
826.75,119.0
826.81,122.0
826.87,120.0
826.94,140.0
827.0,127.0
827.06,129.0
827.13,133.0
827.19,145.0
827.25,139.0
827.32,141.0
827.38,151.0
827.44,154.0
827.5,156.0
827.57,189.0
827.63,173.0
827.69,153.0
827.76,151.0
827.82,157.0
827.88,178.0
827.95,175.0
828.01,167.0
828.07,167.0
828.13,167.0
828.2,176.0
828.26,181.0
828.32,201.0
828.39,201.0
828.45,211.0
828.51,188.0
828.58,206.0
828.64,186.0
828.7,206.0
828.76,219.0
828.83,221.0
828.89,228.0
828.95,220.0
829.02,226.0
829.08,237.0
829.14,223.0
829.21,241.0
829.27,263.0
829.33,252.0
829.39,249.0
829.46,259.0
829.52,266.0
829.58,275.0
829.65,259.0
829.71,270.0
829.77,251.0
829.84,256.0
829.9,252.0
829.96,248.0
830.02,236.0
830.09,235.0
830.15,263.0
830.21,244.0
830.28,239.0
830.34,244.0
830.4,247.0
830.47,244.0
830.53,238.0
830.59,201.0
830.65,201.0
830.72,222.0
830.78,221.0
830.84,216.0
830.91,213.0
830.97,204.0
831.03,189.0
831.1,195.0
831.16,213.0
831.22,213.0
831.28,231.0
831.35,196.0
831.41,201.0
831.47,217.0
831.54,199.0
831.6,192.0
831.66,204.0
831.73,215.0
831.79,192.0
831.85,197.0
831.91,189.0
831.98,162.0
832.04,157.0
832.1,145.0
832.17,149.0
832.23,145.0
832.29,159.0
832.36,169.0
832.42,191.0
832.48,180.0
832.54,167.0
832.61,184.0
832.67,171.0
832.73,163.0
832.8,166.0
832.86,158.0
832.92,168.0
832.99,156.0
833.05,162.0
833.11,160.0
833.17,167.0
833.24,170.0
833.3,147.0
833.36,131.0
833.43,120.0
833.49,127.0
833.55,140.0
833.62,124.0
833.68,121.0
833.74,130.0
833.8,132.0
833.87,118.0
833.93,156.0
833.99,145.0
834.06,125.0
834.12,143.0
834.18,156.0
834.25,131.0
834.31,123.0
834.37,123.0
834.43,124.0
834.5,113.0
834.56,117.0
834.62,121.0
834.69,122.0
834.75,136.0
834.81,146.0
834.88,136.0
834.94,145.0
835.0,151.0
835.06,129.0
835.13,133.0
835.19,108.0
835.25,97.0
835.32,126.0
835.38,122.0
835.44,95.0
835.51,87.0
835.57,90.0
835.63,71.0
835.69,85.0
835.76,79.0
835.82,76.0
835.88,59.0
835.95,68.0
836.01,81.0
836.07,62.0
836.14,77.0
836.2,71.0
836.26,80.0
836.32,61.0
836.39,71.0
836.45,63.0
836.51,61.0
836.58,39.0
836.64,36.0
836.7,42.0
836.77,55.0
836.83,75.0
836.89,58.0
836.95,60.0
837.02,48.0
837.08,54.0
837.14,54.0
837.21,67.0
837.27,94.0
837.33,87.0
837.4,61.0
837.46,83.0
837.52,78.0
837.58,94.0
837.65,94.0
837.71,107.0
837.77,95.0
837.84,91.0
837.9,109.0
837.96,80.0
838.03,97.0
838.09,88.0
838.15,101.0
838.21,114.0
838.28,107.0
838.34,105.0
838.4,95.0
838.47,92.0
838.53,107.0
838.59,118.0
838.66,112.0
838.72,96.0
838.78,94.0
838.84,119.0
838.91,105.0
838.97,73.0
839.03,102.0
839.1,106.0
839.16,94.0
839.22,83.0
839.29,86.0
839.35,85.0
839.41,79.0
839.47,77.0
839.54,94.0
839.6,86.0
839.66,83.0
839.73,77.0
839.79,57.0
839.85,53.0
839.92,33.0
839.98,54.0
840.04,65.0
840.1,41.0
840.17,50.0
840.23,57.0
840.29,49.0
840.36,75.0
840.42,53.0
840.48,52.0
840.55,53.0
840.61,41.0
840.67,57.0
840.73,52.0
840.8,45.0
840.86,63.0
840.92,50.0
840.99,33.0
841.05,32.0
841.11,9.0
841.18,11.0
841.24,2.0
841.3,25.0
841.36,33.0
841.43,32.0
841.49,32.0
841.55,34.0
841.62,42.0
841.68,44.0
841.74,50.0
841.81,39.0
841.87,66.0
841.93,51.0
841.99,42.0
842.06,17.0
842.12,55.0
842.18,57.0
842.25,57.0
842.31,72.0
842.37,74.0
842.44,54.0
842.5,67.0
842.56,53.0
842.62,76.0
842.69,50.0
842.75,48.0
842.81,92.0
842.88,76.0
842.94,71.0
843.0,63.0
843.07,59.0
843.13,71.0
843.19,66.0
843.25,70.0
843.32,71.0
843.38,64.0
843.44,87.0
843.51,90.0
843.57,87.0
843.63,86.0
843.7,49.0
843.76,104.0
843.82,99.0
843.88,71.0
843.95,80.0
844.01,109.0
844.07,111.0
844.14,100.0
844.2,100.0
844.26,68.0
844.33,87.0
844.39,98.0
844.45,88.0
844.51,74.0
844.58,74.0
844.64,89.0
844.7,79.0
844.77,123.0
844.83,106.0
844.89,119.0
844.96,113.0
845.02,113.0
845.08,113.0
845.14,127.0
845.21,124.0
845.27,122.0
845.33,121.0
845.4,120.0
845.46,125.0
845.52,112.0
845.59,124.0
845.65,113.0
845.71,132.0
845.77,125.0
845.84,134.0
845.9,118.0
845.96,160.0
846.03,146.0
846.09,141.0
846.15,172.0
846.22,157.0
846.28,144.0
846.34,118.0
846.4,123.0
846.47,139.0
846.53,142.0
846.59,135.0
846.66,149.0
846.72,156.0
846.78,137.0
846.85,127.0
846.91,119.0
846.97,147.0
847.03,137.0
847.1,140.0
847.16,149.0
847.22,169.0
847.29,149.0
847.35,149.0
847.41,147.0
847.48,130.0
847.54,146.0
847.6,135.0
847.66,135.0
847.73,149.0
847.79,120.0
847.85,123.0
847.92,105.0
847.98,105.0
848.04,119.0
848.11,105.0
848.17,110.0
848.23,123.0
848.29,104.0
848.36,109.0
848.42,113.0
848.48,87.0
848.55,90.0
848.61,118.0
848.67,103.0
848.74,107.0
848.8,118.0
848.86,112.0
848.92,116.0
848.99,101.0
849.05,107.0
849.11,110.0
849.18,117.0
849.24,117.0
849.3,114.0
849.37,109.0
849.43,98.0
849.49,84.0
849.55,107.0
849.62,94.0
849.68,110.0
849.74,106.0
849.81,107.0
849.87,124.0
849.93,102.0
850.0,112.0
850.06,108.0
850.12,120.0
850.18,128.0
850.25,125.0
850.31,123.0
850.37,131.0
850.44,112.0
850.5,133.0
850.56,124.0
850.63,127.0
850.69,151.0
850.75,165.0
850.81,137.0
850.88,149.0
850.94,124.0
851.0,134.0
851.07,136.0
851.13,155.0
851.19,142.0
851.26,130.0
851.32,125.0
851.38,128.0
851.44,105.0
851.51,96.0
851.57,91.0
851.63,97.0
851.7,122.0
851.76,102.0
851.82,93.0
851.89,106.0
851.95,121.0
852.01,124.0
852.07,108.0
852.14,116.0
852.2,127.0
852.26,121.0
852.33,124.0
852.39,128.0
852.45,101.0
852.52,117.0
852.58,132.0
852.64,130.0
852.7,103.0
852.77,127.0
852.83,131.0
852.89,112.0
852.96,113.0
853.02,116.0
853.08,116.0
853.15,149.0
853.21,140.0
853.27,129.0
853.33,133.0
853.4,138.0
853.46,143.0
853.52,152.0
853.59,156.0
853.65,186.0
853.71,184.0
853.78,165.0
853.84,169.0
853.9,189.0
853.96,173.0
854.03,170.0
854.09,179.0
854.15,167.0
854.22,161.0
854.28,160.0
854.34,163.0
854.41,173.0
854.47,178.0
854.53,173.0
854.59,190.0
854.66,207.0
854.72,203.0
854.78,174.0
854.85,186.0
854.91,230.0
854.97,212.0
855.04,204.0
855.1,207.0
855.16,198.0
855.22,198.0
855.29,212.0
855.35,200.0
855.41,204.0
855.48,207.0
855.54,180.0
855.6,192.0
855.67,166.0
855.73,134.0
855.79,156.0
855.85,140.0
855.92,154.0
855.98,160.0
856.04,145.0
856.11,158.0
856.17,182.0
856.23,193.0
856.3,172.0
856.36,180.0
856.42,196.0
856.48,177.0
856.55,187.0
856.61,174.0
856.67,175.0
856.74,164.0
856.8,179.0
856.86,198.0
856.93,174.0
856.99,189.0
857.05,167.0
857.11,188.0
857.18,193.0
857.24,187.0
857.3,197.0
857.37,181.0
857.43,172.0
857.49,156.0
857.56,158.0
857.62,178.0
857.68,174.0
857.74,175.0
857.81,170.0
857.87,160.0
857.93,161.0
858.0,173.0
858.06,140.0
858.12,141.0
858.19,166.0
858.25,136.0
858.31,148.0
858.37,143.0
858.44,144.0
858.5,142.0
858.56,156.0
858.63,127.0
858.69,133.0
858.75,120.0
858.82,138.0
858.88,119.0
858.94,118.0
859.0,113.0
859.07,121.0
859.13,121.0
859.19,121.0
859.26,110.0
859.32,78.0
859.38,96.0
859.45,79.0
859.51,74.0
859.57,75.0
859.63,63.0
859.7,67.0
859.76,59.0
859.82,79.0
859.89,89.0
859.95,51.0
860.01,74.0
860.08,42.0
860.14,55.0
860.2,61.0
860.26,39.0
860.33,51.0
860.39,52.0
860.45,36.0
860.52,39.0
860.58,41.0
860.64,31.0
860.71,46.0
860.77,30.0
860.83,62.0
860.89,68.0
860.96,43.0
861.02,53.0
861.08,63.0
861.15,61.0
861.21,79.0
861.27,87.0
861.34,68.0
861.4,66.0
861.46,92.0
861.52,61.0
861.59,63.0
861.65,82.0
861.71,71.0
861.78,87.0
861.84,68.0
861.9,70.0
861.97,64.0
862.03,68.0
862.09,72.0
862.15,95.0
862.22,108.0
862.28,94.0
862.34,77.0
862.41,90.0
862.47,98.0
862.53,71.0
862.6,83.0
862.66,101.0
862.72,88.0
862.78,113.0
862.85,113.0
862.91,113.0
862.97,117.0
863.04,120.0
863.1,116.0
863.16,118.0
863.23,129.0
863.29,121.0
863.35,96.0
863.41,107.0
863.48,143.0
863.54,120.0
863.6,129.0
863.67,120.0
863.73,124.0
863.79,126.0
863.86,131.0
863.92,105.0
863.98,95.0
864.04,109.0
864.11,96.0
864.17,103.0
864.23,128.0
864.3,119.0
864.36,90.0
864.42,99.0
864.49,112.0
864.55,102.0
864.61,116.0
864.67,115.0
864.74,103.0
864.8,131.0
864.86,114.0
864.93,119.0
864.99,109.0
865.05,128.0
865.12,137.0
865.18,122.0
865.24,108.0
865.3,116.0
865.37,104.0
865.43,115.0
865.49,110.0
865.56,117.0
865.62,141.0
865.68,124.0
865.75,124.0
865.81,131.0
865.87,102.0
865.93,104.0
866.0,116.0
866.06,109.0
866.12,100.0
866.19,99.0
866.25,98.0
866.31,68.0
866.38,68.0
866.44,87.0
866.5,86.0
866.56,76.0
866.63,89.0
866.69,101.0
866.75,72.0
866.82,83.0
866.88,105.0
866.94,74.0
867.01,72.0
867.07,67.0
867.13,66.0
867.19,64.0
867.26,58.0
867.32,71.0
867.38,81.0
867.45,65.0
867.51,72.0
867.57,73.0
867.64,70.0
867.7,67.0
867.76,99.0
867.82,122.0
867.89,84.0
867.95,80.0
868.01,96.0
868.08,105.0
868.14,82.0
868.2,113.0
868.27,108.0
868.33,111.0
868.39,101.0
868.45,89.0
868.52,88.0
868.58,93.0
868.64,77.0
868.71,97.0
868.77,88.0
868.83,83.0
868.9,105.0
868.96,87.0
869.02,74.0
869.08,61.0
869.15,66.0
869.21,53.0
869.27,65.0
869.34,61.0
869.4,57.0
869.46,69.0
869.53,69.0
869.59,51.0
869.65,63.0
869.71,66.0
869.78,75.0
869.84,62.0
869.9,66.0
869.97,90.0
870.03,78.0
870.09,64.0
870.16,84.0
870.22,111.0
870.28,104.0
870.34,83.0
870.41,99.0
870.47,85.0
870.53,100.0
870.6,91.0
870.66,66.0
870.72,80.0
870.79,74.0
870.85,64.0
870.91,62.0
870.97,76.0
871.04,75.0
871.1,81.0
871.16,65.0
871.23,87.0
871.29,98.0
871.35,80.0
871.42,92.0
871.48,91.0
871.54,90.0
871.6,83.0
871.67,86.0
871.73,84.0
871.79,75.0
871.86,97.0
871.92,128.0
871.98,121.0
872.05,97.0
872.11,92.0
872.17,102.0
872.23,99.0
872.3,85.0
872.36,78.0
872.42,102.0
872.49,94.0
872.55,71.0
872.61,76.0
872.68,82.0
872.74,73.0
872.8,54.0
872.86,71.0
872.93,64.0
872.99,77.0
873.05,74.0
873.12,81.0
873.18,83.0
873.24,70.0
873.31,76.0
873.37,69.0
873.43,81.0
873.49,97.0
873.56,69.0
873.62,56.0
873.68,60.0
873.75,71.0
873.81,96.0
873.87,78.0
873.94,74.0
874.0,63.0
874.06,67.0
874.12,74.0
874.19,74.0
874.25,86.0
874.31,83.0
874.38,85.0
874.44,96.0
874.5,88.0
874.57,75.0
874.63,76.0
874.69,79.0
874.75,87.0
874.82,55.0
874.88,43.0
874.94,53.0
875.01,52.0
875.07,51.0
875.13,53.0
875.2,52.0
875.26,62.0
875.32,62.0
875.38,65.0
875.45,57.0
875.51,79.0
875.57,81.0
875.64,76.0
875.7,83.0
875.76,76.0
875.83,78.0
875.89,68.0
875.95,74.0
876.01,85.0
876.08,78.0
876.14,67.0
876.2,88.0
876.27,66.0
876.33,73.0
876.39,76.0
876.46,60.0
876.52,69.0
876.58,65.0
876.64,72.0
876.71,69.0
876.77,80.0
876.83,82.0
876.9,66.0
876.96,113.0
877.02,109.0
877.09,99.0
877.15,112.0
877.21,99.0
877.27,96.0
877.34,93.0
877.4,95.0
877.46,113.0
877.53,110.0
877.59,105.0
877.65,96.0
877.72,110.0
877.78,99.0
877.84,87.0
877.9,104.0
877.97,118.0
878.03,119.0
878.09,121.0
878.16,104.0
878.22,81.0
878.28,108.0
878.35,109.0
878.41,111.0
878.47,132.0
878.53,116.0
878.6,122.0
878.66,116.0
878.72,131.0
878.79,140.0
878.85,151.0
878.91,153.0
878.98,155.0
879.04,166.0
879.1,171.0
879.16,189.0
879.23,170.0
879.29,195.0
879.35,199.0
879.42,202.0
879.48,196.0
879.54,208.0
879.61,211.0
879.67,197.0
879.73,217.0
879.79,217.0
879.86,230.0
879.92,231.0
879.98,222.0
880.05,201.0
880.11,230.0
880.17,219.0
880.24,233.0
880.3,223.0
880.36,214.0
880.42,209.0
880.49,211.0
880.55,240.0
880.61,229.0
880.68,250.0
880.74,226.0
880.8,223.0
880.87,218.0
880.93,215.0
880.99,226.0
881.05,219.0
881.12,216.0
881.18,230.0
881.24,245.0
881.31,217.0
881.37,239.0
881.43,242.0
881.5,244.0
881.56,219.0
881.62,212.0
881.68,205.0
881.75,203.0
881.81,207.0
881.87,207.0
881.94,204.0
882.0,178.0
882.06,165.0
882.13,173.0
882.19,163.0
882.25,156.0
882.31,170.0
882.38,195.0
882.44,175.0
882.5,165.0
882.57,159.0
882.63,162.0
882.69,185.0
882.76,188.0
882.82,171.0
882.88,156.0
882.94,161.0
883.01,156.0
883.07,142.0
883.13,162.0
883.2,172.0
883.26,176.0
883.32,154.0
883.39,160.0
883.45,173.0
883.51,156.0
883.57,169.0
883.64,179.0
883.7,164.0
883.76,173.0
883.83,163.0
883.89,170.0
883.95,173.0
884.02,159.0
884.08,170.0
884.14,167.0
884.2,152.0
884.27,153.0
884.33,162.0
884.39,138.0
884.46,120.0
884.52,138.0
884.58,152.0
884.65,130.0
884.71,127.0
884.77,150.0
884.83,124.0
884.9,127.0
884.96,123.0
885.02,144.0
885.09,127.0
885.15,121.0
885.21,112.0
885.28,119.0
885.34,116.0
885.4,95.0
885.46,87.0
885.53,83.0
885.59,80.0
885.65,77.0
885.72,93.0
885.78,79.0
885.84,84.0
885.91,75.0
885.97,91.0
886.03,83.0
886.09,71.0
886.16,82.0
886.22,76.0
886.28,78.0
886.35,72.0
886.41,67.0
886.47,82.0
886.54,75.0
886.6,63.0
886.66,82.0
886.72,74.0
886.79,71.0
886.85,63.0
886.91,64.0
886.98,63.0
887.04,55.0
887.1,59.0
887.17,57.0
887.23,62.0
887.29,57.0
887.35,69.0
887.42,45.0
887.48,45.0
887.54,45.0
887.61,50.0
887.67,57.0
887.73,48.0
887.8,55.0
887.86,48.0
887.92,41.0
887.98,83.0
888.05,75.0
888.11,83.0
888.17,96.0
888.24,91.0
888.3,82.0
888.36,66.0
888.43,70.0
888.49,65.0
888.55,91.0
888.61,97.0
888.68,95.0
888.74,80.0
888.8,89.0
888.87,130.0
888.93,127.0
888.99,115.0
889.06,105.0
889.12,112.0
889.18,113.0
889.24,87.0
889.31,101.0
889.37,95.0
889.43,117.0
889.5,106.0
889.56,110.0
889.62,116.0
889.69,112.0
889.75,117.0
889.81,116.0
889.87,129.0
889.94,97.0
890.0,86.0
890.06,98.0
890.13,99.0
890.19,126.0
890.25,118.0
890.32,124.0
890.38,120.0
890.44,106.0
890.5,123.0
890.57,129.0
890.63,116.0
890.69,127.0
890.76,116.0
890.82,123.0
890.88,131.0
890.95,149.0
891.01,131.0
891.07,120.0
891.13,139.0
891.2,103.0
891.26,90.0
891.32,122.0
891.39,118.0
891.45,113.0
891.51,113.0
891.58,118.0
891.64,112.0
891.7,122.0
891.76,101.0
891.83,103.0
891.89,107.0
891.95,104.0
892.02,87.0
892.08,89.0
892.14,100.0
892.21,74.0
892.27,87.0
892.33,94.0
892.39,84.0
892.46,92.0
892.52,90.0
892.58,62.0
892.65,64.0
892.71,88.0
892.77,73.0
892.84,78.0
892.9,87.0
892.96,95.0
893.02,98.0
893.09,108.0
893.15,123.0
893.21,120.0
893.28,104.0
893.34,121.0
893.4,98.0
893.47,110.0
893.53,114.0
893.59,107.0
893.65,115.0
893.72,111.0
893.78,112.0
893.84,109.0
893.91,130.0
893.97,155.0
894.03,160.0
894.1,158.0
894.16,143.0
894.22,153.0
894.28,153.0
894.35,161.0
894.41,163.0
894.47,140.0
894.54,143.0
894.6,138.0
894.66,152.0
894.73,154.0
894.79,155.0
894.85,159.0
894.91,160.0
894.98,143.0
895.04,157.0
895.1,160.0
895.17,161.0
895.23,163.0
895.29,182.0
895.36,181.0
895.42,178.0
895.48,178.0
895.54,181.0
895.61,198.0
895.67,194.0
895.73,192.0
895.8,203.0
895.86,192.0
895.92,187.0
895.99,206.0
896.05,198.0
896.11,184.0
896.17,189.0
896.24,195.0
896.3,201.0
896.36,187.0
896.43,177.0
896.49,170.0
896.55,192.0
896.62,180.0
896.68,172.0
896.74,165.0
896.8,189.0
896.87,174.0
896.93,174.0
896.99,187.0
897.06,169.0
897.12,171.0
897.18,168.0
897.25,167.0
897.31,178.0
897.37,149.0
897.43,182.0
897.5,184.0
897.56,160.0
897.62,147.0
897.69,156.0
897.75,167.0
897.81,163.0
897.88,157.0
897.94,160.0
898.0,126.0
898.06,124.0
898.13,131.0
898.19,124.0
898.25,116.0
898.32,124.0
898.38,140.0
898.44,123.0
898.51,134.0
898.57,117.0
898.63,124.0
898.69,123.0
898.76,112.0
898.82,116.0
898.88,116.0
898.95,138.0
899.01,116.0
899.07,109.0
899.14,120.0
899.2,101.0
899.26,95.0
899.32,123.0
899.39,135.0
899.45,112.0
899.51,116.0
899.58,123.0
899.64,101.0
899.7,113.0
899.77,110.0
899.83,102.0
899.89,96.0
899.95,79.0
900.02,96.0
900.08,98.0
900.14,100.0
900.21,101.0
900.27,69.0
900.33,80.0
900.4,85.0
900.46,94.0
900.52,91.0
900.58,87.0
900.65,95.0
900.71,79.0
900.77,105.0
900.84,86.0
900.9,88.0
900.96,111.0
901.03,112.0
901.09,101.0
901.15,106.0
901.21,121.0
901.28,105.0
901.34,115.0
901.4,121.0
901.47,101.0
901.53,86.0
901.59,106.0
901.66,96.0
901.72,109.0
901.78,116.0
901.84,127.0
901.91,110.0
901.97,87.0
902.03,91.0
902.1,112.0
902.16,106.0
902.22,99.0
902.29,94.0
902.35,88.0
902.41,68.0
902.47,74.0
902.54,82.0
902.6,75.0
902.66,64.0
902.73,65.0
902.79,76.0
902.85,64.0
902.92,51.0
902.98,60.0
903.04,61.0
903.1,55.0
903.17,48.0
903.23,76.0
903.29,56.0
903.36,60.0
903.42,49.0
903.48,66.0
903.55,49.0
903.61,27.0
903.67,43.0
903.73,41.0
903.8,60.0
903.86,49.0
903.92,68.0
903.99,55.0
904.05,53.0
904.11,74.0
904.18,80.0
904.24,61.0
904.3,68.0
904.36,79.0
904.43,85.0
904.49,76.0
904.55,89.0
904.62,70.0
904.68,66.0
904.74,85.0
904.81,76.0
904.87,68.0
904.93,74.0
904.99,80.0
905.06,83.0
905.12,90.0
905.18,105.0
905.25,101.0
905.31,89.0
905.37,113.0
905.44,116.0
905.5,118.0
905.56,141.0
905.62,127.0
905.69,123.0
905.75,145.0
905.81,148.0
905.88,150.0
905.94,153.0
906.0,138.0
906.07,131.0
906.13,156.0
906.19,144.0
906.25,127.0
906.32,134.0
906.38,123.0
906.44,130.0
906.51,153.0
906.57,148.0
906.63,165.0
906.7,129.0
906.76,135.0
906.82,132.0
906.88,128.0
906.95,137.0
907.01,136.0
907.07,146.0
907.14,159.0
907.2,155.0
907.26,164.0
907.33,156.0
907.39,142.0
907.45,146.0
907.51,153.0
907.58,132.0
907.64,117.0
907.7,123.0
907.77,135.0
907.83,149.0
907.89,127.0
907.96,126.0
908.02,126.0
908.08,105.0
908.14,118.0
908.21,90.0
908.27,101.0
908.33,126.0
908.4,134.0
908.46,120.0
908.52,120.0
908.59,105.0
908.65,104.0
908.71,115.0
908.77,125.0
908.84,133.0
908.9,129.0
908.96,123.0
909.03,131.0
909.09,123.0
909.15,116.0
909.22,117.0
909.28,107.0
909.34,136.0
909.4,139.0
909.47,145.0
909.53,137.0
909.59,143.0
909.66,130.0
909.72,137.0
909.78,126.0
909.85,112.0
909.91,132.0
909.97,145.0
910.03,152.0
910.1,139.0
910.16,138.0
910.22,149.0
910.29,141.0
910.35,133.0
910.41,124.0
910.48,128.0
910.54,131.0
910.6,140.0
910.66,148.0
910.73,154.0
910.79,152.0
910.85,140.0
910.92,138.0
910.98,133.0
911.04,124.0
911.11,138.0
911.17,109.0
911.23,110.0
911.29,113.0
911.36,123.0
911.42,111.0
911.48,107.0
911.55,108.0
911.61,102.0
911.67,121.0
911.74,106.0
911.8,109.0
911.86,112.0
911.92,94.0
911.99,97.0
912.05,112.0
912.11,90.0
912.18,84.0
912.24,90.0
912.3,90.0
912.37,98.0
912.43,97.0
912.49,108.0
912.55,107.0
912.62,108.0
912.68,119.0
912.74,130.0
912.81,92.0
912.87,74.0
912.93,76.0
913.0,96.0
913.06,83.0
913.12,100.0
913.18,90.0
913.25,86.0
913.31,82.0
913.37,68.0
913.44,79.0
913.5,71.0
913.56,88.0
913.63,102.0
913.69,86.0
913.75,83.0
913.81,90.0
913.88,74.0
913.94,89.0
914.0,90.0
914.07,80.0
914.13,95.0
914.19,83.0
914.26,96.0
914.32,99.0
914.38,98.0
914.44,109.0
914.51,107.0
914.57,86.0
914.63,104.0
914.7,85.0
914.76,88.0
914.82,111.0
914.89,96.0
914.95,107.0
915.01,101.0
915.07,102.0
915.14,124.0
915.2,130.0
915.26,126.0
915.33,121.0
915.39,113.0
915.45,113.0
915.52,111.0
915.58,123.0
915.64,124.0
915.7,120.0
915.77,125.0
915.83,111.0
915.89,129.0
915.96,120.0
916.02,113.0
916.08,115.0
916.15,125.0
916.21,132.0
916.27,111.0
916.33,108.0
916.4,103.0
916.46,121.0
916.52,101.0
916.59,100.0
916.65,121.0
916.71,108.0
916.78,125.0
916.84,112.0
916.9,113.0
916.96,113.0
917.03,104.0
917.09,99.0
917.15,103.0
917.22,105.0
917.28,116.0
917.34,105.0
917.41,94.0
917.47,101.0
917.53,119.0
917.59,123.0
917.66,124.0
917.72,112.0
917.78,116.0
917.85,127.0
917.91,115.0
917.97,114.0
918.04,111.0
918.1,109.0
918.16,114.0
918.22,102.0
918.29,102.0
918.35,88.0
918.41,104.0
918.48,97.0
918.54,94.0
918.6,85.0
918.67,84.0
918.73,101.0
918.79,106.0
918.85,105.0
918.92,121.0
918.98,113.0
919.04,104.0
919.11,94.0
919.17,80.0
919.23,79.0
919.3,64.0
919.36,48.0
919.42,27.0
919.48,58.0
919.55,49.0
919.61,65.0
919.67,44.0
919.74,39.0
919.8,43.0
919.86,38.0
919.93,52.0
919.99,51.0
920.05,50.0
920.11,47.0
920.18,45.0
920.24,61.0
920.3,53.0
920.37,32.0
920.43,40.0
920.49,27.0
920.56,19.0
920.62,14.0
920.68,35.0
920.74,42.0
920.81,20.0
920.87,17.0
920.93,12.0
921.0,33.0
921.06,32.0
921.12,33.0
921.19,37.0
921.25,37.0
921.31,56.0
921.37,57.0
921.44,37.0
921.5,30.0
921.56,30.0
921.63,26.0
921.69,23.0
921.75,30.0
921.82,40.0
921.88,46.0
921.94,42.0
922.0,23.0
922.07,35.0
922.13,37.0
922.19,55.0
922.26,62.0
922.32,74.0
922.38,45.0
922.45,17.0
922.51,20.0
922.57,10.0
922.63,13.0
922.7,17.0
922.76,-5.0
922.82,11.0
922.89,16.0
922.95,11.0
923.01,36.0
923.08,28.0
923.14,30.0
923.2,31.0
923.26,55.0
923.33,45.0
923.39,38.0
923.45,65.0
923.52,75.0
923.58,67.0
923.64,64.0
923.71,71.0
923.77,58.0
923.83,56.0
923.89,49.0
923.96,51.0
924.02,67.0
924.08,61.0
924.15,58.0
924.21,53.0
924.27,49.0
924.34,77.0
924.4,66.0
924.46,60.0
924.52,46.0
924.59,60.0
924.65,69.0
924.71,82.0
924.78,83.0
924.84,48.0
924.9,69.0
924.97,66.0
925.03,43.0
925.09,60.0
925.15,36.0
925.22,41.0
925.28,65.0
925.34,41.0
925.41,49.0
925.47,66.0
925.53,78.0
925.6,61.0
925.66,90.0
925.72,79.0
925.78,69.0
925.85,60.0
925.91,54.0
925.97,61.0
926.04,62.0
926.1,65.0
926.16,84.0
926.23,75.0
926.29,73.0
926.35,48.0
926.41,47.0
926.48,69.0
926.54,64.0
926.6,55.0
926.67,35.0
926.73,63.0
926.79,72.0
926.86,71.0
926.92,69.0
926.98,79.0
927.04,88.0
927.11,88.0
927.17,99.0
927.23,82.0
927.3,94.0
927.36,100.0
927.42,104.0
927.49,105.0
927.55,111.0
927.61,108.0
927.67,119.0
927.74,119.0
927.8,126.0
927.86,110.0
927.93,104.0
927.99,100.0
928.05,103.0
928.12,101.0
928.18,109.0
928.24,115.0
928.3,99.0
928.37,94.0
928.43,108.0
928.49,122.0
928.56,128.0
928.62,121.0
928.68,118.0
928.75,113.0
928.81,92.0
928.87,99.0
928.93,94.0
929.0,105.0
929.06,123.0
929.12,116.0
929.19,113.0
929.25,122.0
929.31,115.0
929.38,137.0
929.44,119.0
929.5,134.0
929.56,139.0
929.63,141.0
929.69,143.0
929.75,146.0
929.82,160.0
929.88,155.0
929.94,149.0
930.01,129.0
930.07,136.0
930.13,141.0
930.19,152.0
930.26,152.0
930.32,181.0
930.38,181.0
930.45,191.0
930.51,179.0
930.57,188.0
930.64,195.0
930.7,191.0
930.76,191.0
930.82,168.0
930.89,170.0
930.95,163.0
931.01,162.0
931.08,180.0
931.14,162.0
931.2,152.0
931.27,164.0
931.33,187.0
931.39,177.0
931.45,194.0
931.52,184.0
931.58,180.0
931.64,174.0
931.71,168.0
931.77,178.0
931.83,170.0
931.9,189.0
931.96,181.0
932.02,181.0
932.08,184.0
932.15,190.0
932.21,179.0
932.27,182.0
932.34,170.0
932.4,188.0
932.46,170.0
932.53,182.0
932.59,204.0
932.65,194.0
932.71,198.0
932.78,199.0
932.84,181.0
932.9,188.0
932.97,182.0
933.03,182.0
933.09,193.0
933.16,176.0
933.22,162.0
933.28,159.0
933.34,156.0
933.41,158.0
933.47,159.0
933.53,175.0
933.6,151.0
933.66,157.0
933.72,162.0
933.79,151.0
933.85,141.0
933.91,147.0
933.97,159.0
934.04,155.0
934.1,159.0
934.16,167.0
934.23,170.0
934.29,160.0
934.35,138.0
934.42,148.0
934.48,173.0
934.54,184.0
934.6,205.0
934.67,199.0
934.73,175.0
934.79,205.0
934.86,207.0
934.92,211.0
934.98,198.0
935.05,207.0
935.11,215.0
935.17,195.0
935.23,204.0
935.3,190.0
935.36,194.0
935.42,188.0
935.49,182.0
935.55,196.0
935.61,184.0
935.68,203.0
935.74,190.0
935.8,196.0
935.86,204.0
935.93,190.0
935.99,191.0
936.05,178.0
936.12,181.0
936.18,185.0
936.24,190.0
936.31,194.0
936.37,170.0
936.43,160.0
936.49,167.0
936.56,173.0
936.62,170.0
936.68,177.0
936.75,158.0
936.81,148.0
936.87,137.0
936.94,141.0
937.0,133.0
937.06,119.0
937.12,129.0
937.19,113.0
937.25,119.0
937.31,133.0
937.38,115.0
937.44,99.0
937.5,102.0
937.57,94.0
937.63,117.0
937.69,115.0
937.75,121.0
937.82,125.0
937.88,95.0
937.94,120.0
938.01,115.0
938.07,123.0
938.13,104.0
938.2,110.0
938.26,113.0
938.32,137.0
938.38,155.0
938.45,131.0
938.51,124.0
938.57,135.0
938.64,145.0
938.7,134.0
938.76,150.0
938.83,145.0
938.89,150.0
938.95,150.0
939.01,158.0
939.08,152.0
939.14,159.0
939.2,173.0
939.27,177.0
939.33,170.0
939.39,145.0
939.46,152.0
939.52,148.0
939.58,155.0
939.64,147.0
939.71,160.0
939.77,146.0
939.83,132.0
939.9,149.0
939.96,153.0
940.02,151.0
940.09,151.0
940.15,162.0
940.21,158.0
940.27,151.0
940.34,157.0
940.4,167.0
940.46,157.0
940.53,151.0
940.59,154.0
940.65,161.0
940.72,174.0
940.78,163.0
940.84,153.0
940.9,155.0
940.97,121.0
941.03,120.0
941.09,141.0
941.16,140.0
941.22,133.0
941.28,141.0
941.35,157.0
941.41,152.0
941.47,131.0
941.53,129.0
941.6,133.0
941.66,140.0
941.72,140.0
941.79,133.0
941.85,148.0
941.91,163.0
941.98,138.0
942.04,122.0
942.1,127.0
942.16,135.0
942.23,149.0
942.29,131.0
942.35,161.0
942.42,148.0
942.48,146.0
942.54,141.0
942.61,144.0
942.67,117.0
942.73,112.0
942.79,124.0
942.86,110.0
942.92,124.0
942.98,112.0
943.05,122.0
943.11,122.0
943.17,134.0
943.24,129.0
943.3,119.0
943.36,119.0
943.42,102.0
943.49,128.0
943.55,131.0
943.61,135.0
943.68,127.0
943.74,123.0
943.8,133.0
943.87,113.0
943.93,129.0
943.99,108.0
944.05,102.0
944.12,116.0
944.18,111.0
944.24,118.0
944.31,107.0
944.37,106.0
944.43,90.0
944.5,104.0
944.56,94.0
944.62,105.0
944.68,105.0
944.75,97.0
944.81,83.0
944.87,73.0
944.94,89.0
945.0,125.0
945.06,113.0
945.13,112.0
945.19,106.0
945.25,110.0
945.31,121.0
945.38,111.0
945.44,124.0
945.5,116.0
945.57,119.0
945.63,105.0
945.69,113.0
945.76,95.0
945.82,117.0
945.88,109.0
945.94,119.0
946.01,118.0
946.07,115.0
946.13,100.0
946.2,100.0
946.26,99.0
946.32,100.0
946.39,101.0
946.45,121.0
946.51,108.0
946.57,120.0
946.64,141.0
946.7,125.0
946.76,124.0
946.83,135.0
946.89,124.0
946.95,122.0
947.02,127.0
947.08,115.0
947.14,125.0
947.2,130.0
947.27,124.0
947.33,106.0
947.39,105.0
947.46,103.0
947.52,123.0
947.58,119.0
947.65,98.0
947.71,100.0
947.77,85.0
947.83,91.0
947.9,117.0
947.96,112.0
948.02,107.0
948.09,88.0
948.15,75.0
948.21,83.0
948.28,97.0
948.34,89.0
948.4,82.0
948.46,83.0
948.53,79.0
948.59,88.0
948.65,94.0
948.72,84.0
948.78,91.0
948.84,104.0
948.91,109.0
948.97,107.0
949.03,105.0
949.09,96.0
949.16,93.0
949.22,72.0
949.28,75.0
949.35,83.0
949.41,96.0
949.47,75.0
949.54,85.0
949.6,82.0
949.66,72.0
949.72,67.0
949.79,72.0
949.85,84.0
949.91,87.0
949.98,77.0
950.04,86.0
950.1,89.0
950.17,88.0
950.23,102.0
950.29,93.0
950.35,93.0
950.42,99.0
950.48,99.0
950.54,97.0
950.61,99.0
950.67,116.0
950.73,99.0
950.8,116.0
950.86,115.0
950.92,132.0
950.98,143.0
951.05,148.0
951.11,122.0
951.17,134.0
951.24,132.0
951.3,139.0
951.36,141.0
951.43,135.0
951.49,140.0
951.55,143.0
951.61,134.0
951.68,149.0
951.74,141.0
951.8,133.0
951.87,147.0
951.93,152.0
951.99,143.0
952.06,148.0
952.12,154.0
952.18,132.0
952.24,145.0
952.31,154.0
952.37,160.0
952.43,149.0
952.5,141.0
952.56,158.0
952.62,137.0
952.69,130.0
952.75,144.0
952.81,140.0
952.87,132.0
952.94,134.0
953.0,158.0
953.06,151.0
953.13,143.0
953.19,146.0
953.25,145.0
953.32,160.0
953.38,142.0
953.44,129.0
953.5,131.0
953.57,133.0
953.63,155.0
953.69,155.0
953.76,152.0
953.82,157.0
953.88,170.0
953.95,149.0
954.01,162.0
954.07,172.0
954.13,163.0
954.2,164.0
954.26,162.0
954.32,159.0
954.39,138.0
954.45,142.0
954.51,131.0
954.58,109.0
954.64,137.0
954.7,145.0
954.76,131.0
954.83,153.0
954.89,150.0
954.95,159.0
955.02,148.0
955.08,138.0
955.14,134.0
955.21,148.0
955.27,143.0
955.33,134.0
955.39,135.0
955.46,129.0
955.52,142.0
955.58,127.0
955.65,122.0
955.71,128.0
955.77,115.0
955.84,123.0
955.9,139.0
955.96,143.0
956.02,133.0
956.09,137.0
956.15,128.0
956.21,105.0
956.28,127.0
956.34,149.0
956.4,125.0
956.47,132.0
956.53,137.0
956.59,150.0
956.65,129.0
956.72,114.0
956.78,121.0
956.84,122.0
956.91,127.0
956.97,122.0
957.03,110.0
957.1,96.0
957.16,105.0
957.22,124.0
957.28,104.0
957.35,119.0
957.41,114.0
957.47,115.0
957.54,133.0
957.6,129.0
957.66,101.0
957.73,94.0
957.79,107.0
957.85,106.0
957.91,104.0
957.98,97.0
958.04,116.0
958.1,104.0
958.17,116.0
958.23,144.0
958.29,127.0
958.36,128.0
958.42,115.0
958.48,111.0
958.54,104.0
958.61,119.0
958.67,94.0
958.73,67.0
958.8,78.0
958.86,80.0
958.92,69.0
958.99,65.0
959.05,82.0
959.11,68.0
959.17,72.0
959.24,64.0
959.3,53.0
959.36,88.0
959.43,75.0
959.49,76.0
959.55,71.0
959.62,74.0
959.68,80.0
959.74,82.0
959.8,82.0
959.87,77.0
959.93,91.0
959.99,82.0
960.06,87.0
960.12,81.0
960.18,95.0
960.25,80.0
960.31,64.0
960.37,72.0
960.43,79.0
960.5,46.0
960.56,35.0
960.62,47.0
960.69,71.0
960.75,71.0
960.81,69.0
960.88,103.0
960.94,114.0
961.0,111.0
961.06,119.0
961.13,113.0
961.19,99.0
961.25,115.0
961.32,132.0
961.38,129.0
961.44,137.0
961.51,138.0
961.57,146.0
961.63,141.0
961.69,119.0
961.76,105.0
961.82,119.0
961.88,117.0
961.95,137.0
962.01,144.0
962.07,139.0
962.14,139.0
962.2,131.0
962.26,126.0
962.32,133.0
962.39,122.0
962.45,101.0
962.51,95.0
962.58,113.0
962.64,118.0
962.7,105.0
962.77,115.0
962.83,123.0
962.89,124.0
962.95,100.0
963.02,91.0
963.08,83.0
963.14,94.0
963.21,82.0
963.27,75.0
963.33,88.0
963.4,96.0
963.46,94.0
963.52,97.0
963.58,104.0
963.65,101.0
963.71,105.0
963.77,105.0
963.84,125.0
963.9,111.0
963.96,115.0
964.03,119.0
964.09,104.0
964.15,112.0
964.21,102.0
964.28,102.0
964.34,104.0
964.4,87.0
964.47,71.0
964.53,105.0
964.59,128.0
964.66,120.0
964.72,121.0
964.78,108.0
964.84,117.0
964.91,96.0
964.97,110.0
965.03,101.0
965.1,106.0
965.16,90.0
965.22,75.0
965.29,83.0
965.35,81.0
965.41,99.0
965.47,99.0
965.54,82.0
965.6,94.0
965.66,75.0
965.73,77.0
965.79,60.0
965.85,73.0
965.92,77.0
965.98,74.0
966.04,103.0
966.1,102.0
966.17,96.0
966.23,102.0
966.29,112.0
966.36,117.0
966.42,124.0
966.48,120.0
966.55,113.0
966.61,125.0
966.67,114.0
966.73,106.0
966.8,122.0
966.86,113.0
966.92,88.0
966.99,99.0
967.05,90.0
967.11,97.0
967.18,118.0
967.24,102.0
967.3,116.0
967.36,110.0
967.43,117.0
967.49,105.0
967.55,115.0
967.62,132.0
967.68,119.0
967.74,115.0
967.81,121.0
967.87,130.0
967.93,134.0
967.99,152.0
968.06,148.0
968.12,129.0
968.18,116.0
968.25,129.0
968.31,142.0
968.37,138.0
968.44,156.0
968.5,154.0
968.56,158.0
968.62,141.0
968.69,140.0
968.75,130.0
968.81,137.0
968.88,148.0
968.94,155.0
969.0,159.0
969.07,159.0
969.13,152.0
969.19,140.0
969.25,140.0
969.32,116.0
969.38,100.0
969.44,90.0
969.51,84.0
969.57,97.0
969.63,97.0
969.7,91.0
969.76,90.0
969.82,82.0
969.88,77.0
969.95,93.0
970.01,101.0
970.07,86.0
970.14,86.0
970.2,93.0
970.26,107.0
970.33,83.0
970.39,64.0
970.45,78.0
970.51,66.0
970.58,73.0
970.64,75.0
970.7,82.0
970.77,81.0
970.83,68.0
970.89,82.0
970.96,87.0
971.02,75.0
971.08,60.0
971.14,55.0
971.21,48.0
971.27,53.0
971.33,53.0
971.4,50.0
971.46,60.0
971.52,47.0
971.59,54.0
971.65,36.0
971.71,50.0
971.77,52.0
971.84,46.0
971.9,49.0
971.96,54.0
972.03,57.0
972.09,46.0
972.15,38.0
972.22,30.0
972.28,34.0
972.34,55.0
972.4,41.0
972.47,39.0
972.53,43.0
972.59,18.0
972.66,17.0
972.72,27.0
972.78,33.0
972.85,31.0
972.91,38.0
972.97,51.0
973.03,57.0
973.1,49.0
973.16,34.0
973.22,44.0
973.29,36.0
973.35,39.0
973.41,46.0
973.48,34.0
973.54,42.0
973.6,40.0
973.66,31.0
973.73,20.0
973.79,31.0
973.85,40.0
973.92,49.0
973.98,35.0
974.04,41.0
974.11,27.0
974.17,43.0
974.23,64.0
974.29,61.0
974.36,42.0
974.42,38.0
974.48,30.0
974.55,30.0
974.61,20.0
974.67,20.0
974.74,29.0
974.8,16.0
974.86,26.0
974.92,44.0
974.99,27.0
975.05,24.0
975.11,31.0
975.18,36.0
975.24,39.0
975.3,25.0
975.37,24.0
975.43,38.0
975.49,19.0
975.55,26.0
975.62,21.0
975.68,16.0
975.74,22.0
975.81,29.0
975.87,36.0
975.93,28.0
976.0,32.0
976.06,36.0
976.12,57.0
976.18,56.0
976.25,52.0
976.31,61.0
976.37,72.0
976.44,61.0
976.5,68.0
976.56,78.0
976.63,74.0
976.69,66.0
976.75,61.0
976.81,78.0
976.88,75.0
976.94,67.0
977.0,60.0
977.07,60.0
977.13,82.0
977.19,69.0
977.26,90.0
977.32,84.0
977.38,79.0
977.44,79.0
977.51,76.0
977.57,82.0
977.63,78.0
977.7,113.0
977.76,96.0
977.82,100.0
977.89,102.0
977.95,98.0
978.01,89.0
978.07,91.0
978.14,90.0
978.2,81.0
978.26,100.0
978.33,92.0
978.39,101.0
978.45,75.0
978.52,98.0
978.58,116.0
978.64,98.0
978.7,91.0
978.77,92.0
978.83,82.0
978.89,82.0
978.96,96.0
979.02,82.0
979.08,100.0
979.15,119.0
979.21,94.0
979.27,85.0
979.33,90.0
979.4,86.0
979.46,91.0
979.52,89.0
979.59,107.0
979.65,101.0
979.71,99.0
979.78,92.0
979.84,97.0
979.9,123.0
979.96,121.0
980.03,115.0
980.09,94.0
980.15,99.0
980.22,110.0
980.28,116.0
980.34,122.0
980.41,122.0
980.47,123.0
980.53,104.0
980.59,122.0
980.66,119.0
980.72,119.0
980.78,121.0
980.85,129.0
980.91,121.0
980.97,122.0
981.04,134.0
981.1,137.0
981.16,108.0
981.22,104.0
981.29,112.0
981.35,100.0
981.41,109.0
981.48,96.0
981.54,97.0
981.6,116.0
981.67,117.0
981.73,107.0
981.79,108.0
981.85,99.0
981.92,105.0
981.98,104.0
982.04,118.0
982.11,108.0
982.17,103.0
982.23,105.0
982.3,105.0
982.36,116.0
982.42,102.0
982.48,83.0
982.55,88.0
982.61,93.0
982.67,82.0
982.74,108.0
982.8,108.0
982.86,113.0
982.93,135.0
982.99,118.0
983.05,115.0
983.11,127.0
983.18,124.0
983.24,137.0
983.3,133.0
983.37,137.0
983.43,124.0
983.49,134.0
983.56,133.0
983.62,142.0
983.68,151.0
983.74,130.0
983.81,155.0
983.87,150.0
983.93,140.0
984.0,132.0
984.06,165.0
984.12,155.0
984.19,146.0
984.25,162.0
984.31,156.0
984.37,160.0
984.44,159.0
984.5,163.0
984.56,162.0
984.63,150.0
984.69,157.0
984.75,169.0
984.82,162.0
984.88,174.0
984.94,158.0
985.0,173.0
985.07,174.0
985.13,173.0
985.19,168.0
985.26,164.0
985.32,170.0
985.38,151.0
985.45,159.0
985.51,162.0
985.57,163.0
985.63,138.0
985.7,137.0
985.76,137.0
985.82,149.0
985.89,135.0
985.95,135.0
986.01,137.0
986.08,148.0
986.14,152.0
986.2,137.0
986.26,141.0
986.33,144.0
986.39,133.0
986.45,160.0
986.52,167.0
986.58,157.0
986.64,154.0
986.71,154.0
986.77,153.0
986.83,164.0
986.89,165.0
986.96,162.0
987.02,175.0
987.08,179.0
987.15,149.0
987.21,157.0
987.27,164.0
987.34,141.0
987.4,134.0
987.46,146.0
987.52,163.0
987.59,154.0
987.65,152.0
987.71,136.0
987.78,143.0
987.84,162.0
987.9,169.0
987.97,149.0
988.03,173.0
988.09,150.0
988.15,156.0
988.22,153.0
988.28,157.0
988.34,141.0
988.41,148.0
988.47,170.0
988.53,155.0
988.6,207.0
988.66,195.0
988.72,186.0
988.78,165.0
988.85,164.0
988.91,170.0
988.97,184.0
989.04,174.0
989.1,161.0
989.16,163.0
989.23,151.0
989.29,155.0
989.35,153.0
989.41,163.0
989.48,151.0
989.54,157.0
989.6,160.0
989.67,166.0
989.73,179.0
989.79,177.0
989.86,170.0
989.92,199.0
989.98,192.0
990.04,173.0
990.11,192.0
990.17,195.0
990.23,184.0
990.3,195.0
990.36,165.0
990.42,173.0
990.49,170.0
990.55,171.0
990.61,175.0
990.67,168.0
990.74,192.0
990.8,198.0
990.86,179.0
990.93,198.0
990.99,201.0
991.05,183.0
991.12,170.0
991.18,178.0
991.24,192.0
991.3,193.0
991.37,189.0
991.43,183.0
991.49,186.0
991.56,206.0
991.62,196.0
991.68,177.0
991.75,194.0
991.81,222.0
991.87,208.0
991.93,202.0
992.0,211.0
992.06,184.0
992.12,168.0
992.19,184.0
992.25,198.0
992.31,217.0
992.38,190.0
992.44,197.0
992.5,187.0
992.56,184.0
992.63,193.0
992.69,190.0
992.75,213.0
992.82,186.0
992.88,190.0
992.94,192.0
993.01,187.0
993.07,185.0
993.13,199.0
993.19,194.0
993.26,168.0
993.32,168.0
993.38,176.0
993.45,178.0
993.51,184.0
993.57,179.0
993.64,162.0
993.7,163.0
993.76,165.0
993.82,166.0
993.89,180.0
993.95,198.0
994.01,206.0
994.08,207.0
994.14,191.0
994.2,192.0
994.27,181.0
994.33,177.0
994.39,185.0
994.45,180.0
994.52,175.0
994.58,187.0
994.64,199.0
994.71,192.0
994.77,193.0
994.83,192.0
994.9,171.0
994.96,160.0
995.02,162.0
995.08,149.0
995.15,164.0
995.21,181.0
995.27,167.0
995.34,155.0
995.4,160.0
995.46,163.0
995.53,155.0
995.59,164.0
995.65,160.0
995.71,165.0
995.78,163.0
995.84,167.0
995.9,157.0
995.97,156.0
996.03,145.0
996.09,132.0
996.16,144.0
996.22,137.0
996.28,141.0
996.34,131.0
996.41,124.0
996.47,115.0
996.53,112.0
996.6,126.0
996.66,102.0
996.72,96.0
996.79,107.0
996.85,102.0
996.91,110.0
996.97,123.0
997.04,101.0
997.1,83.0
997.16,94.0
997.23,84.0
997.29,85.0
997.35,79.0
997.42,93.0
997.48,98.0
997.54,82.0
997.6,83.0
997.67,91.0
997.73,95.0
997.79,89.0
997.86,60.0
997.92,64.0
997.98,60.0
998.05,59.0
998.11,67.0
998.17,64.0
998.23,53.0
998.3,57.0
998.36,72.0
998.42,77.0
998.49,53.0
998.55,46.0
998.61,84.0
998.68,71.0
998.74,63.0
998.8,65.0
998.86,65.0
998.93,70.0
998.99,83.0
999.05,78.0
999.12,83.0
999.18,63.0
999.24,88.0
999.31,56.0
999.37,49.0
999.43,52.0
999.49,56.0
999.56,52.0
999.62,42.0
999.68,57.0
999.75,62.0
999.81,52.0
999.87,63.0
