timestamp,intensity
0,-258.0
0.06,-236.0
0.13,-236.0
0.19,-237.0
0.25,-239.0
0.32,-261.0
0.38,-251.0
0.44,-251.0
0.5,-216.0
0.57,-237.0
0.63,-249.0
0.69,-230.0
0.76,-220.0
0.82,-238.0
0.88,-238.0
0.94,-247.0
1.01,-249.0
1.07,-239.0
1.13,-272.0
1.2,-263.0
1.26,-269.0
1.32,-265.0
1.39,-253.0
1.45,-269.0
1.51,-255.0
1.57,-274.0
1.64,-254.0
1.7,-260.0
1.76,-265.0
1.83,-271.0
1.89,-232.0
1.95,-245.0
2.02,-242.0
2.08,-235.0
2.14,-251.0
2.2,-246.0
2.27,-245.0
2.33,-261.0
2.39,-257.0
2.46,-264.0
2.52,-265.0
2.58,-255.0
2.65,-263.0
2.71,-267.0
2.77,-267.0
2.84,-247.0
2.9,-264.0
2.96,-236.0
3.02,-241.0
3.09,-237.0
3.15,-252.0
3.21,-250.0
3.28,-270.0
3.34,-266.0
3.4,-259.0
3.47,-270.0
3.53,-263.0
3.59,-252.0
3.65,-252.0
3.72,-249.0
3.78,-247.0
3.84,-235.0
3.91,-231.0
3.97,-244.0
4.03,-236.0
4.1,-235.0
4.16,-228.0
4.22,-232.0
4.28,-230.0
4.35,-223.0
4.41,-232.0
4.47,-223.0
4.54,-219.0
4.6,-202.0
4.66,-226.0
4.73,-232.0
4.79,-243.0
4.85,-242.0
4.91,-236.0
4.98,-251.0
5.04,-239.0
5.1,-249.0
5.17,-270.0
5.23,-266.0
5.29,-266.0
5.35,-246.0
5.42,-254.0
5.48,-250.0
5.54,-241.0
5.61,-259.0
5.67,-245.0
5.73,-249.0
5.8,-259.0
5.86,-260.0
5.92,-242.0
5.98,-251.0
6.05,-241.0
6.11,-240.0
6.17,-228.0
6.24,-231.0
6.3,-239.0
6.36,-227.0
6.43,-233.0
6.49,-220.0
6.55,-221.0
6.61,-232.0
6.68,-232.0
6.74,-225.0
6.8,-232.0
6.87,-229.0
6.93,-239.0
6.99,-245.0
7.06,-249.0
7.12,-257.0
7.18,-231.0
7.24,-243.0
7.31,-222.0
7.37,-255.0
7.43,-246.0
7.5,-243.0
7.56,-237.0
7.62,-247.0
7.69,-265.0
7.75,-256.0
7.81,-241.0
7.87,-248.0
7.94,-243.0
8.0,-246.0
8.06,-243.0
8.13,-245.0
8.19,-252.0
8.25,-246.0
8.32,-249.0
8.38,-240.0
8.44,-237.0
8.5,-233.0
8.57,-261.0
8.63,-245.0
8.69,-233.0
8.76,-245.0
8.82,-248.0
8.88,-236.0
8.95,-231.0
9.01,-239.0
9.07,-251.0
9.13,-244.0
9.2,-236.0
9.26,-239.0
9.32,-234.0
9.39,-235.0
9.45,-229.0
9.51,-247.0
9.58,-239.0
9.64,-260.0
9.7,-246.0
9.77,-238.0
9.83,-203.0
9.89,-206.0
9.95,-213.0
10.02,-208.0
10.08,-200.0
10.14,-192.0
10.21,-185.0
10.27,-185.0
10.33,-199.0
10.4,-198.0
10.46,-209.0
10.52,-193.0
10.58,-201.0
10.65,-178.0
10.71,-203.0
10.77,-223.0
10.84,-198.0
10.9,-196.0
10.96,-209.0
11.03,-212.0
11.09,-220.0
11.15,-195.0
11.21,-216.0
11.28,-222.0
11.34,-225.0
11.4,-228.0
11.47,-235.0
11.53,-229.0
11.59,-227.0
11.66,-215.0
11.72,-229.0
11.78,-223.0
11.84,-240.0
11.91,-233.0
11.97,-226.0
12.03,-219.0
12.1,-220.0
12.16,-246.0
12.22,-247.0
12.29,-227.0
12.35,-249.0
12.41,-241.0
12.47,-258.0
12.54,-251.0
12.6,-259.0
12.66,-270.0
12.73,-256.0
12.79,-257.0
12.85,-243.0
12.92,-249.0
12.98,-251.0
13.04,-264.0
13.1,-234.0
13.17,-228.0
13.23,-239.0
13.29,-223.0
13.36,-236.0
13.42,-228.0
13.48,-225.0
13.55,-249.0
13.61,-247.0
13.67,-228.0
13.73,-223.0
13.8,-227.0
13.86,-243.0
13.92,-229.0
13.99,-226.0
14.05,-209.0
14.11,-227.0
14.18,-224.0
14.24,-210.0
14.3,-211.0
14.36,-213.0
14.43,-209.0
14.49,-208.0
14.55,-195.0
14.62,-180.0
14.68,-185.0
14.74,-185.0
14.81,-184.0
14.87,-187.0
14.93,-177.0
14.99,-185.0
15.06,-176.0
15.12,-172.0
15.18,-153.0
15.25,-163.0
15.31,-181.0
15.37,-174.0
15.44,-162.0
15.5,-158.0
15.56,-150.0
15.62,-140.0
15.69,-169.0
15.75,-168.0
15.81,-156.0
15.88,-155.0
15.94,-146.0
16.0,-156.0
16.07,-145.0
16.13,-173.0
16.19,-162.0
16.25,-145.0
16.32,-165.0
16.38,-148.0
16.44,-139.0
16.51,-142.0
16.57,-143.0
16.63,-138.0
16.7,-134.0
16.76,-139.0
16.82,-131.0
16.88,-135.0
16.95,-158.0
17.01,-144.0
17.07,-135.0
17.14,-133.0
17.2,-134.0
17.26,-153.0
17.33,-138.0
17.39,-157.0
17.45,-154.0
17.51,-133.0
17.58,-128.0
17.64,-129.0
17.7,-141.0
17.77,-152.0
17.83,-140.0
17.89,-129.0
17.96,-160.0
18.02,-157.0
18.08,-156.0
18.14,-146.0
18.21,-139.0
18.27,-147.0
18.33,-162.0
18.4,-161.0
18.46,-155.0
18.52,-161.0
18.59,-161.0
18.65,-169.0
18.71,-152.0
18.77,-154.0
18.84,-151.0
18.9,-127.0
18.96,-146.0
19.03,-167.0
19.09,-166.0
19.15,-167.0
19.22,-171.0
19.28,-173.0
19.34,-157.0
19.4,-170.0
19.47,-168.0
19.53,-178.0
19.59,-168.0
19.66,-164.0
19.72,-183.0
19.78,-199.0
19.84,-195.0
19.91,-193.0
19.97,-203.0
20.03,-194.0
20.1,-191.0
20.16,-200.0
20.22,-197.0
20.29,-209.0
20.35,-196.0
20.41,-191.0
20.47,-208.0
20.54,-211.0
20.6,-223.0
20.66,-227.0
20.73,-198.0
20.79,-212.0
20.85,-211.0
20.92,-198.0
20.98,-200.0
21.04,-194.0
21.1,-201.0
21.17,-190.0
21.23,-183.0
21.29,-186.0
21.36,-197.0
21.42,-202.0
21.48,-178.0
21.55,-190.0
21.61,-187.0
21.67,-194.0
21.73,-181.0
21.8,-178.0
21.86,-195.0
21.92,-187.0
21.99,-169.0
22.05,-197.0
22.11,-181.0
22.18,-171.0
22.24,-182.0
22.3,-184.0
22.36,-164.0
22.43,-175.0
22.49,-166.0
22.55,-177.0
22.62,-164.0
22.68,-179.0
22.74,-172.0
22.81,-163.0
22.87,-162.0
22.93,-150.0
22.99,-141.0
23.06,-150.0
23.12,-139.0
23.18,-154.0
23.25,-168.0
23.31,-152.0
23.37,-142.0
23.44,-168.0
23.5,-163.0
23.56,-165.0
23.62,-155.0
23.69,-142.0
23.75,-174.0
23.81,-171.0
23.88,-161.0
23.94,-169.0
24.0,-174.0
24.07,-153.0
24.13,-160.0
24.19,-156.0
24.25,-147.0
24.32,-134.0
24.38,-134.0
24.44,-140.0
24.51,-161.0
24.57,-164.0
24.63,-150.0
24.7,-138.0
24.76,-138.0
24.82,-141.0
24.88,-149.0
24.95,-126.0
25.01,-113.0
25.07,-140.0
25.14,-153.0
25.2,-128.0
25.26,-132.0
25.33,-119.0
25.39,-115.0
25.45,-128.0
25.51,-125.0
25.58,-133.0
25.64,-127.0
25.7,-123.0
25.77,-112.0
25.83,-131.0
25.89,-132.0
25.96,-107.0
26.02,-110.0
26.08,-105.0
26.14,-122.0
26.21,-109.0
26.27,-108.0
26.33,-105.0
26.4,-110.0
26.46,-134.0
26.52,-105.0
26.59,-95.0
26.65,-111.0
26.71,-119.0
26.77,-128.0
26.84,-122.0
26.9,-139.0
26.96,-133.0
27.03,-118.0
27.09,-111.0
27.15,-111.0
27.22,-125.0
27.28,-145.0
27.34,-150.0
27.4,-139.0
27.47,-131.0
27.53,-150.0
27.59,-154.0
27.66,-168.0
27.72,-169.0
27.78,-152.0
27.85,-143.0
27.91,-139.0
27.97,-139.0
28.03,-141.0
28.1,-164.0
28.16,-182.0
28.22,-166.0
28.29,-164.0
28.35,-187.0
28.41,-183.0
28.48,-172.0
28.54,-177.0
28.6,-181.0
28.66,-191.0
28.73,-183.0
28.79,-157.0
28.85,-165.0
28.92,-181.0
28.98,-190.0
29.04,-197.0
29.11,-205.0
29.17,-187.0
29.23,-186.0
29.29,-186.0
29.36,-191.0
29.42,-192.0
29.48,-170.0
29.55,-178.0
29.61,-179.0
29.67,-194.0
29.74,-214.0
29.8,-205.0
29.86,-204.0
29.92,-208.0
29.99,-199.0
30.05,-198.0
30.11,-206.0
30.18,-212.0
30.24,-223.0
30.3,-229.0
30.37,-206.0
30.43,-203.0
30.49,-193.0
30.55,-198.0
30.62,-192.0
30.68,-186.0
30.74,-202.0
30.81,-191.0
30.87,-185.0
30.93,-194.0
31.0,-193.0
31.06,-197.0
31.12,-196.0
31.18,-192.0
31.25,-202.0
31.31,-181.0
31.37,-193.0
31.44,-191.0
31.5,-198.0
31.56,-206.0
31.63,-197.0
31.69,-204.0
31.75,-194.0
31.81,-211.0
31.88,-206.0
31.94,-176.0
32.0,-192.0
32.07,-201.0
32.13,-193.0
32.19,-190.0
32.26,-202.0
32.32,-202.0
32.38,-186.0
32.44,-194.0
32.51,-174.0
32.57,-184.0
32.63,-174.0
32.7,-173.0
32.76,-185.0
32.82,-182.0
32.89,-174.0
32.95,-173.0
33.01,-183.0
33.07,-178.0
33.14,-159.0
33.2,-164.0
33.26,-189.0
33.33,-177.0
33.39,-170.0
33.45,-165.0
33.52,-163.0
33.58,-181.0
33.64,-177.0
33.7,-155.0
33.77,-165.0
33.83,-163.0
33.89,-171.0
33.96,-168.0
34.02,-176.0
34.08,-162.0
34.15,-176.0
34.21,-178.0
34.27,-187.0
34.33,-176.0
34.4,-183.0
34.46,-186.0
34.52,-176.0
34.59,-180.0
34.65,-190.0
34.71,-206.0
34.78,-202.0
34.84,-175.0
34.9,-181.0
34.96,-179.0
35.03,-177.0
35.09,-192.0
35.15,-184.0
35.22,-201.0
35.28,-176.0
35.34,-176.0
35.41,-187.0
35.47,-175.0
35.53,-172.0
35.59,-170.0
35.66,-170.0
35.72,-191.0
35.78,-197.0
35.85,-210.0
35.91,-204.0
35.97,-184.0
36.04,-200.0
36.1,-202.0
36.16,-186.0
36.22,-200.0
36.29,-206.0
36.35,-205.0
36.41,-202.0
36.48,-186.0
36.54,-203.0
36.6,-213.0
36.67,-204.0
36.73,-199.0
36.79,-183.0
36.85,-193.0
36.92,-168.0
36.98,-166.0
37.04,-180.0
37.11,-177.0
37.17,-185.0
37.23,-188.0
37.3,-170.0
37.36,-177.0
37.42,-181.0
37.48,-192.0
37.55,-188.0
37.61,-202.0
37.67,-201.0
37.74,-197.0
37.8,-178.0
37.86,-156.0
37.93,-159.0
37.99,-153.0
38.05,-160.0
38.12,-166.0
38.18,-175.0
38.24,-180.0
38.3,-160.0
38.37,-175.0
38.43,-176.0
38.49,-169.0
38.56,-148.0
38.62,-129.0
38.68,-138.0
38.75,-138.0
38.81,-146.0
38.87,-159.0
38.93,-145.0
39.0,-130.0
39.06,-147.0
39.12,-144.0
39.19,-153.0
39.25,-156.0
39.31,-140.0
39.38,-128.0
39.44,-133.0
39.5,-124.0
39.56,-134.0
39.63,-138.0
39.69,-137.0
39.75,-135.0
39.82,-118.0
39.88,-119.0
39.94,-126.0
40.01,-119.0
40.07,-113.0
40.13,-122.0
40.19,-126.0
40.26,-103.0
40.32,-106.0
40.38,-94.0
40.45,-96.0
40.51,-93.0
40.57,-113.0
40.64,-104.0
40.7,-106.0
40.76,-113.0
40.82,-99.0
40.89,-84.0
40.95,-80.0
41.01,-104.0
41.08,-94.0
41.14,-84.0
41.2,-84.0
41.27,-98.0
41.33,-86.0
41.39,-86.0
41.45,-84.0
41.52,-91.0
41.58,-92.0
41.64,-78.0
41.71,-54.0
41.77,-47.0
41.83,-47.0
41.9,-57.0
41.96,-56.0
42.02,-60.0
42.08,-54.0
42.15,-64.0
42.21,-70.0
42.27,-78.0
42.34,-85.0
42.4,-65.0
42.46,-47.0
42.53,-45.0
42.59,-51.0
42.65,-63.0
42.71,-65.0
42.78,-59.0
42.84,-69.0
42.9,-73.0
42.97,-59.0
43.03,-54.0
43.09,-72.0
43.16,-66.0
43.22,-70.0
43.28,-57.0
43.34,-45.0
43.41,-44.0
43.47,-45.0
43.53,-38.0
43.6,-33.0
43.66,-37.0
43.72,-25.0
43.79,-27.0
43.85,-53.0
43.91,-43.0
43.97,-34.0
44.04,-49.0
44.1,-52.0
44.16,-47.0
44.23,-44.0
44.29,-34.0
44.35,-41.0
44.42,-58.0
44.48,-57.0
44.54,-65.0
44.6,-50.0
44.67,-48.0
44.73,-38.0
44.79,-45.0
44.86,-67.0
44.92,-58.0
44.98,-58.0
45.05,-69.0
45.11,-83.0
45.17,-83.0
45.23,-93.0
45.3,-81.0
45.36,-84.0
45.42,-100.0
45.49,-78.0
45.55,-86.0
45.61,-79.0
45.68,-64.0
45.74,-77.0
45.8,-93.0
45.86,-82.0
45.93,-89.0
45.99,-96.0
46.05,-87.0
46.12,-89.0
46.18,-69.0
46.24,-69.0
46.31,-84.0
46.37,-89.0
46.43,-81.0
46.49,-86.0
46.56,-67.0
46.62,-85.0
46.68,-85.0
46.75,-90.0
46.81,-86.0
46.87,-72.0
46.94,-69.0
47.0,-84.0
47.06,-92.0
47.12,-93.0
47.19,-99.0
47.25,-100.0
47.31,-106.0
47.38,-106.0
47.44,-114.0
47.5,-111.0
47.57,-118.0
47.63,-93.0
47.69,-76.0
47.75,-92.0
47.82,-94.0
47.88,-98.0
47.94,-107.0
48.01,-97.0
48.07,-99.0
48.13,-97.0
48.2,-97.0
48.26,-94.0
48.32,-75.0
48.38,-91.0
48.45,-85.0
48.51,-64.0
48.57,-75.0
48.64,-62.0
48.7,-62.0
48.76,-47.0
48.83,-46.0
48.89,-54.0
48.95,-53.0
49.01,-20.0
49.08,-49.0
49.14,-58.0
49.2,-45.0
49.27,-42.0
49.33,-50.0
49.39,-48.0
49.46,-38.0
49.52,-48.0
49.58,-37.0
49.64,-35.0
49.71,-33.0
49.77,-28.0
49.83,-25.0
49.9,-27.0
49.96,-47.0
50.02,-22.0
50.09,-21.0
50.15,-30.0
50.21,-37.0
50.27,-39.0
50.34,-27.0
50.4,-20.0
50.46,0.0
50.53,5.0
50.59,-8.0
50.65,21.0
50.72,-2.0
50.78,-8.0
50.84,0.0
50.9,-12.0
50.97,3.0
51.03,11.0
51.09,13.0
51.16,4.0
51.22,-4.0
51.28,5.0
51.35,-21.0
51.41,-14.0
51.47,-15.0
51.53,-1.0
51.6,1.0
51.66,-8.0
51.72,-21.0
51.79,11.0
51.85,3.0
51.91,13.0
51.98,5.0
52.04,12.0
52.1,21.0
52.16,28.0
52.23,33.0
52.29,31.0
52.35,21.0
52.42,19.0
52.48,8.0
52.54,-7.0
52.61,-15.0
52.67,3.0
52.73,4.0
52.79,-19.0
52.86,0.0
52.92,14.0
52.98,13.0
53.05,8.0
53.11,19.0
53.17,-5.0
53.24,9.0
53.3,5.0
53.36,11.0
53.42,-12.0
53.49,-34.0
53.55,6.0
53.61,-11.0
53.68,6.0
53.74,10.0
53.8,-10.0
53.87,-7.0
53.93,-27.0
53.99,-10.0
54.05,-8.0
54.12,-26.0
54.18,-31.0
54.24,-39.0
54.31,-39.0
54.37,-34.0
54.43,-37.0
54.5,-43.0
54.56,-49.0
54.62,-53.0
54.68,-36.0
54.75,-27.0
54.81,-24.0
54.87,-19.0
54.94,-31.0
55.0,-15.0
55.06,-32.0
55.13,-25.0
55.19,-13.0
55.25,-21.0
55.31,-19.0
55.38,-20.0
55.44,-10.0
55.5,-30.0
55.57,-27.0
55.63,-59.0
55.69,-37.0
55.76,-54.0
55.82,-61.0
55.88,-37.0
55.94,-61.0
56.01,-36.0
56.07,-34.0
56.13,-46.0
56.2,-51.0
56.26,-47.0
56.32,-39.0
56.39,-61.0
56.45,-50.0
56.51,-51.0
56.57,-61.0
56.64,-48.0
56.7,-45.0
56.76,-60.0
56.83,-58.0
56.89,-45.0
56.95,-55.0
57.02,-45.0
57.08,-33.0
57.14,-32.0
57.2,-37.0
57.27,-19.0
57.33,-31.0
57.39,-39.0
57.46,-15.0
57.52,-20.0
57.58,-26.0
57.65,-41.0
57.71,-33.0
57.77,-22.0
57.83,-17.0
57.9,-18.0
57.96,-28.0
58.02,-34.0
58.09,-34.0
58.15,-27.0
58.21,-25.0
58.28,-7.0
58.34,-14.0
58.4,-27.0
58.46,-32.0
58.53,-38.0
58.59,-48.0
58.65,-45.0
58.72,-38.0
58.78,-44.0
58.84,-30.0
58.91,-42.0
58.97,-29.0
59.03,-31.0
59.09,-28.0
59.16,-19.0
59.22,-44.0
59.28,-60.0
59.35,-63.0
59.41,-42.0
59.47,-22.0
59.54,-40.0
59.6,-50.0
59.66,-39.0
59.72,-48.0
59.79,-45.0
59.85,-36.0
59.91,-32.0
59.98,-43.0
60.04,-51.0
60.1,-55.0
60.17,-56.0
60.23,-60.0
60.29,-58.0
60.35,-43.0
60.42,-45.0
60.48,-53.0
60.54,-48.0
60.61,-21.0
60.67,-39.0
60.73,-27.0
60.8,-29.0
60.86,-20.0
60.92,-22.0
60.98,-25.0
61.05,-15.0
61.11,-8.0
61.17,-12.0
61.24,-21.0
61.3,-13.0
61.36,-24.0
61.43,-30.0
61.49,-32.0
61.55,-30.0
61.61,-15.0
61.68,-23.0
61.74,-32.0
61.8,-43.0
61.87,-42.0
61.93,-42.0
61.99,-68.0
62.06,-51.0
62.12,-57.0
62.18,-56.0
62.24,-50.0
62.31,-34.0
62.37,-38.0
62.43,-46.0
62.5,-60.0
62.56,-64.0
62.62,-68.0
62.69,-59.0
62.75,-69.0
62.81,-78.0
62.87,-62.0
62.94,-83.0
63.0,-81.0
63.06,-69.0
63.13,-69.0
63.19,-65.0
63.25,-74.0
63.32,-64.0
63.38,-62.0
63.44,-82.0
63.5,-66.0
63.57,-78.0
63.63,-70.0
63.69,-74.0
63.76,-68.0
63.82,-60.0
63.88,-55.0
63.95,-62.0
64.01,-66.0
64.07,-73.0
64.13,-66.0
64.2,-40.0
64.26,-52.0
64.32,-62.0
64.39,-57.0
64.45,-57.0
64.51,-43.0
64.58,-35.0
64.64,-38.0
64.7,-53.0
64.76,-43.0
64.83,-37.0
64.89,-48.0
64.95,-48.0
65.02,-66.0
65.08,-46.0
65.14,-28.0
65.21,-61.0
65.27,-49.0
65.33,-31.0
65.39,-18.0
65.46,-25.0
65.52,-41.0
65.58,-19.0
65.65,-12.0
65.71,-5.0
65.77,-4.0
65.84,-4.0
65.9,15.0
65.96,10.0
66.02,16.0
66.09,3.0
66.15,-8.0
66.21,-4.0
66.28,17.0
66.34,19.0
66.4,13.0
66.47,24.0
66.53,36.0
66.59,31.0
66.65,32.0
66.72,48.0
66.78,20.0
66.84,18.0
66.91,-1.0
66.97,10.0
67.03,31.0
67.1,26.0
67.16,27.0
67.22,48.0
67.28,37.0
67.35,35.0
67.41,64.0
67.47,45.0
67.54,48.0
67.6,33.0
67.66,43.0
67.73,60.0
67.79,53.0
67.85,49.0
67.91,45.0
67.98,61.0
68.04,85.0
68.1,80.0
68.17,81.0
68.23,77.0
68.29,86.0
68.36,87.0
68.42,108.0
68.48,82.0
68.54,70.0
68.61,63.0
68.67,50.0
68.73,56.0
68.8,65.0
68.86,40.0
68.92,43.0
68.99,55.0
69.05,56.0
69.11,55.0
69.17,47.0
69.24,54.0
69.3,52.0
69.36,50.0
69.43,47.0
69.49,31.0
69.55,43.0
69.62,51.0
69.68,35.0
69.74,42.0
69.8,33.0
69.87,65.0
69.93,52.0
69.99,56.0
70.06,71.0
70.12,45.0
70.18,49.0
70.25,71.0
70.31,49.0
70.37,51.0
70.43,34.0
70.5,36.0
70.56,53.0
70.62,29.0
70.69,49.0
70.75,45.0
70.81,49.0
70.88,55.0
70.94,60.0
71.0,48.0
71.06,59.0
71.13,56.0
71.19,58.0
71.25,50.0
71.32,44.0
71.38,60.0
71.44,42.0
71.51,38.0
71.57,42.0
71.63,45.0
71.69,28.0
71.76,18.0
71.82,36.0
71.88,21.0
71.95,2.0
72.01,-3.0
72.07,15.0
72.14,10.0
72.2,17.0
72.26,15.0
72.32,26.0
72.39,44.0
72.45,37.0
72.51,12.0
72.58,35.0
72.64,63.0
72.7,55.0
72.77,61.0
72.83,27.0
72.89,30.0
72.95,19.0
73.02,34.0
73.08,29.0
73.14,9.0
73.21,12.0
73.27,31.0
73.33,39.0
73.4,45.0
73.46,40.0
73.52,36.0
73.58,28.0
73.65,18.0
73.71,-3.0
73.77,-16.0
73.84,11.0
73.9,1.0
73.96,9.0
74.03,-4.0
74.09,9.0
74.15,32.0
74.21,2.0
74.28,9.0
74.34,7.0
74.4,17.0
74.47,21.0
74.53,17.0
74.59,27.0
74.66,22.0
74.72,-5.0
74.78,12.0
74.84,29.0
74.91,19.0
74.97,17.0
75.03,21.0
75.1,11.0
75.16,5.0
75.22,9.0
75.29,3.0
75.35,-12.0
75.41,8.0
75.47,10.0
75.54,-15.0
75.6,-6.0
75.66,6.0
75.73,7.0
75.79,-6.0
75.85,-12.0
75.92,-4.0
75.98,1.0
76.04,-1.0
76.1,4.0
76.17,1.0
76.23,-10.0
76.29,4.0
76.36,22.0
76.42,11.0
76.48,18.0
76.55,38.0
76.61,8.0
76.67,23.0
76.73,20.0
76.8,27.0
76.86,26.0
76.92,30.0
76.99,23.0
77.05,22.0
77.11,36.0
77.18,2.0
77.24,0.0
77.3,-13.0
77.36,-9.0
77.43,12.0
77.49,4.0
77.55,6.0
77.62,4.0
77.68,4.0
77.74,-7.0
77.81,1.0
77.87,-3.0
77.93,-15.0
77.99,-15.0
78.06,-8.0
78.12,-8.0
78.18,-13.0
78.25,-19.0
78.31,-24.0
78.37,-40.0
78.44,-45.0
78.5,-45.0
78.56,-31.0
78.62,-27.0
78.69,-40.0
78.75,-28.0
78.81,-39.0
78.88,-50.0
78.94,-57.0
79.0,-69.0
79.07,-62.0
79.13,-58.0
79.19,-70.0
79.25,-59.0
79.32,-75.0
79.38,-80.0
79.44,-62.0
79.51,-88.0
79.57,-68.0
79.63,-85.0
79.7,-84.0
79.76,-75.0
79.82,-88.0
79.88,-97.0
79.95,-101.0
80.01,-83.0
80.07,-97.0
80.14,-88.0
80.2,-94.0
80.26,-88.0
80.33,-90.0
80.39,-76.0
80.45,-83.0
80.51,-95.0
80.58,-92.0
80.64,-106.0
80.7,-75.0
80.77,-87.0
80.83,-87.0
80.89,-88.0
80.96,-71.0
81.02,-73.0
81.08,-97.0
81.14,-106.0
81.21,-96.0
81.27,-88.0
81.33,-88.0
81.4,-96.0
81.46,-100.0
81.52,-91.0
81.59,-84.0
81.65,-87.0
81.71,-79.0
81.77,-56.0
81.84,-52.0
81.9,-66.0
81.96,-72.0
82.03,-65.0
82.09,-53.0
82.15,-67.0
82.22,-68.0
82.28,-59.0
82.34,-55.0
82.4,-54.0
82.47,-40.0
82.53,-35.0
82.59,-23.0
82.66,-20.0
82.72,-15.0
82.78,-27.0
82.85,-14.0
82.91,-27.0
82.97,3.0
83.03,-2.0
83.1,-22.0
83.16,5.0
83.22,-6.0
83.29,-8.0
83.35,-7.0
83.41,9.0
83.48,-3.0
83.54,-9.0
83.6,-15.0
83.66,7.0
83.73,-5.0
83.79,-29.0
83.85,-25.0
83.92,-45.0
83.98,-52.0
84.04,-47.0
84.11,-30.0
84.17,-50.0
84.23,-37.0
84.29,-25.0
84.36,-28.0
84.42,-23.0
84.48,-29.0
84.55,-36.0
84.61,-34.0
84.67,-28.0
84.74,-43.0
84.8,-26.0
84.86,-22.0
84.92,-23.0
84.99,-22.0
85.05,-33.0
85.11,-32.0
85.18,-30.0
85.24,-33.0
85.3,-36.0
85.37,-28.0
85.43,-27.0
85.49,-35.0
85.55,-47.0
85.62,-51.0
85.68,-38.0
85.74,-12.0
85.81,-21.0
85.87,-18.0
85.93,9.0
86.0,-1.0
86.06,-28.0
86.12,-39.0
86.18,-35.0
86.25,-32.0
86.31,-27.0
86.37,-24.0
86.44,-24.0
86.5,-31.0
86.56,-27.0
86.63,-33.0
86.69,-21.0
86.75,-28.0
86.81,-36.0
86.88,-24.0
86.94,-23.0
87.0,-25.0
87.07,-36.0
87.13,-25.0
87.19,-38.0
87.26,-36.0
87.32,-30.0
87.38,-37.0
87.44,-64.0
87.51,-36.0
87.57,-24.0
87.63,-41.0
87.7,-59.0
87.76,-52.0
87.82,-63.0
87.89,-46.0
87.95,-56.0
88.01,-62.0
88.07,-60.0
88.14,-68.0
88.2,-42.0
88.26,-45.0
88.33,-36.0
88.39,-43.0
88.45,-57.0
88.52,-42.0
88.58,-48.0
88.64,-41.0
88.7,-43.0
88.77,-35.0
88.83,-52.0
88.89,-39.0
88.96,-44.0
89.02,-49.0
89.08,-43.0
89.15,-43.0
89.21,-38.0
89.27,-50.0
89.33,-50.0
89.4,-50.0
89.46,-50.0
89.52,-51.0
89.59,-51.0
89.65,-45.0
89.71,-61.0
89.78,-60.0
89.84,-72.0
89.9,-54.0
89.96,-36.0
90.03,-27.0
90.09,-18.0
90.15,-34.0
90.22,-44.0
90.28,-30.0
90.34,-13.0
90.41,-28.0
90.47,-15.0
90.53,-14.0
90.59,-27.0
90.66,-33.0
90.72,-25.0
90.78,-25.0
90.85,-25.0
90.91,-27.0
90.97,-25.0
91.04,-30.0
91.1,-17.0
91.16,-13.0
91.22,-2.0
91.29,-1.0
91.35,9.0
91.41,4.0
91.48,4.0
91.54,-6.0
91.6,-7.0
91.67,-11.0
91.73,-14.0
91.79,-10.0
91.85,-5.0
91.92,5.0
91.98,13.0
92.04,-16.0
92.11,-15.0
92.17,7.0
92.23,9.0
92.3,4.0
92.36,11.0
92.42,16.0
92.48,10.0
92.55,33.0
92.61,37.0
92.67,26.0
92.74,41.0
92.8,51.0
92.86,34.0
92.93,24.0
92.99,37.0
93.05,47.0
93.11,26.0
93.18,36.0
93.24,26.0
93.3,43.0
93.37,27.0
93.43,37.0
93.49,55.0
93.56,42.0
93.62,42.0
93.68,33.0
93.74,30.0
93.81,39.0
93.87,28.0
93.93,32.0
94.0,42.0
94.06,65.0
94.12,68.0
94.19,59.0
94.25,70.0
94.31,65.0
94.37,49.0
94.44,37.0
94.5,44.0
94.56,28.0
94.63,40.0
94.69,52.0
94.75,52.0
94.82,48.0
94.88,69.0
94.94,48.0
95.0,28.0
95.07,37.0
95.13,40.0
95.19,45.0
95.26,42.0
95.32,40.0
95.38,47.0
95.45,33.0
95.51,39.0
95.57,69.0
95.63,42.0
95.7,38.0
95.76,38.0
95.82,44.0
95.89,21.0
95.95,22.0
96.01,0.0
96.08,8.0
96.14,37.0
96.2,18.0
96.26,29.0
96.33,23.0
96.39,20.0
96.45,48.0
96.52,43.0
96.58,22.0
96.64,12.0
96.71,22.0
96.77,33.0
96.83,47.0
96.89,37.0
96.96,29.0
97.02,23.0
97.08,39.0
97.15,39.0
97.21,46.0
97.27,44.0
97.34,42.0
97.4,73.0
97.46,73.0
97.52,58.0
97.59,60.0
97.65,78.0
97.71,66.0
97.78,53.0
97.84,59.0
97.9,66.0
97.97,80.0
98.03,85.0
98.09,85.0
98.15,78.0
98.22,80.0
98.28,67.0
98.34,77.0
98.41,77.0
98.47,103.0
98.53,98.0
98.6,92.0
98.66,110.0
98.72,85.0
98.78,90.0
98.85,95.0
98.91,88.0
98.97,89.0
99.04,66.0
99.1,75.0
99.16,89.0
99.23,88.0
99.29,78.0
99.35,83.0
99.41,99.0
99.48,106.0
99.54,123.0
99.6,106.0
99.67,129.0
99.73,132.0
99.79,119.0
99.86,124.0
99.92,146.0
99.98,147.0
100.04,148.0
100.11,144.0
100.17,135.0
100.23,127.0
100.3,111.0
100.36,92.0
100.42,91.0
100.49,85.0
100.55,83.0
100.61,86.0
100.67,99.0
100.74,95.0
100.8,81.0
100.86,86.0
100.93,81.0
100.99,94.0
101.05,89.0
101.12,82.0
101.18,86.0
101.24,85.0
101.3,88.0
101.37,75.0
101.43,85.0
101.49,105.0
101.56,94.0
101.62,87.0
101.68,88.0
101.75,75.0
101.81,77.0
101.87,88.0
101.93,86.0
102.0,78.0
102.06,86.0
102.12,114.0
102.19,81.0
102.25,102.0
102.31,86.0
102.38,94.0
102.44,110.0
102.5,110.0
102.56,133.0
102.63,124.0
102.69,143.0
102.75,121.0
102.82,124.0
102.88,124.0
102.94,121.0
103.01,132.0
103.07,119.0
103.13,124.0
103.19,137.0
103.26,118.0
103.32,106.0
103.38,101.0
103.45,115.0
103.51,140.0
103.57,128.0
103.64,127.0
103.7,140.0
103.76,136.0
103.82,115.0
103.89,111.0
103.95,99.0
104.01,122.0
104.08,118.0
104.14,93.0
104.2,104.0
104.27,122.0
104.33,129.0
104.39,135.0
104.45,111.0
104.52,94.0
104.58,91.0
104.64,103.0
104.71,89.0
104.77,77.0
104.83,88.0
104.9,83.0
104.96,56.0
105.02,61.0
105.08,70.0
105.15,91.0
105.21,96.0
105.27,115.0
105.34,122.0
105.4,93.0
105.46,98.0
105.53,103.0
105.59,97.0
105.65,94.0
105.71,109.0
105.78,116.0
105.84,113.0
105.9,124.0
105.97,90.0
106.03,82.0
106.09,105.0
106.16,101.0
106.22,103.0
106.28,87.0
106.34,101.0
106.41,89.0
106.47,88.0
106.53,81.0
106.6,80.0
106.66,102.0
106.72,76.0
106.79,86.0
106.85,81.0
106.91,84.0
106.97,102.0
107.04,82.0
107.1,92.0
107.16,80.0
107.23,105.0
107.29,92.0
107.35,65.0
107.42,91.0
107.48,67.0
107.54,65.0
107.6,63.0
107.67,49.0
107.73,51.0
107.79,69.0
107.86,78.0
107.92,70.0
107.98,65.0
108.05,84.0
108.11,75.0
108.17,81.0
108.23,77.0
108.3,113.0
108.36,106.0
108.42,90.0
108.49,99.0
108.55,89.0
108.61,105.0
108.68,79.0
108.74,92.0
108.8,99.0
108.86,94.0
108.93,103.0
108.99,93.0
109.05,93.0
109.12,95.0
109.18,85.0
109.24,101.0
109.31,115.0
109.37,92.0
109.43,99.0
109.49,86.0
109.56,69.0
109.62,85.0
109.68,63.0
109.75,58.0
109.81,44.0
109.87,62.0
109.94,54.0
110.0,59.0
110.06,65.0
110.12,50.0
110.19,47.0
110.25,44.0
110.31,13.0
110.38,28.0
110.44,40.0
110.5,39.0
110.57,47.0
110.63,48.0
110.69,47.0
110.75,47.0
110.82,48.0
110.88,55.0
110.94,61.0
111.01,69.0
111.07,68.0
111.13,61.0
111.2,53.0
111.26,34.0
111.32,46.0
111.38,51.0
111.45,68.0
111.51,55.0
111.57,55.0
111.64,68.0
111.7,65.0
111.76,47.0
111.83,41.0
111.89,50.0
111.95,39.0
112.01,58.0
112.08,36.0
112.14,31.0
112.2,36.0
112.27,33.0
112.33,33.0
112.39,33.0
112.46,28.0
112.52,22.0
112.58,9.0
112.64,18.0
112.71,18.0
112.77,10.0
112.83,-7.0
112.9,-1.0
112.96,7.0
113.02,1.0
113.09,-2.0
113.15,8.0
113.21,-1.0
113.27,-4.0
113.34,7.0
113.4,1.0
113.46,5.0
113.53,-9.0
113.59,-12.0
113.65,-34.0
113.72,-25.0
113.78,-26.0
113.84,-37.0
113.9,-52.0
113.97,-46.0
114.03,-63.0
114.09,-37.0
114.16,-51.0
114.22,-50.0
114.28,-41.0
114.35,-59.0
114.41,-69.0
114.47,-63.0
114.53,-47.0
114.6,-25.0
114.66,-26.0
114.72,-26.0
114.79,-21.0
114.85,-35.0
114.91,-14.0
114.98,-18.0
115.04,-30.0
115.1,-23.0
115.16,-7.0
115.23,-16.0
115.29,-41.0
115.35,-22.0
115.42,-5.0
115.48,-16.0
115.54,-9.0
115.61,-36.0
115.67,-30.0
115.73,2.0
115.79,-11.0
115.86,-14.0
115.92,-19.0
115.98,-6.0
116.05,-2.0
116.11,-3.0
116.17,4.0
116.24,4.0
116.3,-3.0
116.36,0.0
116.42,4.0
116.49,-7.0
116.55,-3.0
116.61,5.0
116.68,1.0
116.74,5.0
116.8,6.0
116.87,9.0
116.93,24.0
116.99,20.0
117.05,14.0
117.12,13.0
117.18,25.0
117.24,26.0
117.31,33.0
117.37,27.0
117.43,39.0
117.5,44.0
117.56,43.0
117.62,51.0
117.68,51.0
117.75,40.0
117.81,37.0
117.87,15.0
117.94,11.0
118.0,33.0
118.06,33.0
118.13,59.0
118.19,57.0
118.25,55.0
118.31,61.0
118.38,40.0
118.44,47.0
118.5,67.0
118.57,50.0
118.63,50.0
118.69,58.0
118.76,57.0
118.82,55.0
118.88,54.0
118.94,68.0
119.01,53.0
119.07,71.0
119.13,54.0
119.2,67.0
119.26,71.0
119.32,54.0
119.39,82.0
119.45,75.0
119.51,74.0
119.57,78.0
119.64,86.0
119.7,82.0
119.76,71.0
119.83,84.0
119.89,84.0
119.95,89.0
120.02,98.0
120.08,99.0
120.14,73.0
120.2,83.0
120.27,62.0
120.33,76.0
120.39,62.0
120.46,61.0
120.52,72.0
120.58,63.0
120.65,89.0
120.71,64.0
120.77,63.0
120.83,71.0
120.9,73.0
120.96,76.0
121.02,68.0
121.09,57.0
121.15,74.0
121.21,52.0
121.28,59.0
121.34,68.0
121.4,80.0
121.46,70.0
121.53,84.0
121.59,107.0
121.65,90.0
121.72,85.0
121.78,109.0
121.84,101.0
121.91,95.0
121.97,96.0
122.03,110.0
122.09,100.0
122.16,107.0
122.22,80.0
122.28,80.0
122.35,77.0
122.41,58.0
122.47,56.0
122.54,63.0
122.6,68.0
122.66,90.0
122.72,78.0
122.79,77.0
122.85,60.0
122.91,70.0
122.98,86.0
123.04,71.0
123.1,66.0
123.17,81.0
123.23,81.0
123.29,69.0
123.35,66.0
123.42,65.0
123.48,72.0
123.54,77.0
123.61,79.0
123.67,53.0
123.73,52.0
123.8,55.0
123.86,76.0
123.92,73.0
123.98,69.0
124.05,81.0
124.11,66.0
124.17,78.0
124.24,68.0
124.3,74.0
124.36,59.0
124.43,55.0
124.49,76.0
124.55,59.0
124.61,67.0
124.68,70.0
124.74,86.0
124.8,63.0
124.87,52.0
124.93,59.0
124.99,68.0
125.06,49.0
125.12,70.0
125.18,67.0
125.24,51.0
125.31,74.0
125.37,58.0
125.43,78.0
125.5,68.0
125.56,65.0
125.62,74.0
125.69,74.0
125.75,63.0
125.81,46.0
125.87,74.0
125.94,65.0
126.0,73.0
126.06,64.0
126.13,81.0
126.19,74.0
126.25,81.0
126.32,92.0
126.38,78.0
126.44,85.0
126.5,84.0
126.57,74.0
126.63,87.0
126.69,81.0
126.76,74.0
126.82,67.0
126.88,73.0
126.95,72.0
127.01,77.0
127.07,106.0
127.13,101.0
127.2,97.0
127.26,96.0
127.32,104.0
127.39,108.0
127.45,75.0
127.51,88.0
127.58,100.0
127.64,92.0
127.7,91.0
127.76,91.0
127.83,90.0
127.89,77.0
127.95,102.0
128.02,110.0
128.08,110.0
128.14,87.0
128.21,84.0
128.27,74.0
128.33,58.0
128.39,63.0
128.46,70.0
128.52,74.0
128.58,75.0
128.65,73.0
128.71,68.0
128.77,58.0
128.84,52.0
128.9,53.0
128.96,31.0
129.02,40.0
129.09,48.0
129.15,43.0
129.21,41.0
129.28,63.0
129.34,54.0
129.4,48.0
129.47,48.0
129.53,44.0
129.59,34.0
129.65,32.0
129.72,49.0
129.78,42.0
129.84,58.0
129.91,40.0
129.97,64.0
130.03,43.0
130.1,33.0
130.16,37.0
130.22,19.0
130.28,29.0
130.35,25.0
130.41,35.0
130.47,35.0
130.54,32.0
130.6,45.0
130.66,40.0
130.73,45.0
130.79,43.0
130.85,24.0
130.91,17.0
130.98,40.0
131.04,47.0
131.1,6.0
131.17,18.0
131.23,21.0
131.29,32.0
131.36,36.0
131.42,35.0
131.48,33.0
131.54,44.0
131.61,34.0
131.67,41.0
131.73,34.0
131.8,37.0
131.86,30.0
131.92,23.0
131.99,23.0
132.05,44.0
132.11,49.0
132.17,38.0
132.24,41.0
132.3,56.0
132.36,27.0
132.43,48.0
132.49,46.0
132.55,33.0
132.62,44.0
132.68,42.0
132.74,39.0
132.8,26.0
132.87,34.0
132.93,22.0
132.99,48.0
133.06,53.0
133.12,74.0
133.18,45.0
133.25,45.0
133.31,82.0
133.37,71.0
133.43,73.0
133.5,67.0
133.56,84.0
133.62,92.0
133.69,87.0
133.75,71.0
133.81,74.0
133.88,61.0
133.94,61.0
134.0,38.0
134.06,57.0
134.13,62.0
134.19,63.0
134.25,69.0
134.32,58.0
134.38,51.0
134.44,47.0
134.51,38.0
134.57,42.0
134.63,59.0
134.69,51.0
134.76,64.0
134.82,52.0
134.88,47.0
134.95,50.0
135.01,60.0
135.07,53.0
135.14,41.0
135.2,57.0
135.26,66.0
135.32,80.0
135.39,54.0
135.45,66.0
135.51,64.0
135.58,49.0
135.64,51.0
135.7,35.0
135.77,37.0
135.83,45.0
135.89,54.0
135.95,49.0
136.02,35.0
136.08,34.0
136.14,23.0
136.21,25.0
136.27,8.0
136.33,8.0
136.4,10.0
136.46,11.0
136.52,8.0
136.58,-9.0
136.65,-8.0
136.71,1.0
136.77,6.0
136.84,-18.0
136.9,-1.0
136.96,15.0
137.03,11.0
137.09,21.0
137.15,20.0
137.21,17.0
137.28,7.0
137.34,13.0
137.4,6.0
137.47,1.0
137.53,20.0
137.59,8.0
137.66,-6.0
137.72,9.0
137.78,12.0
137.84,11.0
137.91,9.0
137.97,1.0
138.03,5.0
138.1,-2.0
138.16,-7.0
138.22,-12.0
138.29,-16.0
138.35,6.0
138.41,3.0
138.47,-1.0
138.54,6.0
138.6,-9.0
138.66,16.0
138.73,0.0
138.79,-7.0
138.85,12.0
138.92,-4.0
138.98,-6.0
139.04,-14.0
139.1,-31.0
139.17,-27.0
139.23,-33.0
139.29,-37.0
139.36,-29.0
139.42,-24.0
139.48,-23.0
139.55,-35.0
139.61,-14.0
139.67,-4.0
139.73,-21.0
139.8,-7.0
139.86,-14.0
139.92,-4.0
139.99,-1.0
140.05,-12.0
140.11,-9.0
140.18,-9.0
140.24,-11.0
140.3,-6.0
140.36,-2.0
140.43,-15.0
140.49,-18.0
140.55,-26.0
140.62,-33.0
140.68,-33.0
140.74,-33.0
140.81,-45.0
140.87,-23.0
140.93,-1.0
140.99,-8.0
141.06,-14.0
141.12,1.0
141.18,-11.0
141.25,-6.0
141.31,-24.0
141.37,-24.0
141.44,-26.0
141.5,-4.0
141.56,9.0
141.62,6.0
141.69,9.0
141.75,-27.0
141.81,-22.0
141.88,-36.0
141.94,-43.0
142.0,-48.0
142.07,-53.0
142.13,-50.0
142.19,-30.0
142.25,-24.0
142.32,-20.0
142.38,-11.0
142.44,-20.0
142.51,-19.0
142.57,-34.0
142.63,-39.0
142.7,-33.0
142.76,-33.0
142.82,-28.0
142.88,-38.0
142.95,-11.0
143.01,0.0
143.07,-13.0
143.14,-9.0
143.2,-5.0
143.26,3.0
143.33,9.0
143.39,6.0
143.45,27.0
143.51,13.0
143.58,10.0
143.64,20.0
143.7,-2.0
143.77,-10.0
143.83,5.0
143.89,13.0
143.96,-7.0
144.02,3.0
144.08,4.0
144.14,1.0
144.21,29.0
144.27,10.0
144.33,24.0
144.4,22.0
144.46,-1.0
144.52,-9.0
144.59,-5.0
144.65,12.0
144.71,11.0
144.77,23.0
144.84,16.0
144.9,22.0
144.96,16.0
145.03,17.0
145.09,8.0
145.15,-9.0
145.22,-10.0
145.28,7.0
145.34,11.0
145.4,-12.0
145.47,-17.0
145.53,-4.0
145.59,-13.0
145.66,-6.0
145.72,3.0
145.78,-13.0
145.85,-8.0
145.91,-9.0
145.97,-17.0
146.03,-16.0
146.1,-15.0
146.16,10.0
146.22,-6.0
146.29,-5.0
146.35,-1.0
146.41,8.0
146.47,12.0
146.54,1.0
146.6,9.0
146.66,-17.0
146.73,-17.0
146.79,0.0
146.85,-10.0
146.92,-3.0
146.98,-9.0
147.04,-5.0
147.1,6.0
147.17,5.0
147.23,-9.0
147.29,11.0
147.36,32.0
147.42,24.0
147.48,13.0
147.55,30.0
147.61,26.0
147.67,12.0
147.73,33.0
147.8,12.0
147.86,8.0
147.92,19.0
147.99,20.0
148.05,23.0
148.11,19.0
148.18,24.0
148.24,19.0
148.3,24.0
148.36,34.0
148.43,26.0
148.49,46.0
148.55,29.0
148.62,40.0
148.68,55.0
148.74,23.0
148.81,45.0
148.87,49.0
148.93,36.0
148.99,41.0
149.06,44.0
149.12,40.0
149.18,38.0
149.25,46.0
149.31,48.0
149.37,53.0
149.44,58.0
149.5,48.0
149.56,49.0
149.62,33.0
149.69,55.0
149.75,65.0
149.81,88.0
149.88,105.0
149.94,92.0
150.0,84.0
150.07,99.0
150.13,88.0
150.19,75.0
150.25,83.0
150.32,81.0
150.38,90.0
150.44,94.0
150.51,90.0
150.57,87.0
150.63,111.0
150.7,104.0
150.76,105.0
150.82,119.0
150.88,111.0
150.95,110.0
151.01,111.0
151.07,113.0
151.14,118.0
151.2,117.0
151.26,125.0
151.33,126.0
151.39,116.0
151.45,144.0
151.51,130.0
151.58,95.0
151.64,129.0
151.7,111.0
151.77,97.0
151.83,96.0
151.89,90.0
151.96,106.0
152.02,92.0
152.08,107.0
152.14,102.0
152.21,106.0
152.27,106.0
152.33,115.0
152.4,109.0
152.46,99.0
152.52,92.0
152.59,108.0
152.65,124.0
152.71,120.0
152.77,135.0
152.84,141.0
152.9,154.0
152.96,137.0
153.03,164.0
153.09,163.0
153.15,155.0
153.22,165.0
153.28,166.0
153.34,164.0
153.4,161.0
153.47,179.0
153.53,190.0
153.59,172.0
153.66,181.0
153.72,177.0
153.78,179.0
153.85,169.0
153.91,177.0
153.97,159.0
154.03,157.0
154.1,173.0
154.16,159.0
154.22,160.0
154.29,154.0
154.35,159.0
154.41,137.0
154.48,146.0
154.54,155.0
154.6,145.0
154.66,164.0
154.73,158.0
154.79,155.0
154.85,166.0
154.92,148.0
154.98,130.0
155.04,132.0
155.11,132.0
155.17,141.0
155.23,138.0
155.29,138.0
155.36,146.0
155.42,147.0
155.48,149.0
155.55,144.0
155.61,143.0
155.67,150.0
155.74,156.0
155.8,165.0
155.86,146.0
155.92,135.0
155.99,135.0
156.05,127.0
156.11,126.0
156.18,146.0
156.24,140.0
156.3,99.0
156.37,106.0
156.43,92.0
156.49,89.0
156.55,85.0
156.62,92.0
156.68,108.0
156.74,89.0
156.81,94.0
156.87,106.0
156.93,99.0
157.0,67.0
157.06,79.0
157.12,95.0
157.18,120.0
157.25,125.0
157.31,110.0
157.37,108.0
157.44,120.0
157.5,117.0
157.56,125.0
157.63,118.0
157.69,113.0
157.75,102.0
157.81,106.0
157.88,120.0
157.94,125.0
158.0,114.0
158.07,129.0
158.13,105.0
158.19,120.0
158.26,146.0
158.32,136.0
158.38,122.0
158.44,116.0
158.51,120.0
158.57,136.0
158.63,128.0
158.7,135.0
158.76,109.0
158.82,110.0
158.89,134.0
158.95,136.0
159.01,128.0
159.07,140.0
159.14,131.0
159.2,121.0
159.26,141.0
159.33,129.0
159.39,138.0
159.45,148.0
159.52,135.0
159.58,136.0
159.64,145.0
159.7,128.0
159.77,139.0
159.83,165.0
159.89,158.0
159.96,165.0
160.02,158.0
160.08,154.0
160.15,157.0
160.21,154.0
160.27,166.0
160.33,169.0
160.4,162.0
160.46,172.0
160.52,165.0
160.59,156.0
160.65,158.0
160.71,181.0
160.78,193.0
160.84,179.0
160.9,169.0
160.96,162.0
161.03,157.0
161.09,148.0
161.15,160.0
161.22,144.0
161.28,144.0
161.34,146.0
161.41,142.0
161.47,148.0
161.53,123.0
161.59,140.0
161.66,149.0
161.72,126.0
161.78,121.0
161.85,124.0
161.91,121.0
161.97,124.0
162.04,118.0
162.1,128.0
162.16,108.0
162.22,105.0
162.29,105.0
162.35,114.0
162.41,103.0
162.48,81.0
162.54,98.0
162.6,107.0
162.67,97.0
162.73,121.0
162.79,113.0
162.85,105.0
162.92,106.0
162.98,79.0
163.04,99.0
163.11,81.0
163.17,85.0
163.23,83.0
163.3,90.0
163.36,86.0
163.42,66.0
163.48,66.0
163.55,86.0
163.61,88.0
163.67,72.0
163.74,97.0
163.8,75.0
163.86,81.0
163.93,87.0
163.99,75.0
164.05,77.0
164.11,78.0
164.18,86.0
164.24,76.0
164.3,66.0
164.37,84.0
164.43,93.0
164.49,85.0
164.56,97.0
164.62,77.0
164.68,92.0
164.74,85.0
164.81,91.0
164.87,84.0
164.93,67.0
165.0,59.0
165.06,77.0
165.12,64.0
165.19,85.0
165.25,70.0
165.31,70.0
165.37,70.0
165.44,65.0
165.5,60.0
165.56,49.0
165.63,56.0
165.69,49.0
165.75,47.0
165.82,48.0
165.88,67.0
165.94,70.0
166.0,67.0
166.07,72.0
166.13,61.0
166.19,77.0
166.26,84.0
166.32,72.0
166.38,87.0
166.45,77.0
166.51,58.0
166.57,66.0
166.63,69.0
166.7,55.0
166.76,49.0
166.82,56.0
166.89,45.0
166.95,49.0
167.01,58.0
167.08,33.0
167.14,53.0
167.2,49.0
167.26,65.0
167.33,58.0
167.39,61.0
167.45,79.0
167.52,63.0
167.58,81.0
167.64,65.0
167.71,59.0
167.77,73.0
167.83,80.0
167.89,88.0
167.96,90.0
168.02,77.0
168.08,89.0
168.15,92.0
168.21,95.0
168.27,83.0
168.34,88.0
168.4,83.0
168.46,75.0
168.52,76.0
168.59,101.0
168.65,101.0
168.71,78.0
168.78,89.0
168.84,78.0
168.9,99.0
168.97,97.0
169.03,93.0
169.09,80.0
169.15,105.0
169.22,88.0
169.28,72.0
169.34,83.0
169.41,82.0
169.47,96.0
169.53,99.0
169.6,107.0
169.66,125.0
169.72,127.0
169.78,111.0
169.85,76.0
169.91,110.0
169.97,98.0
170.04,87.0
170.1,85.0
170.16,86.0
170.23,89.0
170.29,74.0
170.35,88.0
170.41,97.0
170.48,114.0
170.54,106.0
170.6,112.0
170.67,125.0
170.73,121.0
170.79,116.0
170.86,95.0
170.92,108.0
170.98,104.0
171.04,96.0
171.11,91.0
171.17,91.0
171.23,95.0
171.3,91.0
171.36,101.0
171.42,107.0
171.49,76.0
171.55,98.0
171.61,92.0
171.67,84.0
171.74,75.0
171.8,77.0
171.86,75.0
171.93,84.0
171.99,89.0
172.05,92.0
172.12,102.0
172.18,83.0
172.24,93.0
172.3,101.0
172.37,87.0
172.43,108.0
172.49,121.0
172.56,119.0
172.62,115.0
172.68,125.0
172.75,130.0
172.81,119.0
172.87,119.0
172.93,125.0
173.0,113.0
173.06,118.0
173.12,111.0
173.19,115.0
173.25,91.0
173.31,89.0
173.38,91.0
173.44,97.0
173.5,96.0
173.56,99.0
173.63,112.0
173.69,96.0
173.75,102.0
173.82,88.0
173.88,91.0
173.94,101.0
174.01,99.0
174.07,97.0
174.13,100.0
174.19,121.0
174.26,136.0
174.32,118.0
174.38,129.0
174.45,118.0
174.51,141.0
174.57,122.0
174.64,129.0
174.7,136.0
174.76,147.0
174.82,149.0
174.89,158.0
174.95,157.0
175.01,152.0
175.08,147.0
175.14,139.0
175.2,140.0
175.27,144.0
175.33,133.0
175.39,143.0
175.45,147.0
175.52,141.0
175.58,136.0
175.64,130.0
175.71,140.0
175.77,148.0
175.83,131.0
175.9,139.0
175.96,151.0
176.02,145.0
176.08,146.0
176.15,132.0
176.21,117.0
176.27,108.0
176.34,111.0
176.4,107.0
176.46,116.0
176.53,109.0
176.59,96.0
176.65,110.0
176.71,118.0
176.78,112.0
176.84,116.0
176.9,119.0
176.97,117.0
177.03,121.0
177.09,126.0
177.16,117.0
177.22,125.0
177.28,139.0
177.34,140.0
177.41,136.0
177.47,129.0
177.53,147.0
177.6,152.0
177.66,154.0
177.72,158.0
177.79,155.0
177.85,164.0
177.91,171.0
177.97,181.0
178.04,183.0
178.1,179.0
178.16,159.0
178.23,173.0
178.29,173.0
178.35,162.0
178.42,188.0
178.48,183.0
178.54,182.0
178.6,169.0
178.67,184.0
178.73,188.0
178.79,172.0
178.86,176.0
178.92,168.0
178.98,173.0
179.05,167.0
179.11,155.0
179.17,152.0
179.23,128.0
179.3,136.0
179.36,133.0
179.42,124.0
179.49,139.0
179.55,141.0
179.61,110.0
179.68,109.0
179.74,112.0
179.8,102.0
179.86,107.0
179.93,122.0
179.99,101.0
180.05,114.0
180.12,115.0
180.18,113.0
180.24,122.0
180.31,113.0
180.37,121.0
180.43,143.0
180.49,128.0
180.56,114.0
180.62,90.0
180.68,110.0
180.75,103.0
180.81,85.0
180.87,100.0
180.94,91.0
181.0,72.0
181.06,64.0
181.12,58.0
181.19,59.0
181.25,81.0
181.31,66.0
181.38,85.0
181.44,74.0
181.5,84.0
181.57,74.0
181.63,56.0
181.69,64.0
181.75,79.0
181.82,55.0
181.88,66.0
181.94,85.0
182.01,97.0
182.07,94.0
182.13,81.0
182.2,81.0
182.26,94.0
182.32,84.0
182.38,68.0
182.45,75.0
182.51,91.0
182.57,75.0
182.64,59.0
182.7,89.0
182.76,97.0
182.83,110.0
182.89,93.0
182.95,93.0
183.01,105.0
183.08,88.0
183.14,99.0
183.2,85.0
183.27,107.0
183.33,85.0
183.39,98.0
183.46,100.0
183.52,92.0
183.58,88.0
183.64,87.0
183.71,89.0
183.77,70.0
183.83,84.0
183.9,99.0
183.96,92.0
184.02,98.0
184.09,78.0
184.15,91.0
184.21,86.0
184.27,78.0
184.34,81.0
184.4,81.0
184.46,80.0
184.53,64.0
184.59,85.0
184.65,52.0
184.72,62.0
184.78,64.0
184.84,63.0
184.9,80.0
184.97,76.0
185.03,65.0
185.09,50.0
185.16,61.0
185.22,96.0
185.28,88.0
185.35,73.0
185.41,73.0
185.47,81.0
185.53,70.0
185.6,85.0
185.66,89.0
185.72,71.0
185.79,65.0
185.85,75.0
185.91,77.0
185.98,72.0
186.04,67.0
186.1,68.0
186.16,49.0
186.23,38.0
186.29,42.0
186.35,39.0
186.42,57.0
186.48,42.0
186.54,31.0
186.61,32.0
186.67,50.0
186.73,37.0
186.79,58.0
186.86,65.0
186.92,74.0
186.98,44.0
187.05,54.0
187.11,61.0
187.17,47.0
187.24,61.0
187.3,59.0
187.36,70.0
187.42,60.0
187.49,55.0
187.55,49.0
187.61,39.0
187.68,47.0
187.74,38.0
187.8,39.0
187.87,43.0
187.93,47.0
187.99,38.0
188.05,44.0
188.12,58.0
188.18,48.0
188.24,47.0
188.31,40.0
188.37,61.0
188.43,71.0
188.5,41.0
188.56,39.0
188.62,26.0
188.68,55.0
188.75,57.0
188.81,57.0
188.87,61.0
188.94,84.0
189.0,73.0
189.06,56.0
189.13,56.0
189.19,63.0
189.25,59.0
189.31,47.0
189.38,66.0
189.44,41.0
189.5,58.0
189.57,44.0
189.63,32.0
189.69,52.0
189.76,44.0
189.82,37.0
189.88,59.0
189.94,55.0
190.01,53.0
190.07,68.0
190.13,55.0
190.2,40.0
190.26,33.0
190.32,25.0
190.39,28.0
190.45,27.0
190.51,36.0
190.57,48.0
190.64,25.0
190.7,32.0
190.76,18.0
190.83,36.0
190.89,45.0
190.95,42.0
191.02,60.0
191.08,54.0
191.14,65.0
191.2,55.0
191.27,74.0
191.33,69.0
191.39,57.0
191.46,48.0
191.52,52.0
191.58,73.0
191.65,59.0
191.71,59.0
191.77,52.0
191.83,48.0
191.9,51.0
191.96,58.0
192.02,52.0
192.09,42.0
192.15,44.0
192.21,39.0
192.28,41.0
192.34,33.0
192.4,24.0
192.46,30.0
192.53,52.0
192.59,31.0
192.65,16.0
192.72,44.0
192.78,24.0
192.84,23.0
192.91,31.0
192.97,32.0
193.03,37.0
193.09,20.0
193.16,28.0
193.22,36.0
193.28,47.0
193.35,31.0
193.41,48.0
193.47,63.0
193.54,42.0
193.6,38.0
193.66,40.0
193.72,53.0
193.79,42.0
193.85,48.0
193.91,55.0
193.98,37.0
194.04,31.0
194.1,36.0
194.17,24.0
194.23,40.0
194.29,58.0
194.35,50.0
194.42,36.0
194.48,44.0
194.54,46.0
194.61,33.0
194.67,34.0
194.73,19.0
194.8,9.0
194.86,21.0
194.92,32.0
194.98,15.0
195.05,11.0
195.11,-4.0
195.17,0.0
195.24,8.0
195.3,-1.0
195.36,7.0
195.43,11.0
195.49,7.0
195.55,-1.0
195.61,14.0
195.68,12.0
195.74,9.0
195.8,0.0
195.87,-17.0
195.93,-4.0
195.99,-18.0
196.06,1.0
196.12,-4.0
196.18,-9.0
196.24,4.0
196.31,5.0
196.37,-12.0
196.43,17.0
196.5,17.0
196.56,10.0
196.62,10.0
196.69,-3.0
196.75,-19.0
196.81,0.0
196.87,-15.0
196.94,-13.0
197.0,-11.0
197.06,-4.0
197.13,-9.0
197.19,-6.0
197.25,-13.0
197.32,-4.0
197.38,-18.0
197.44,-2.0
197.5,12.0
197.57,4.0
197.63,18.0
197.69,17.0
197.76,27.0
197.82,16.0
197.88,6.0
197.95,25.0
198.01,9.0
198.07,24.0
198.13,23.0
198.2,6.0
198.26,8.0
198.32,2.0
198.39,14.0
198.45,4.0
198.51,-2.0
198.58,11.0
198.64,27.0
198.7,28.0
198.76,0.0
198.83,2.0
198.89,-2.0
198.95,9.0
199.02,0.0
199.08,-1.0
199.14,3.0
199.21,1.0
199.27,19.0
199.33,12.0
199.39,12.0
199.46,14.0
199.52,28.0
199.58,28.0
199.65,20.0
199.71,23.0
199.77,28.0
199.84,24.0
199.9,26.0
199.96,40.0
200.02,52.0
200.09,46.0
200.15,50.0
200.21,67.0
200.28,70.0
200.34,68.0
200.4,58.0
200.47,67.0
200.53,73.0
200.59,69.0
200.65,74.0
200.72,91.0
200.78,87.0
200.84,72.0
200.91,69.0
200.97,64.0
201.03,72.0
201.1,80.0
201.16,68.0
201.22,84.0
201.28,100.0
201.35,83.0
201.41,95.0
201.47,78.0
201.54,80.0
201.6,81.0
201.66,83.0
201.73,87.0
201.79,64.0
201.85,65.0
201.91,86.0
201.98,96.0
202.04,83.0
202.1,87.0
202.17,103.0
202.23,116.0
202.29,113.0
202.36,124.0
202.42,116.0
202.48,109.0
202.54,105.0
202.61,96.0
202.67,97.0
202.73,100.0
202.8,78.0
202.86,96.0
202.92,101.0
202.99,121.0
203.05,122.0
203.11,115.0
203.17,116.0
203.24,132.0
203.3,127.0
203.36,141.0
203.43,138.0
203.49,119.0
203.55,136.0
203.62,142.0
203.68,117.0
203.74,123.0
203.8,160.0
203.87,155.0
203.93,138.0
203.99,161.0
204.06,151.0
204.12,142.0
204.18,147.0
204.25,147.0
204.31,146.0
204.37,163.0
204.43,173.0
204.5,171.0
204.56,166.0
204.62,159.0
204.69,157.0
204.75,167.0
204.81,185.0
204.88,170.0
204.94,138.0
205.0,155.0
205.06,158.0
205.13,162.0
205.19,147.0
205.25,131.0
205.32,139.0
205.38,163.0
205.44,162.0
205.51,172.0
205.57,194.0
205.63,154.0
205.69,159.0
205.76,161.0
205.82,157.0
205.88,140.0
205.95,146.0
206.01,129.0
206.07,146.0
206.14,150.0
206.2,156.0
206.26,139.0
206.32,142.0
206.39,134.0
206.45,139.0
206.51,140.0
206.58,155.0
206.64,154.0
206.7,136.0
206.77,148.0
206.83,130.0
206.89,130.0
206.95,129.0
207.02,127.0
207.08,113.0
207.14,128.0
207.21,132.0
207.27,122.0
207.33,135.0
207.4,126.0
207.46,141.0
207.52,124.0
207.58,111.0
207.65,126.0
207.71,123.0
207.77,123.0
207.84,138.0
207.9,135.0
207.96,140.0
208.03,120.0
208.09,120.0
208.15,121.0
208.21,115.0
208.28,124.0
208.34,138.0
208.4,130.0
208.47,147.0
208.53,168.0
208.59,152.0
208.66,163.0
208.72,155.0
208.78,134.0
208.84,142.0
208.91,160.0
208.97,147.0
209.03,144.0
209.1,151.0
209.16,135.0
209.22,141.0
209.29,148.0
209.35,159.0
209.41,158.0
209.47,156.0
209.54,133.0
209.6,141.0
209.66,113.0
209.73,129.0
209.79,137.0
209.85,135.0
209.92,130.0
209.98,152.0
210.04,162.0
210.1,164.0
210.17,158.0
210.23,166.0
210.29,178.0
210.36,175.0
210.42,160.0
210.48,173.0
210.55,165.0
210.61,155.0
210.67,179.0
210.73,156.0
210.8,159.0
210.86,155.0
210.92,141.0
210.99,148.0
211.05,156.0
211.11,145.0
211.18,142.0
211.24,142.0
211.3,158.0
211.36,164.0
211.43,169.0
211.49,165.0
211.55,143.0
211.62,166.0
211.68,135.0
211.74,139.0
211.81,157.0
211.87,141.0
211.93,149.0
211.99,142.0
212.06,146.0
212.12,136.0
212.18,131.0
212.25,141.0
212.31,125.0
212.37,124.0
212.44,131.0
212.5,142.0
212.56,132.0
212.62,134.0
212.69,138.0
212.75,134.0
212.81,128.0
212.88,127.0
212.94,113.0
213.0,93.0
213.07,101.0
213.13,94.0
213.19,90.0
213.25,109.0
213.32,109.0
213.38,116.0
213.44,126.0
213.51,110.0
213.57,84.0
213.63,79.0
213.7,71.0
213.76,71.0
213.82,74.0
213.88,70.0
213.95,74.0
214.01,70.0
214.07,82.0
214.14,72.0
214.2,76.0
214.26,60.0
214.33,76.0
214.39,67.0
214.45,61.0
214.51,54.0
214.58,56.0
214.64,40.0
214.7,50.0
214.77,30.0
214.83,23.0
214.89,47.0
214.96,44.0
215.02,13.0
215.08,28.0
215.14,45.0
215.21,35.0
215.27,16.0
215.33,12.0
215.4,21.0
215.46,48.0
215.52,46.0
215.59,46.0
215.65,47.0
215.71,46.0
215.77,39.0
215.84,39.0
215.9,44.0
215.96,50.0
216.03,62.0
216.09,60.0
216.15,59.0
216.22,48.0
216.28,68.0
216.34,58.0
216.4,59.0
216.47,67.0
216.53,61.0
216.59,49.0
216.66,54.0
216.72,28.0
216.78,40.0
216.85,48.0
216.91,50.0
216.97,57.0
217.03,44.0
217.1,43.0
217.16,39.0
217.22,61.0
217.29,59.0
217.35,59.0
217.41,55.0
217.48,59.0
217.54,57.0
217.6,46.0
217.66,57.0
217.73,62.0
217.79,55.0
217.85,54.0
217.92,38.0
217.98,38.0
218.04,52.0
218.11,62.0
218.17,50.0
218.23,47.0
218.29,49.0
218.36,54.0
218.42,67.0
218.48,57.0
218.55,72.0
218.61,68.0
218.67,39.0
218.74,63.0
218.8,49.0
218.86,65.0
218.92,67.0
218.99,55.0
219.05,44.0
219.11,49.0
219.18,62.0
219.24,50.0
219.3,65.0
219.37,65.0
219.43,62.0
219.49,86.0
219.55,73.0
219.62,57.0
219.68,81.0
219.74,79.0
219.81,61.0
219.87,75.0
219.93,75.0
220.0,75.0
220.06,78.0
220.12,86.0
220.18,83.0
220.25,88.0
220.31,83.0
220.37,68.0
220.44,74.0
220.5,90.0
220.56,101.0
220.63,94.0
220.69,82.0
220.75,89.0
220.81,94.0
220.88,72.0
220.94,55.0
221.0,76.0
221.07,80.0
221.13,94.0
221.19,84.0
221.26,64.0
221.32,86.0
221.38,101.0
221.44,76.0
221.51,65.0
221.57,69.0
221.63,81.0
221.7,83.0
221.76,94.0
221.82,96.0
221.89,84.0
221.95,78.0
222.01,72.0
222.07,61.0
222.14,72.0
222.2,79.0
222.26,100.0
222.33,81.0
222.39,66.0
222.45,73.0
222.52,68.0
222.58,64.0
222.64,74.0
222.7,82.0
222.77,64.0
222.83,49.0
222.89,58.0
222.96,83.0
223.02,87.0
223.08,61.0
223.15,53.0
223.21,55.0
223.27,66.0
223.33,44.0
223.4,59.0
223.46,80.0
223.52,67.0
223.59,69.0
223.65,46.0
223.71,58.0
223.78,53.0
223.84,50.0
223.9,66.0
223.96,87.0
224.03,70.0
224.09,64.0
224.15,53.0
224.22,51.0
224.28,57.0
224.34,57.0
224.41,54.0
224.47,68.0
224.53,61.0
224.59,39.0
224.66,54.0
224.72,61.0
224.78,81.0
224.85,83.0
224.91,39.0
224.97,40.0
225.04,54.0
225.1,58.0
225.16,79.0
225.22,79.0
225.29,74.0
225.35,81.0
225.41,76.0
225.48,78.0
225.54,98.0
225.6,107.0
225.67,98.0
225.73,115.0
225.79,124.0
225.85,105.0
225.92,99.0
225.98,110.0
226.04,109.0
226.11,124.0
226.17,118.0
226.23,112.0
226.3,127.0
226.36,144.0
226.42,142.0
226.48,133.0
226.55,150.0
226.61,142.0
226.67,147.0
226.74,142.0
226.8,149.0
226.86,142.0
226.93,153.0
226.99,166.0
227.05,157.0
227.11,171.0
227.18,171.0
227.24,177.0
227.3,164.0
227.37,175.0
227.43,181.0
227.49,174.0
227.56,171.0
227.62,169.0
227.68,163.0
227.74,180.0
227.81,171.0
227.87,160.0
227.93,179.0
228.0,183.0
228.06,179.0
228.12,174.0
228.19,174.0
228.25,185.0
228.31,161.0
228.37,199.0
228.44,196.0
228.5,168.0
228.56,146.0
228.63,169.0
228.69,173.0
228.75,145.0
228.82,161.0
228.88,161.0
228.94,141.0
229.0,166.0
229.07,174.0
229.13,156.0
229.19,141.0
229.26,142.0
229.32,169.0
229.38,151.0
229.45,147.0
229.51,157.0
229.57,172.0
229.63,173.0
229.7,157.0
229.76,131.0
229.82,139.0
229.89,118.0
229.95,136.0
230.01,132.0
230.08,120.0
230.14,120.0
230.2,108.0
230.26,116.0
230.33,117.0
230.39,124.0
230.45,117.0
230.52,120.0
230.58,127.0
230.64,120.0
230.71,128.0
230.77,91.0
230.83,105.0
230.89,98.0
230.96,107.0
231.02,106.0
231.08,114.0
231.15,108.0
231.21,84.0
231.27,83.0
231.34,84.0
231.4,69.0
231.46,75.0
231.52,93.0
231.59,97.0
231.65,103.0
231.71,98.0
231.78,114.0
231.84,105.0
231.9,125.0
231.97,103.0
232.03,102.0
232.09,108.0
232.15,113.0
232.22,119.0
232.28,93.0
232.34,103.0
232.41,120.0
232.47,94.0
232.53,103.0
232.6,119.0
232.66,114.0
232.72,92.0
232.78,112.0
232.85,119.0
232.91,119.0
232.97,143.0
233.04,147.0
233.1,130.0
233.16,131.0
233.23,133.0
233.29,138.0
233.35,130.0
233.41,144.0
233.48,135.0
233.54,135.0
233.6,136.0
233.67,125.0
233.73,126.0
233.79,136.0
233.86,135.0
233.92,131.0
233.98,130.0
234.04,127.0
234.11,148.0
234.17,143.0
234.23,133.0
234.3,154.0
234.36,149.0
234.42,122.0
234.49,124.0
234.55,131.0
234.61,123.0
234.67,113.0
234.74,104.0
234.8,95.0
234.86,84.0
234.93,72.0
234.99,62.0
235.05,55.0
235.12,61.0
235.18,71.0
235.24,76.0
235.3,70.0
235.37,65.0
235.43,85.0
235.49,86.0
235.56,83.0
235.62,91.0
235.68,94.0
235.75,95.0
235.81,105.0
235.87,100.0
235.93,93.0
236.0,117.0
236.06,111.0
236.12,90.0
236.19,68.0
236.25,87.0
236.31,93.0
236.38,89.0
236.44,87.0
236.5,80.0
236.56,83.0
236.63,98.0
236.69,121.0
236.75,127.0
236.82,114.0
236.88,95.0
236.94,100.0
237.01,117.0
237.07,117.0
237.13,108.0
237.19,100.0
237.26,100.0
237.32,103.0
237.38,94.0
237.45,99.0
237.51,94.0
237.57,97.0
237.64,114.0
237.7,94.0
237.76,75.0
237.82,75.0
237.89,83.0
237.95,81.0
238.01,76.0
238.08,85.0
238.14,84.0
238.2,84.0
238.27,57.0
238.33,48.0
238.39,66.0
238.45,73.0
238.52,83.0
238.58,58.0
238.64,46.0
238.71,68.0
238.77,70.0
238.83,70.0
238.9,43.0
238.96,42.0
239.02,50.0
239.08,33.0
239.15,45.0
239.21,50.0
239.27,41.0
239.34,40.0
239.4,44.0
239.46,48.0
239.53,41.0
239.59,38.0
239.65,42.0
239.71,44.0
239.78,47.0
239.84,50.0
239.9,44.0
239.97,34.0
240.03,40.0
240.09,46.0
240.16,31.0
240.22,43.0
240.28,48.0
240.34,37.0
240.41,34.0
240.47,27.0
240.53,30.0
240.6,40.0
240.66,27.0
240.72,34.0
240.79,33.0
240.85,39.0
240.91,46.0
240.97,45.0
241.04,35.0
241.1,60.0
241.16,70.0
241.23,61.0
241.29,55.0
241.35,50.0
241.42,46.0
241.48,49.0
241.54,46.0
241.6,18.0
241.67,28.0
241.73,22.0
241.79,16.0
241.86,27.0
241.92,42.0
241.98,50.0
242.05,27.0
242.11,54.0
242.17,57.0
242.23,59.0
242.3,39.0
242.36,50.0
242.42,36.0
242.49,45.0
242.55,38.0
242.61,40.0
242.68,47.0
242.74,43.0
242.8,46.0
242.86,50.0
242.93,40.0
242.99,56.0
243.05,55.0
243.12,70.0
243.18,49.0
243.24,37.0
243.31,33.0
243.37,17.0
243.43,21.0
243.49,31.0
243.56,54.0
243.62,56.0
243.68,51.0
243.75,62.0
243.81,57.0
243.87,44.0
243.94,52.0
244.0,64.0
244.06,56.0
244.12,52.0
244.19,73.0
244.25,81.0
244.31,80.0
244.38,83.0
244.44,75.0
244.5,65.0
244.57,62.0
244.63,67.0
244.69,77.0
244.75,89.0
244.82,91.0
244.88,86.0
244.94,86.0
245.01,83.0
245.07,83.0
245.13,76.0
245.2,61.0
245.26,47.0
245.32,42.0
245.38,47.0
245.45,65.0
245.51,43.0
245.57,53.0
245.64,42.0
245.7,48.0
245.76,52.0
245.83,62.0
245.89,67.0
245.95,67.0
246.01,82.0
246.08,74.0
246.14,48.0
246.2,67.0
246.27,44.0
246.33,66.0
246.39,67.0
246.46,58.0
246.52,54.0
246.58,47.0
246.64,52.0
246.71,56.0
246.77,45.0
246.83,36.0
246.9,32.0
246.96,19.0
247.02,26.0
247.09,25.0
247.15,10.0
247.21,37.0
247.27,29.0
247.34,22.0
247.4,36.0
247.46,39.0
247.53,36.0
247.59,45.0
247.65,34.0
247.72,22.0
247.78,43.0
247.84,28.0
247.9,6.0
247.97,21.0
248.03,13.0
248.09,-12.0
248.16,-9.0
248.22,11.0
248.28,4.0
248.35,17.0
248.41,-9.0
248.47,-12.0
248.53,-4.0
248.6,-6.0
248.66,-12.0
248.72,-1.0
248.79,-5.0
248.85,-17.0
248.91,-19.0
248.98,-24.0
249.04,-12.0
249.1,-20.0
249.16,-32.0
249.23,-29.0
249.29,-9.0
249.35,-5.0
249.42,-14.0
249.48,2.0
249.54,-3.0
249.61,-13.0
249.67,-10.0
249.73,-16.0
249.79,2.0
249.86,5.0
249.92,-1.0
249.98,-3.0
250.05,-1.0
250.11,-9.0
250.17,7.0
250.24,7.0
250.3,13.0
250.36,-6.0
250.42,-24.0
250.49,-28.0
250.55,-25.0
250.61,-21.0
250.68,-6.0
250.74,-4.0
250.8,1.0
250.87,-11.0
250.93,-5.0
250.99,30.0
251.05,19.0
251.12,30.0
251.18,15.0
251.24,6.0
251.31,11.0
251.37,-3.0
251.43,14.0
251.5,15.0
251.56,21.0
251.62,18.0
251.68,14.0
251.75,13.0
251.81,-5.0
251.87,2.0
251.94,19.0
252.0,9.0
252.06,16.0
252.13,18.0
252.19,2.0
252.25,14.0
252.31,29.0
252.38,32.0
252.44,27.0
252.5,42.0
252.57,27.0
252.63,16.0
252.69,27.0
252.76,15.0
252.82,7.0
252.88,27.0
252.94,29.0
253.01,38.0
253.07,44.0
253.13,54.0
253.2,48.0
253.26,46.0
253.32,52.0
253.39,47.0
253.45,72.0
253.51,76.0
253.57,66.0
253.64,77.0
253.7,76.0
253.76,66.0
253.83,67.0
253.89,74.0
253.95,87.0
254.02,92.0
254.08,68.0
254.14,56.0
254.2,68.0
254.27,46.0
254.33,59.0
254.39,80.0
254.46,87.0
254.52,80.0
254.58,82.0
254.65,91.0
254.71,99.0
254.77,111.0
254.83,134.0
254.9,116.0
254.96,102.0
255.02,110.0
255.09,104.0
255.15,107.0
255.21,123.0
255.28,112.0
255.34,101.0
255.4,90.0
255.46,94.0
255.53,106.0
255.59,115.0
255.65,114.0
255.72,115.0
255.78,105.0
255.84,123.0
255.91,147.0
255.97,138.0
256.03,156.0
256.09,131.0
256.16,106.0
256.22,132.0
256.28,124.0
256.35,151.0
256.41,143.0
256.47,120.0
256.54,140.0
256.6,158.0
256.66,124.0
256.72,142.0
256.79,161.0
256.85,131.0
256.91,130.0
256.98,134.0
257.04,126.0
257.1,145.0
257.17,139.0
257.23,145.0
257.29,142.0
257.35,124.0
257.42,132.0
257.48,138.0
257.54,127.0
257.61,119.0
257.67,132.0
257.73,156.0
257.8,145.0
257.86,156.0
257.92,157.0
257.98,138.0
258.05,160.0
258.11,167.0
258.17,150.0
258.24,153.0
258.3,146.0
258.36,148.0
258.43,147.0
258.49,137.0
258.55,156.0
258.61,148.0
258.68,137.0
258.74,150.0
258.8,157.0
258.87,151.0
258.93,131.0
258.99,150.0
259.06,146.0
259.12,139.0
259.18,157.0
259.24,159.0
259.31,133.0
259.37,138.0
259.43,137.0
259.5,142.0
259.56,129.0
259.62,116.0
259.69,121.0
259.75,134.0
259.81,147.0
259.87,134.0
259.94,125.0
260.0,142.0
260.06,154.0
260.13,165.0
260.19,146.0
260.25,138.0
260.32,135.0
260.38,123.0
260.44,137.0
260.5,146.0
260.57,127.0
260.63,118.0
260.69,118.0
260.76,126.0
260.82,136.0
260.88,137.0
260.95,126.0
261.01,125.0
261.07,133.0
261.13,142.0
261.2,151.0
261.26,131.0
261.32,125.0
261.39,115.0
261.45,117.0
261.51,142.0
261.58,129.0
261.64,132.0
261.7,139.0
261.76,146.0
261.83,155.0
261.89,135.0
261.95,143.0
262.02,135.0
262.08,138.0
262.14,149.0
262.21,144.0
262.27,137.0
262.33,150.0
262.39,153.0
262.46,143.0
262.52,157.0
262.58,143.0
262.65,146.0
262.71,156.0
262.77,167.0
262.84,154.0
262.9,151.0
262.96,145.0
263.02,118.0
263.09,96.0
263.15,126.0
263.21,123.0
263.28,155.0
263.34,133.0
263.4,123.0
263.47,138.0
263.53,139.0
263.59,140.0
263.65,145.0
263.72,148.0
263.78,154.0
263.84,122.0
263.91,134.0
263.97,141.0
264.03,127.0
264.1,129.0
264.16,110.0
264.22,122.0
264.28,110.0
264.35,109.0
264.41,120.0
264.47,121.0
264.54,113.0
264.6,117.0
264.66,112.0
264.73,95.0
264.79,90.0
264.85,102.0
264.91,102.0
264.98,100.0
265.04,87.0
265.1,134.0
265.17,109.0
265.23,109.0
265.29,100.0
265.36,101.0
265.42,113.0
265.48,107.0
265.54,129.0
265.61,116.0
265.67,115.0
265.73,103.0
265.8,134.0
265.86,150.0
265.92,135.0
265.99,123.0
266.05,112.0
266.11,131.0
266.17,109.0
266.24,112.0
266.3,101.0
266.36,95.0
266.43,93.0
266.49,113.0
266.55,116.0
266.62,114.0
266.68,120.0
266.74,119.0
266.8,124.0
266.87,95.0
266.93,105.0
266.99,109.0
267.06,107.0
267.12,125.0
267.18,135.0
267.25,136.0
267.31,134.0
267.37,143.0
267.43,132.0
267.5,150.0
267.56,149.0
267.62,134.0
267.69,135.0
267.75,134.0
267.81,155.0
267.88,145.0
267.94,156.0
268.0,143.0
268.06,124.0
268.13,127.0
268.19,126.0
268.25,139.0
268.32,116.0
268.38,132.0
268.44,110.0
268.51,128.0
268.57,109.0
268.63,110.0
268.69,137.0
268.76,124.0
268.82,129.0
268.88,124.0
268.95,95.0
269.01,107.0
269.07,95.0
269.14,102.0
269.2,93.0
269.26,94.0
269.32,115.0
269.39,101.0
269.45,112.0
269.51,97.0
269.58,90.0
269.64,93.0
269.7,98.0
269.77,95.0
269.83,93.0
269.89,107.0
269.95,108.0
270.02,94.0
270.08,98.0
270.14,93.0
270.21,80.0
270.27,94.0
270.33,89.0
270.4,93.0
270.46,68.0
270.52,63.0
270.58,54.0
270.65,72.0
270.71,74.0
270.77,81.0
270.84,99.0
270.9,80.0
270.96,102.0
271.03,123.0
271.09,108.0
271.15,109.0
271.21,138.0
271.28,136.0
271.34,129.0
271.4,117.0
271.47,105.0
271.53,109.0
271.59,117.0
271.66,129.0
271.72,118.0
271.78,120.0
271.84,131.0
271.91,119.0
271.97,118.0
272.03,116.0
272.1,125.0
272.16,135.0
272.22,114.0
272.29,122.0
272.35,110.0
272.41,128.0
272.47,120.0
272.54,102.0
272.6,95.0
272.66,104.0
272.73,98.0
272.79,78.0
272.85,63.0
272.92,73.0
272.98,69.0
273.04,64.0
273.1,69.0
273.17,61.0
273.23,50.0
273.29,69.0
273.36,87.0
273.42,88.0
273.48,76.0
273.55,73.0
273.61,83.0
273.67,78.0
273.73,78.0
273.8,73.0
273.86,93.0
273.92,88.0
273.99,87.0
274.05,94.0
274.11,106.0
274.18,115.0
274.24,116.0
274.3,122.0
274.36,105.0
274.43,95.0
274.49,120.0
274.55,115.0
274.62,102.0
274.68,103.0
274.74,70.0
274.81,67.0
274.87,60.0
274.93,56.0
274.99,68.0
275.06,77.0
275.12,63.0
275.18,48.0
275.25,54.0
275.31,61.0
275.37,69.0
275.44,61.0
275.5,70.0
275.56,66.0
275.62,87.0
275.69,72.0
275.75,65.0
275.81,66.0
275.88,73.0
275.94,79.0
276.0,65.0
276.07,73.0
276.13,79.0
276.19,92.0
276.25,60.0
276.32,87.0
276.38,66.0
276.44,67.0
276.51,88.0
276.57,87.0
276.63,76.0
276.7,65.0
276.76,59.0
276.82,60.0
276.88,57.0
276.95,69.0
277.01,69.0
277.07,58.0
277.14,52.0
277.2,49.0
277.26,60.0
277.33,47.0
277.39,40.0
277.45,38.0
277.51,49.0
277.58,41.0
277.64,60.0
277.7,51.0
277.77,66.0
277.83,85.0
277.89,71.0
277.96,79.0
278.02,77.0
278.08,87.0
278.14,63.0
278.21,78.0
278.27,93.0
278.33,102.0
278.4,91.0
278.46,94.0
278.52,94.0
278.59,102.0
278.65,115.0
278.71,98.0
278.77,105.0
278.84,104.0
278.9,116.0
278.96,102.0
279.03,99.0
279.09,116.0
279.15,111.0
279.22,114.0
279.28,137.0
279.34,107.0
279.4,127.0
279.47,123.0
279.53,123.0
279.59,117.0
279.66,141.0
279.72,137.0
279.78,123.0
279.85,128.0
279.91,129.0
279.97,125.0
280.03,104.0
280.1,113.0
280.16,128.0
280.22,105.0
280.29,93.0
280.35,87.0
280.41,105.0
280.48,82.0
280.54,104.0
280.6,124.0
280.66,123.0
280.73,118.0
280.79,116.0
280.85,138.0
280.92,134.0
280.98,131.0
281.04,135.0
281.11,122.0
281.17,114.0
281.23,127.0
281.29,134.0
281.36,112.0
281.42,109.0
281.48,116.0
281.55,129.0
281.61,113.0
281.67,131.0
281.74,122.0
281.8,120.0
281.86,134.0
281.92,136.0
281.99,120.0
282.05,142.0
282.11,142.0
282.18,131.0
282.24,145.0
282.3,133.0
282.37,149.0
282.43,133.0
282.49,151.0
282.55,153.0
282.62,141.0
282.68,129.0
282.74,145.0
282.81,125.0
282.87,146.0
282.93,134.0
283.0,148.0
283.06,151.0
283.12,142.0
283.18,150.0
283.25,153.0
283.31,176.0
283.37,161.0
283.44,135.0
283.5,148.0
283.56,157.0
283.63,164.0
283.69,149.0
283.75,131.0
283.81,146.0
283.88,153.0
283.94,139.0
284.0,138.0
284.07,140.0
284.13,124.0
284.19,123.0
284.26,104.0
284.32,118.0
284.38,113.0
284.44,124.0
284.51,135.0
284.57,132.0
284.63,139.0
284.7,142.0
284.76,149.0
284.82,121.0
284.89,134.0
284.95,134.0
285.01,138.0
285.07,146.0
285.14,131.0
285.2,130.0
285.26,115.0
285.33,109.0
285.39,108.0
285.45,118.0
285.52,109.0
285.58,111.0
285.64,124.0
285.7,117.0
285.77,108.0
285.83,105.0
285.89,109.0
285.96,120.0
286.02,128.0
286.08,146.0
286.15,153.0
286.21,137.0
286.27,133.0
286.33,148.0
286.4,154.0
286.46,136.0
286.52,117.0
286.59,124.0
286.65,126.0
286.71,122.0
286.78,130.0
286.84,124.0
286.9,120.0
286.96,113.0
287.03,124.0
287.09,127.0
287.15,120.0
287.22,109.0
287.28,105.0
287.34,121.0
287.41,109.0
287.47,116.0
287.53,105.0
287.59,92.0
287.66,116.0
287.72,116.0
287.78,123.0
287.85,123.0
287.91,116.0
287.97,114.0
288.04,88.0
288.1,95.0
288.16,103.0
288.22,120.0
288.29,120.0
288.35,125.0
288.41,121.0
288.48,143.0
288.54,118.0
288.6,109.0
288.67,95.0
288.73,104.0
288.79,116.0
288.85,111.0
288.92,112.0
288.98,112.0
289.04,124.0
289.11,124.0
289.17,123.0
289.23,123.0
289.3,117.0
289.36,112.0
289.42,135.0
289.48,135.0
289.55,122.0
289.61,119.0
289.67,93.0
289.74,90.0
289.8,92.0
289.86,94.0
289.93,97.0
289.99,110.0
290.05,103.0
290.11,93.0
290.18,109.0
290.24,91.0
290.3,110.0
290.37,101.0
290.43,90.0
290.49,119.0
290.56,103.0
290.62,90.0
290.68,101.0
290.74,106.0
290.81,100.0
290.87,97.0
290.93,89.0
291.0,102.0
291.06,100.0
291.12,74.0
291.19,87.0
291.25,69.0
291.31,82.0
291.37,101.0
291.44,88.0
291.5,79.0
291.56,98.0
291.63,92.0
291.69,89.0
291.75,115.0
291.82,112.0
291.88,120.0
291.94,107.0
292.0,102.0
292.07,98.0
292.13,100.0
292.19,92.0
292.26,102.0
292.32,107.0
292.38,104.0
292.45,91.0
292.51,113.0
292.57,98.0
292.63,103.0
292.7,106.0
292.76,119.0
292.82,105.0
292.89,93.0
292.95,88.0
293.01,95.0
293.08,109.0
293.14,120.0
293.2,129.0
293.26,111.0
293.33,95.0
293.39,107.0
293.45,110.0
293.52,118.0
293.58,132.0
293.64,117.0
293.71,119.0
293.77,113.0
293.83,125.0
293.89,117.0
293.96,128.0
294.02,103.0
294.08,85.0
294.15,101.0
294.21,98.0
294.27,86.0
294.34,101.0
294.4,111.0
294.46,125.0
294.52,99.0
294.59,122.0
294.65,120.0
294.71,108.0
294.78,109.0
294.84,102.0
294.9,70.0
294.97,86.0
295.03,96.0
295.09,83.0
295.15,93.0
295.22,105.0
295.28,102.0
295.34,87.0
295.41,98.0
295.47,95.0
295.53,102.0
295.6,94.0
295.66,120.0
295.72,99.0
295.78,93.0
295.85,90.0
295.91,98.0
295.97,99.0
296.04,104.0
296.1,107.0
296.16,71.0
296.23,80.0
296.29,71.0
296.35,75.0
296.41,63.0
296.48,70.0
296.54,92.0
296.6,86.0
296.67,100.0
296.73,106.0
296.79,118.0
296.86,105.0
296.92,120.0
296.98,100.0
297.04,96.0
297.11,85.0
297.17,82.0
297.23,86.0
297.3,73.0
297.36,72.0
297.42,89.0
297.49,89.0
297.55,84.0
297.61,81.0
297.67,71.0
297.74,74.0
297.8,60.0
297.86,47.0
297.93,62.0
297.99,57.0
298.05,65.0
298.12,57.0
298.18,65.0
298.24,60.0
298.3,68.0
298.37,77.0
298.43,80.0
298.49,75.0
298.56,73.0
298.62,75.0
298.68,49.0
298.75,52.0
298.81,49.0
298.87,58.0
298.93,50.0
299.0,62.0
299.06,50.0
299.12,39.0
299.19,52.0
299.25,38.0
299.31,40.0
299.38,39.0
299.44,35.0
299.5,39.0
299.56,47.0
299.63,53.0
299.69,34.0
299.75,35.0
299.82,39.0
299.88,24.0
299.94,31.0
300.01,7.0
300.07,40.0
300.13,52.0
300.19,48.0
300.26,47.0
300.32,52.0
300.38,62.0
300.45,55.0
300.51,72.0
300.57,61.0
300.64,50.0
300.7,55.0
300.76,41.0
300.82,53.0
300.89,33.0
300.95,32.0
301.01,60.0
301.08,74.0
301.14,76.0
301.2,65.0
301.27,54.0
301.33,33.0
301.39,39.0
301.45,23.0
301.52,16.0
301.58,32.0
301.64,26.0
301.71,14.0
301.77,5.0
301.83,22.0
301.9,28.0
301.96,17.0
302.02,30.0
302.08,40.0
302.15,16.0
302.21,19.0
302.27,14.0
302.34,37.0
302.4,40.0
302.46,30.0
302.53,27.0
302.59,-3.0
302.65,4.0
302.71,19.0
302.78,13.0
302.84,6.0
302.9,-3.0
302.97,12.0
303.03,24.0
303.09,19.0
303.16,24.0
303.22,21.0
303.28,34.0
303.34,30.0
303.41,35.0
303.47,22.0
303.53,16.0
303.6,27.0
303.66,27.0
303.72,27.0
303.79,31.0
303.85,26.0
303.91,43.0
303.97,50.0
304.04,61.0
304.1,64.0
304.16,79.0
304.23,77.0
304.29,63.0
304.35,79.0
304.42,74.0
304.48,75.0
304.54,84.0
304.6,79.0
304.67,60.0
304.73,45.0
304.79,57.0
304.86,60.0
304.92,69.0
304.98,47.0
305.05,58.0
305.11,81.0
305.17,79.0
305.23,68.0
305.3,63.0
305.36,47.0
305.42,30.0
305.49,77.0
305.55,73.0
305.61,61.0
305.68,70.0
305.74,52.0
305.8,66.0
305.86,63.0
305.93,47.0
305.99,77.0
306.05,73.0
306.12,53.0
306.18,63.0
306.24,73.0
306.31,83.0
306.37,111.0
306.43,104.0
306.49,89.0
306.56,90.0
306.62,89.0
306.68,71.0
306.75,67.0
306.81,66.0
306.87,58.0
306.94,60.0
307.0,66.0
307.06,63.0
307.12,46.0
307.19,57.0
307.25,46.0
307.31,41.0
307.38,56.0
307.44,66.0
307.5,67.0
307.57,54.0
307.63,77.0
307.69,83.0
307.75,65.0
307.82,53.0
307.88,72.0
307.94,62.0
308.01,76.0
308.07,74.0
308.13,69.0
308.2,78.0
308.26,89.0
308.32,108.0
308.38,115.0
308.45,114.0
308.51,116.0
308.57,125.0
308.64,130.0
308.7,126.0
308.76,122.0
308.83,127.0
308.89,119.0
308.95,141.0
309.01,145.0
309.08,115.0
309.14,124.0
309.2,143.0
309.27,142.0
309.33,151.0
309.39,151.0
309.46,133.0
309.52,154.0
309.58,168.0
309.64,176.0
309.71,155.0
309.77,159.0
309.83,148.0
309.9,123.0
309.96,125.0
310.02,140.0
310.09,147.0
310.15,146.0
310.21,148.0
310.27,135.0
310.34,143.0
310.4,153.0
310.46,149.0
310.53,120.0
310.59,122.0
310.65,161.0
310.72,150.0
310.78,144.0
310.84,145.0
310.9,143.0
310.97,140.0
311.03,148.0
311.09,141.0
311.16,148.0
311.22,159.0
311.28,149.0
311.35,173.0
311.41,151.0
311.47,146.0
311.53,160.0
311.6,152.0
311.66,159.0
311.72,141.0
311.79,142.0
311.85,154.0
311.91,143.0
311.98,156.0
312.04,162.0
312.1,155.0
312.16,161.0
312.23,154.0
312.29,138.0
312.35,156.0
312.42,149.0
312.48,157.0
312.54,169.0
312.61,153.0
312.67,152.0
312.73,149.0
312.79,163.0
312.86,149.0
312.92,145.0
312.98,161.0
313.05,157.0
313.11,163.0
313.17,163.0
313.24,148.0
313.3,154.0
313.36,148.0
313.42,147.0
313.49,135.0
313.55,146.0
313.61,161.0
313.68,142.0
313.74,148.0
313.8,140.0
313.87,126.0
313.93,132.0
313.99,129.0
314.05,121.0
314.12,130.0
314.18,113.0
314.24,124.0
314.31,116.0
314.37,119.0
314.43,131.0
314.5,148.0
314.56,129.0
314.62,137.0
314.68,154.0
314.75,137.0
314.81,137.0
314.87,135.0
314.94,141.0
315.0,118.0
315.06,127.0
315.13,148.0
315.19,142.0
315.25,125.0
315.31,138.0
315.38,135.0
315.44,146.0
315.5,129.0
315.57,126.0
315.63,116.0
315.69,125.0
315.76,119.0
315.82,110.0
315.88,115.0
315.94,112.0
316.01,126.0
316.07,133.0
316.13,124.0
316.2,109.0
316.26,121.0
316.32,135.0
316.39,143.0
316.45,118.0
316.51,111.0
316.57,125.0
316.64,113.0
316.7,110.0
316.76,111.0
316.83,101.0
316.89,117.0
316.95,123.0
317.02,108.0
317.08,122.0
317.14,119.0
317.2,110.0
317.27,113.0
317.33,115.0
317.39,114.0
317.46,119.0
317.52,104.0
317.58,102.0
317.65,102.0
317.71,93.0
317.77,75.0
317.83,84.0
317.9,94.0
317.96,93.0
318.02,84.0
318.09,72.0
318.15,96.0
318.21,106.0
318.28,93.0
318.34,75.0
318.4,71.0
318.46,91.0
318.53,95.0
318.59,78.0
318.65,66.0
318.72,76.0
318.78,66.0
318.84,75.0
318.91,79.0
318.97,86.0
319.03,86.0
319.09,98.0
319.16,67.0
319.22,76.0
319.28,81.0
319.35,82.0
319.41,86.0
319.47,69.0
319.54,91.0
319.6,78.0
319.66,79.0
319.72,99.0
319.79,109.0
319.85,115.0
319.91,127.0
319.98,123.0
320.04,130.0
320.1,114.0
320.17,135.0
320.23,127.0
320.29,118.0
320.35,111.0
320.42,110.0
320.48,127.0
320.54,101.0
320.61,112.0
320.67,96.0
320.73,90.0
320.8,111.0
320.86,101.0
320.92,99.0
320.98,66.0
321.05,78.0
321.11,89.0
321.17,53.0
321.24,86.0
321.3,102.0
321.36,108.0
321.43,93.0
321.49,89.0
321.55,99.0
321.61,116.0
321.68,111.0
321.74,104.0
321.8,103.0
321.87,109.0
321.93,99.0
321.99,105.0
322.06,112.0
322.12,110.0
322.18,113.0
322.24,100.0
322.31,108.0
322.37,104.0
322.43,112.0
322.5,97.0
322.56,89.0
322.62,108.0
322.69,97.0
322.75,108.0
322.81,104.0
322.87,88.0
322.94,117.0
323.0,100.0
323.06,102.0
323.13,102.0
323.19,80.0
323.25,96.0
323.32,92.0
323.38,86.0
323.44,66.0
323.5,66.0
323.57,56.0
323.63,70.0
323.69,78.0
323.76,66.0
323.82,75.0
323.88,74.0
323.95,85.0
324.01,83.0
324.07,85.0
324.13,92.0
324.2,88.0
324.26,89.0
324.32,92.0
324.39,90.0
324.45,104.0
324.51,77.0
324.58,93.0
324.64,106.0
324.7,103.0
324.76,98.0
324.83,78.0
324.89,77.0
324.95,91.0
325.02,93.0
325.08,78.0
325.14,92.0
325.21,96.0
325.27,79.0
325.33,101.0
325.39,93.0
325.46,82.0
325.52,86.0
325.58,93.0
325.65,93.0
325.71,102.0
325.77,96.0
325.84,104.0
325.9,119.0
325.96,122.0
326.02,125.0
326.09,104.0
326.15,116.0
326.21,114.0
326.28,116.0
326.34,145.0
326.4,137.0
326.47,121.0
326.53,111.0
326.59,112.0
326.65,116.0
326.72,126.0
326.78,113.0
326.84,123.0
326.91,119.0
326.97,119.0
327.03,96.0
327.1,130.0
327.16,107.0
327.22,123.0
327.28,110.0
327.35,126.0
327.41,100.0
327.47,106.0
327.54,108.0
327.6,87.0
327.66,99.0
327.73,96.0
327.79,86.0
327.85,80.0
327.91,97.0
327.98,93.0
328.04,90.0
328.1,109.0
328.17,89.0
328.23,90.0
328.29,93.0
328.36,77.0
328.42,87.0
328.48,82.0
328.54,89.0
328.61,64.0
328.67,110.0
328.73,113.0
328.8,96.0
328.86,110.0
328.92,103.0
328.99,97.0
329.05,92.0
329.11,81.0
329.17,81.0
329.24,99.0
329.3,83.0
329.36,89.0
329.43,93.0
329.49,85.0
329.55,91.0
329.62,93.0
329.68,94.0
329.74,105.0
329.8,97.0
329.87,78.0
329.93,86.0
329.99,95.0
330.06,93.0
330.12,88.0
330.18,101.0
330.25,104.0
330.31,112.0
330.37,123.0
330.43,122.0
330.5,115.0
330.56,131.0
330.62,119.0
330.69,110.0
330.75,107.0
330.81,104.0
330.88,116.0
330.94,124.0
331.0,118.0
331.06,141.0
331.13,120.0
331.19,101.0
331.25,102.0
331.32,116.0
331.38,106.0
331.44,96.0
331.51,104.0
331.57,127.0
331.63,124.0
331.69,101.0
331.76,115.0
331.82,115.0
331.88,102.0
331.95,90.0
332.01,108.0
332.07,113.0
332.14,91.0
332.2,111.0
332.26,94.0
332.32,100.0
332.39,115.0
332.45,86.0
332.51,90.0
332.58,92.0
332.64,91.0
332.7,72.0
332.77,80.0
332.83,78.0
332.89,68.0
332.95,72.0
333.02,81.0
333.08,76.0
333.14,74.0
333.21,76.0
333.27,83.0
333.33,93.0
333.4,90.0
333.46,94.0
333.52,100.0
333.58,114.0
333.65,103.0
333.71,120.0
333.77,117.0
333.84,115.0
333.9,121.0
333.96,115.0
334.03,97.0
334.09,107.0
334.15,113.0
334.21,111.0
334.28,97.0
334.34,98.0
334.4,91.0
334.47,99.0
334.53,100.0
334.59,108.0
334.66,131.0
334.72,117.0
334.78,130.0
334.84,127.0
334.91,130.0
334.97,119.0
335.03,124.0
335.1,127.0
335.16,123.0
335.22,107.0
335.29,114.0
335.35,99.0
335.41,130.0
335.47,116.0
335.54,123.0
335.6,121.0
335.66,119.0
335.73,123.0
335.79,119.0
335.85,115.0
335.92,98.0
335.98,107.0
336.04,111.0
336.1,102.0
336.17,96.0
336.23,91.0
336.29,75.0
336.36,73.0
336.42,82.0
336.48,64.0
336.55,65.0
336.61,75.0
336.67,73.0
336.73,52.0
336.8,64.0
336.86,66.0
336.92,69.0
336.99,61.0
337.05,73.0
337.11,93.0
337.18,86.0
337.24,77.0
337.3,78.0
337.36,100.0
337.43,110.0
337.49,104.0
337.55,98.0
337.62,90.0
337.68,76.0
337.74,80.0
337.81,86.0
337.87,82.0
337.93,67.0
337.99,88.0
338.06,83.0
338.12,86.0
338.18,80.0
338.25,103.0
338.31,108.0
338.37,97.0
338.44,96.0
338.5,98.0
338.56,124.0
338.62,97.0
338.69,110.0
338.75,108.0
338.81,71.0
338.88,92.0
338.94,75.0
339.0,80.0
339.07,93.0
339.13,84.0
339.19,90.0
339.25,104.0
339.32,84.0
339.38,82.0
339.44,79.0
339.51,96.0
339.57,92.0
339.63,93.0
339.7,92.0
339.76,89.0
339.82,111.0
339.88,104.0
339.95,84.0
340.01,91.0
340.07,99.0
340.14,97.0
340.2,87.0
340.26,78.0
340.33,91.0
340.39,101.0
340.45,85.0
340.51,77.0
340.58,82.0
340.64,85.0
340.7,78.0
340.77,80.0
340.83,79.0
340.89,78.0
340.96,59.0
341.02,64.0
341.08,99.0
341.14,92.0
341.21,65.0
341.27,63.0
341.33,83.0
341.4,92.0
341.46,81.0
341.52,88.0
341.59,79.0
341.65,87.0
341.71,96.0
341.77,93.0
341.84,89.0
341.9,105.0
341.96,95.0
342.03,74.0
342.09,94.0
342.15,82.0
342.22,67.0
342.28,71.0
342.34,76.0
342.4,94.0
342.47,86.0
342.53,86.0
342.59,79.0
342.66,93.0
342.72,83.0
342.78,60.0
342.85,75.0
342.91,68.0
342.97,80.0
343.03,76.0
343.1,74.0
343.16,100.0
343.22,90.0
343.29,80.0
343.35,88.0
343.41,89.0
343.48,97.0
343.54,101.0
343.6,70.0
343.66,88.0
343.73,88.0
343.79,69.0
343.85,90.0
343.92,103.0
343.98,106.0
344.04,107.0
344.11,95.0
344.17,112.0
344.23,103.0
344.29,78.0
344.36,102.0
344.42,112.0
344.48,118.0
344.55,114.0
344.61,107.0
344.67,127.0
344.74,99.0
344.8,108.0
344.86,111.0
344.92,94.0
344.99,102.0
345.05,99.0
345.11,116.0
345.18,119.0
345.24,116.0
345.3,135.0
345.37,110.0
345.43,123.0
345.49,106.0
345.55,82.0
345.62,88.0
345.68,107.0
345.74,103.0
345.81,119.0
345.87,111.0
345.93,109.0
346.0,99.0
346.06,100.0
346.12,96.0
346.18,105.0
346.25,115.0
346.31,100.0
346.37,73.0
346.44,89.0
346.5,102.0
346.56,108.0
346.63,108.0
346.69,113.0
346.75,115.0
346.81,94.0
346.88,85.0
346.94,82.0
347.0,82.0
347.07,104.0
347.13,94.0
347.19,80.0
347.26,93.0
347.32,86.0
347.38,93.0
347.44,102.0
347.51,102.0
347.57,102.0
347.63,100.0
347.7,94.0
347.76,69.0
347.82,86.0
347.89,74.0
347.95,57.0
348.01,82.0
348.07,63.0
348.14,38.0
348.2,47.0
348.26,56.0
348.33,49.0
348.39,69.0
348.45,48.0
348.52,64.0
348.58,75.0
348.64,55.0
348.7,60.0
348.77,65.0
348.83,63.0
348.89,71.0
348.96,66.0
349.02,64.0
349.08,75.0
349.15,83.0
349.21,75.0
349.27,69.0
349.33,66.0
349.4,80.0
349.46,80.0
349.52,75.0
349.59,56.0
349.65,82.0
349.71,71.0
349.78,80.0
349.84,94.0
349.9,79.0
349.96,74.0
350.03,76.0
350.09,92.0
350.15,85.0
350.22,91.0
350.28,99.0
350.34,102.0
350.41,111.0
350.47,94.0
350.53,102.0
350.59,102.0
350.66,90.0
350.72,85.0
350.78,81.0
350.85,92.0
350.91,91.0
350.97,87.0
351.04,83.0
351.1,78.0
351.16,84.0
351.22,89.0
351.29,81.0
351.35,70.0
351.41,64.0
351.48,50.0
351.54,55.0
351.6,45.0
351.67,32.0
351.73,36.0
351.79,61.0
351.85,48.0
351.92,59.0
351.98,57.0
352.04,71.0
352.11,67.0
352.17,69.0
352.23,66.0
352.3,63.0
352.36,66.0
352.42,61.0
352.48,64.0
352.55,49.0
352.61,48.0
352.67,50.0
352.74,56.0
352.8,58.0
352.86,66.0
352.93,65.0
352.99,64.0
353.05,68.0
353.11,41.0
353.18,46.0
353.24,63.0
353.3,57.0
353.37,48.0
353.43,47.0
353.49,39.0
353.56,41.0
353.62,30.0
353.68,40.0
353.74,25.0
353.81,22.0
353.87,28.0
353.93,39.0
354.0,52.0
354.06,37.0
354.12,38.0
354.19,34.0
354.25,42.0
354.31,34.0
354.37,39.0
354.44,62.0
354.5,52.0
354.56,53.0
354.63,38.0
354.69,41.0
354.75,50.0
354.82,53.0
354.88,77.0
354.94,70.0
355.0,65.0
355.07,61.0
355.13,68.0
355.19,63.0
355.26,71.0
355.32,80.0
355.38,75.0
355.45,79.0
355.51,71.0
355.57,85.0
355.63,86.0
355.7,79.0
355.76,75.0
355.82,69.0
355.89,80.0
355.95,88.0
356.01,82.0
356.08,88.0
356.14,79.0
356.2,93.0
356.26,82.0
356.33,71.0
356.39,89.0
356.45,94.0
356.52,78.0
356.58,65.0
356.64,71.0
356.71,64.0
356.77,83.0
356.83,91.0
356.89,88.0
356.96,82.0
357.02,72.0
357.08,75.0
357.15,83.0
357.21,69.0
357.27,67.0
357.34,56.0
357.4,56.0
357.46,32.0
357.52,31.0
357.59,57.0
357.65,52.0
357.71,60.0
357.78,60.0
357.84,55.0
357.9,53.0
357.97,61.0
358.03,56.0
358.09,49.0
358.15,53.0
358.22,73.0
358.28,72.0
358.34,85.0
358.41,94.0
358.47,87.0
358.53,110.0
358.6,124.0
358.66,121.0
358.72,119.0
358.78,104.0
358.85,99.0
358.91,113.0
358.97,101.0
359.04,115.0
359.1,106.0
359.16,105.0
359.23,108.0
359.29,107.0
359.35,95.0
359.41,97.0
359.48,105.0
359.54,100.0
359.6,113.0
359.67,82.0
359.73,110.0
359.79,108.0
359.86,115.0
359.92,101.0
359.98,86.0
360.04,122.0
360.11,124.0
360.17,130.0
360.23,124.0
360.3,144.0
360.36,145.0
360.42,138.0
360.49,134.0
360.55,140.0
360.61,149.0
360.67,163.0
360.74,143.0
360.8,156.0
360.86,160.0
360.93,163.0
360.99,152.0
361.05,159.0
361.12,148.0
361.18,133.0
361.24,128.0
361.3,145.0
361.37,163.0
361.43,157.0
361.49,159.0
361.56,152.0
361.62,143.0
361.68,133.0
361.75,132.0
361.81,137.0
361.87,147.0
361.93,147.0
362.0,145.0
362.06,152.0
362.12,152.0
362.19,159.0
362.25,170.0
362.31,152.0
362.38,152.0
362.44,150.0
362.5,163.0
362.56,150.0
362.63,159.0
362.69,162.0
362.75,152.0
362.82,152.0
362.88,140.0
362.94,152.0
363.01,145.0
363.07,145.0
363.13,156.0
363.19,156.0
363.26,137.0
363.32,122.0
363.38,125.0
363.45,136.0
363.51,116.0
363.57,130.0
363.64,134.0
363.7,95.0
363.76,111.0
363.82,121.0
363.89,124.0
363.95,133.0
364.01,120.0
364.08,127.0
364.14,133.0
364.2,135.0
364.27,127.0
364.33,141.0
364.39,152.0
364.45,147.0
364.52,161.0
364.58,168.0
364.64,133.0
364.71,125.0
364.77,130.0
364.83,133.0
364.9,109.0
364.96,101.0
365.02,130.0
365.08,137.0
365.15,120.0
365.21,104.0
365.27,129.0
365.34,114.0
365.4,117.0
365.46,131.0
365.53,119.0
365.59,125.0
365.65,110.0
365.71,117.0
365.78,126.0
365.84,137.0
365.9,144.0
365.97,111.0
366.03,115.0
366.09,116.0
366.16,124.0
366.22,115.0
366.28,118.0
366.34,136.0
366.41,135.0
366.47,124.0
366.53,128.0
366.6,119.0
366.66,113.0
366.72,115.0
366.79,122.0
366.85,136.0
366.91,146.0
366.97,134.0
367.04,140.0
367.1,160.0
367.16,154.0
367.23,140.0
367.29,157.0
367.35,146.0
367.42,148.0
367.48,151.0
367.54,160.0
367.6,146.0
367.67,152.0
367.73,142.0
367.79,145.0
367.86,135.0
367.92,146.0
367.98,158.0
368.05,149.0
368.11,149.0
368.17,151.0
368.23,140.0
368.3,132.0
368.36,134.0
368.42,138.0
368.49,119.0
368.55,130.0
368.61,151.0
368.68,137.0
368.74,136.0
368.8,108.0
368.86,113.0
368.93,138.0
368.99,133.0
369.05,130.0
369.12,127.0
369.18,140.0
369.24,125.0
369.31,144.0
369.37,98.0
369.43,113.0
369.49,105.0
369.56,112.0
369.62,106.0
369.68,93.0
369.75,100.0
369.81,86.0
369.87,104.0
369.94,104.0
370.0,103.0
370.06,124.0
370.12,103.0
370.19,95.0
370.25,108.0
370.31,110.0
370.38,122.0
370.44,120.0
370.5,130.0
370.57,115.0
370.63,151.0
370.69,135.0
370.75,141.0
370.82,135.0
370.88,138.0
370.94,134.0
371.01,118.0
371.07,143.0
371.13,142.0
371.2,138.0
371.26,118.0
371.32,107.0
371.38,111.0
371.45,127.0
371.51,121.0
371.57,137.0
371.64,127.0
371.7,104.0
371.76,73.0
371.83,76.0
371.89,86.0
371.95,101.0
372.01,96.0
372.08,104.0
372.14,86.0
372.2,84.0
372.27,123.0
372.33,108.0
372.39,99.0
372.46,117.0
372.52,106.0
372.58,98.0
372.64,98.0
372.71,105.0
372.77,91.0
372.83,105.0
372.9,102.0
372.96,85.0
373.02,70.0
373.09,99.0
373.15,112.0
373.21,104.0
373.27,86.0
373.34,91.0
373.4,97.0
373.46,88.0
373.53,90.0
373.59,79.0
373.65,77.0
373.72,57.0
373.78,67.0
373.84,54.0
373.9,42.0
373.97,47.0
374.03,49.0
374.09,62.0
374.16,77.0
374.22,71.0
374.28,51.0
374.35,26.0
374.41,55.0
374.47,60.0
374.53,36.0
374.6,45.0
374.66,55.0
374.72,42.0
374.79,71.0
374.85,73.0
374.91,63.0
374.98,61.0
375.04,60.0
375.1,61.0
375.16,58.0
375.23,46.0
375.29,57.0
375.35,55.0
375.42,47.0
375.48,51.0
375.54,58.0
375.61,49.0
375.67,64.0
375.73,68.0
375.79,68.0
375.86,68.0
375.92,75.0
375.98,66.0
376.05,65.0
376.11,51.0
376.17,61.0
376.24,80.0
376.3,82.0
376.36,82.0
376.42,64.0
376.49,61.0
376.55,62.0
376.61,51.0
376.68,54.0
376.74,80.0
376.8,80.0
376.87,70.0
376.93,80.0
376.99,82.0
377.05,83.0
377.12,75.0
377.18,79.0
377.24,86.0
377.31,109.0
377.37,101.0
377.43,97.0
377.5,109.0
377.56,93.0
377.62,101.0
377.68,115.0
377.75,88.0
377.81,78.0
377.87,104.0
377.94,100.0
378.0,102.0
378.06,123.0
378.13,121.0
378.19,130.0
378.25,93.0
378.31,93.0
378.38,107.0
378.44,108.0
378.5,97.0
378.57,88.0
378.63,94.0
378.69,93.0
378.76,82.0
378.82,104.0
378.88,89.0
378.94,91.0
379.01,93.0
379.07,114.0
379.13,109.0
379.2,93.0
379.26,109.0
379.32,101.0
379.39,83.0
379.45,86.0
379.51,96.0
379.57,86.0
379.64,90.0
379.7,67.0
379.76,67.0
379.83,84.0
379.89,71.0
379.95,58.0
380.02,73.0
380.08,85.0
380.14,96.0
380.2,89.0
380.27,96.0
380.33,68.0
380.39,75.0
380.46,90.0
380.52,66.0
380.58,77.0
380.65,95.0
380.71,86.0
380.77,92.0
380.83,99.0
380.9,94.0
380.96,82.0
381.02,89.0
381.09,81.0
381.15,85.0
381.21,79.0
381.28,75.0
381.34,86.0
381.4,79.0
381.46,52.0
381.53,71.0
381.59,64.0
381.65,55.0
381.72,71.0
381.78,66.0
381.84,77.0
381.91,74.0
381.97,63.0
382.03,65.0
382.09,65.0
382.16,73.0
382.22,64.0
382.28,75.0
382.35,73.0
382.41,63.0
382.47,62.0
382.54,64.0
382.6,81.0
382.66,68.0
382.72,77.0
382.79,66.0
382.85,67.0
382.91,75.0
382.98,64.0
383.04,60.0
383.1,75.0
383.17,83.0
383.23,69.0
383.29,68.0
383.35,69.0
383.42,56.0
383.48,57.0
383.54,76.0
383.61,65.0
383.67,71.0
383.73,82.0
383.8,77.0
383.86,97.0
383.92,80.0
383.98,67.0
384.05,104.0
384.11,92.0
384.17,95.0
384.24,85.0
384.3,96.0
384.36,86.0
384.43,82.0
384.49,102.0
384.55,115.0
384.61,120.0
384.68,103.0
384.74,109.0
384.8,132.0
384.87,122.0
384.93,106.0
384.99,109.0
385.06,108.0
385.12,115.0
385.18,119.0
385.24,95.0
385.31,126.0
385.37,139.0
385.43,125.0
385.5,126.0
385.56,126.0
385.62,141.0
385.69,119.0
385.75,104.0
385.81,105.0
385.87,126.0
385.94,128.0
386.0,124.0
386.06,132.0
386.13,115.0
386.19,110.0
386.25,113.0
386.32,81.0
386.38,93.0
386.44,99.0
386.5,108.0
386.57,122.0
386.63,127.0
386.69,110.0
386.76,121.0
386.82,108.0
386.88,105.0
386.95,115.0
387.01,91.0
387.07,99.0
387.13,81.0
387.2,106.0
387.26,81.0
387.32,90.0
387.39,88.0
387.45,85.0
387.51,104.0
387.58,106.0
387.64,98.0
387.7,90.0
387.76,102.0
387.83,107.0
387.89,99.0
387.95,99.0
388.02,115.0
388.08,110.0
388.14,89.0
388.21,95.0
388.27,108.0
388.33,115.0
388.39,119.0
388.46,120.0
388.52,98.0
388.58,95.0
388.65,104.0
388.71,104.0
388.77,101.0
388.84,99.0
388.9,94.0
388.96,101.0
389.02,105.0
389.09,83.0
389.15,97.0
389.21,96.0
389.28,97.0
389.34,104.0
389.4,105.0
389.47,79.0
389.53,83.0
389.59,86.0
389.65,107.0
389.72,108.0
389.78,108.0
389.84,116.0
389.91,93.0
389.97,96.0
390.03,86.0
390.1,88.0
390.16,93.0
390.22,91.0
390.28,105.0
390.35,114.0
390.41,117.0
390.47,115.0
390.54,97.0
390.6,93.0
390.66,85.0
390.73,97.0
390.79,90.0
390.85,97.0
390.91,91.0
390.98,113.0
391.04,102.0
391.1,99.0
391.17,95.0
391.23,80.0
391.29,79.0
391.36,81.0
391.42,85.0
391.48,86.0
391.54,71.0
391.61,68.0
391.67,88.0
391.73,90.0
391.8,95.0
391.86,99.0
391.92,100.0
391.99,85.0
392.05,81.0
392.11,102.0
392.17,102.0
392.24,108.0
392.3,118.0
392.36,91.0
392.43,111.0
392.49,118.0
392.55,87.0
392.62,119.0
392.68,115.0
392.74,115.0
392.8,102.0
392.87,123.0
392.93,104.0
392.99,106.0
393.06,119.0
393.12,115.0
393.18,102.0
393.25,108.0
393.31,115.0
393.37,97.0
393.43,108.0
393.5,91.0
393.56,79.0
393.62,91.0
393.69,101.0
393.75,109.0
393.81,122.0
393.88,130.0
393.94,121.0
394.0,111.0
394.06,115.0
394.13,115.0
394.19,107.0
394.25,111.0
394.32,115.0
394.38,108.0
394.44,104.0
394.51,125.0
394.57,124.0
394.63,125.0
394.69,126.0
394.76,134.0
394.82,112.0
394.88,112.0
394.95,122.0
395.01,134.0
395.07,99.0
395.14,119.0
395.2,128.0
395.26,134.0
395.32,144.0
395.39,125.0
395.45,115.0
395.51,130.0
395.58,118.0
395.64,111.0
395.7,112.0
395.77,120.0
395.83,126.0
395.89,107.0
395.95,92.0
396.02,97.0
396.08,113.0
396.14,122.0
396.21,107.0
396.27,109.0
396.33,108.0
396.4,114.0
396.46,95.0
396.52,91.0
396.58,103.0
396.65,99.0
396.71,93.0
396.77,96.0
396.84,85.0
396.9,83.0
396.96,76.0
397.03,89.0
397.09,74.0
397.15,79.0
397.21,88.0
397.28,66.0
397.34,90.0
397.4,100.0
397.47,71.0
397.53,99.0
397.59,93.0
397.66,63.0
397.72,90.0
397.78,89.0
397.84,75.0
397.91,68.0
397.97,79.0
398.03,104.0
398.1,104.0
398.16,91.0
398.22,92.0
398.29,82.0
398.35,87.0
398.41,75.0
398.47,71.0
398.54,71.0
398.6,75.0
398.66,71.0
398.73,57.0
398.79,59.0
398.85,72.0
398.92,67.0
398.98,56.0
399.04,50.0
399.1,60.0
399.17,73.0
399.23,57.0
399.29,57.0
399.36,46.0
399.42,37.0
399.48,55.0
399.55,65.0
399.61,67.0
399.67,45.0
399.73,51.0
399.8,37.0
399.86,31.0
399.92,19.0
399.99,4.0
400.05,20.0
400.11,24.0
400.18,44.0
400.24,35.0
400.3,16.0
400.36,45.0
400.43,60.0
400.49,57.0
400.55,60.0
400.62,53.0
400.68,56.0
400.74,39.0
400.81,56.0
400.87,53.0
400.93,62.0
400.99,58.0
401.06,75.0
401.12,76.0
401.18,90.0
401.25,81.0
401.31,82.0
401.37,88.0
401.44,89.0
401.5,90.0
401.56,93.0
401.62,75.0
401.69,79.0
401.75,94.0
401.81,86.0
401.88,85.0
401.94,64.0
402.0,71.0
402.07,84.0
402.13,90.0
402.19,103.0
402.25,94.0
402.32,89.0
402.38,89.0
402.44,102.0
402.51,93.0
402.57,82.0
402.63,85.0
402.7,73.0
402.76,83.0
402.82,79.0
402.88,79.0
402.95,64.0
403.01,82.0
403.07,68.0
403.14,58.0
403.2,75.0
403.26,74.0
403.33,80.0
403.39,51.0
403.45,55.0
403.51,63.0
403.58,67.0
403.64,92.0
403.7,93.0
403.77,102.0
403.83,97.0
403.89,96.0
403.96,99.0
404.02,83.0
404.08,74.0
404.14,82.0
404.21,76.0
404.27,76.0
404.33,85.0
404.4,88.0
404.46,92.0
404.52,72.0
404.59,61.0
404.65,84.0
404.71,74.0
404.77,93.0
404.84,94.0
404.9,111.0
404.96,113.0
405.03,106.0
405.09,108.0
405.15,112.0
405.22,114.0
405.28,95.0
405.34,99.0
405.4,84.0
405.47,83.0
405.53,91.0
405.59,60.0
405.66,79.0
405.72,72.0
405.78,67.0
405.85,71.0
405.91,100.0
405.97,82.0
406.03,82.0
406.1,97.0
406.16,86.0
406.22,77.0
406.29,85.0
406.35,95.0
406.41,85.0
406.48,78.0
406.54,82.0
406.6,96.0
406.66,103.0
406.73,106.0
406.79,93.0
406.85,89.0
406.92,86.0
406.98,93.0
407.04,80.0
407.11,73.0
407.17,82.0
407.23,72.0
407.29,60.0
407.36,26.0
407.42,63.0
407.48,71.0
407.55,66.0
407.61,71.0
407.67,67.0
407.74,63.0
407.8,65.0
407.86,75.0
407.92,58.0
407.99,44.0
408.05,61.0
408.11,52.0
408.18,33.0
408.24,47.0
408.3,46.0
408.37,53.0
408.43,58.0
408.49,64.0
408.55,52.0
408.62,72.0
408.68,54.0
408.74,48.0
408.81,48.0
408.87,43.0
408.93,74.0
409.0,40.0
409.06,42.0
409.12,76.0
409.18,58.0
409.25,53.0
409.31,53.0
409.37,73.0
409.44,69.0
409.5,70.0
409.56,67.0
409.63,67.0
409.69,50.0
409.75,39.0
409.81,34.0
409.88,70.0
409.94,69.0
410.0,67.0
410.07,61.0
410.13,51.0
410.19,70.0
410.26,58.0
410.32,64.0
410.38,65.0
410.44,63.0
410.51,79.0
410.57,58.0
410.63,71.0
410.7,96.0
410.76,86.0
410.82,104.0
410.89,105.0
410.95,90.0
411.01,90.0
411.07,87.0
411.14,85.0
411.2,89.0
411.26,101.0
411.33,102.0
411.39,104.0
411.45,92.0
411.52,107.0
411.58,108.0
411.64,109.0
411.7,120.0
411.77,115.0
411.83,115.0
411.89,123.0
411.96,135.0
412.02,127.0
412.08,150.0
412.15,120.0
412.21,124.0
412.27,119.0
412.33,107.0
412.4,104.0
412.46,116.0
412.52,115.0
412.59,108.0
412.65,112.0
412.71,116.0
412.78,134.0
412.84,124.0
412.9,126.0
412.96,116.0
413.03,140.0
413.09,140.0
413.15,134.0
413.22,122.0
413.28,120.0
413.34,111.0
413.41,89.0
413.47,101.0
413.53,118.0
413.59,102.0
413.66,130.0
413.72,105.0
413.78,108.0
413.85,108.0
413.91,134.0
413.97,107.0
414.04,100.0
414.1,119.0
414.16,121.0
414.22,120.0
414.29,117.0
414.35,122.0
414.41,112.0
414.48,118.0
414.54,106.0
414.6,113.0
414.67,116.0
414.73,111.0
414.79,110.0
414.85,112.0
414.92,121.0
414.98,112.0
415.04,109.0
415.11,124.0
415.17,127.0
415.23,122.0
415.3,89.0
415.36,97.0
415.42,100.0
415.48,93.0
415.55,104.0
415.61,97.0
415.67,93.0
415.74,99.0
415.8,78.0
415.86,84.0
415.93,102.0
415.99,110.0
416.05,107.0
416.11,91.0
416.18,85.0
416.24,84.0
416.3,107.0
416.37,97.0
416.43,91.0
416.49,100.0
416.56,125.0
416.62,123.0
416.68,113.0
416.74,112.0
416.81,104.0
416.87,104.0
416.93,119.0
417.0,115.0
417.06,131.0
417.12,131.0
417.19,132.0
417.25,141.0
417.31,139.0
417.37,134.0
417.44,125.0
417.5,145.0
417.56,156.0
417.63,151.0
417.69,155.0
417.75,148.0
417.82,148.0
417.88,149.0
417.94,140.0
418.0,149.0
418.07,152.0
418.13,161.0
418.19,165.0
418.26,164.0
418.32,152.0
418.38,132.0
418.45,118.0
418.51,125.0
418.57,114.0
418.63,118.0
418.7,114.0
418.76,132.0
418.82,132.0
418.89,133.0
418.95,145.0
419.01,139.0
419.08,154.0
419.14,139.0
419.2,151.0
419.26,142.0
419.33,132.0
419.39,155.0
419.45,153.0
419.52,141.0
419.58,154.0
419.64,147.0
419.71,145.0
419.77,157.0
419.83,137.0
419.89,151.0
419.96,163.0
420.02,162.0
420.08,143.0
420.15,137.0
420.21,148.0
420.27,140.0
420.34,129.0
420.4,135.0
420.46,134.0
420.52,140.0
420.59,134.0
420.65,125.0
420.71,132.0
420.78,141.0
420.84,135.0
420.9,137.0
420.97,137.0
421.03,137.0
421.09,135.0
421.15,140.0
421.22,137.0
421.28,133.0
421.34,117.0
421.41,141.0
421.47,139.0
421.53,156.0
421.6,147.0
421.66,151.0
421.72,135.0
421.78,144.0
421.85,149.0
421.91,129.0
421.97,142.0
422.04,140.0
422.1,154.0
422.16,134.0
422.23,149.0
422.29,140.0
422.35,127.0
422.41,138.0
422.48,116.0
422.54,136.0
422.6,130.0
422.67,122.0
422.73,144.0
422.79,129.0
422.86,125.0
422.92,141.0
422.98,131.0
423.04,145.0
423.11,140.0
423.17,133.0
423.23,144.0
423.3,130.0
423.36,143.0
423.42,139.0
423.49,130.0
423.55,137.0
423.61,132.0
423.67,130.0
423.74,104.0
423.8,110.0
423.86,114.0
423.93,104.0
423.99,107.0
424.05,97.0
424.12,101.0
424.18,103.0
424.24,119.0
424.3,105.0
424.37,101.0
424.43,78.0
424.49,85.0
424.56,106.0
424.62,97.0
424.68,102.0
424.75,113.0
424.81,101.0
424.87,87.0
424.93,99.0
425.0,107.0
425.06,108.0
425.12,106.0
425.19,103.0
425.25,123.0
425.31,113.0
425.38,105.0
425.44,129.0
425.5,121.0
425.56,97.0
425.63,111.0
425.69,120.0
425.75,116.0
425.82,96.0
425.88,109.0
425.94,99.0
426.01,108.0
426.07,110.0
426.13,93.0
426.19,82.0
426.26,93.0
426.32,91.0
426.38,97.0
426.45,114.0
426.51,93.0
426.57,102.0
426.64,72.0
426.7,92.0
426.76,108.0
426.82,102.0
426.89,108.0
426.95,123.0
427.01,108.0
427.08,104.0
427.14,101.0
427.2,119.0
427.27,103.0
427.33,113.0
427.39,105.0
427.45,126.0
427.52,129.0
427.58,145.0
427.64,126.0
427.71,124.0
427.77,117.0
427.83,132.0
427.9,144.0
427.96,136.0
428.02,138.0
428.08,128.0
428.15,116.0
428.21,138.0
428.27,140.0
428.34,142.0
428.4,153.0
428.46,149.0
428.53,155.0
428.59,157.0
428.65,172.0
428.71,154.0
428.78,148.0
428.84,148.0
428.9,144.0
428.97,138.0
429.03,127.0
429.09,148.0
429.16,140.0
429.22,138.0
429.28,141.0
429.34,128.0
429.41,114.0
429.47,122.0
429.53,107.0
429.6,93.0
429.66,106.0
429.72,103.0
429.79,108.0
429.85,103.0
429.91,97.0
429.97,107.0
430.04,99.0
430.1,105.0
430.16,132.0
430.23,117.0
430.29,117.0
430.35,115.0
430.42,108.0
430.48,126.0
430.54,110.0
430.6,102.0
430.67,102.0
430.73,112.0
430.79,102.0
430.86,99.0
430.92,94.0
430.98,98.0
431.05,89.0
431.11,96.0
431.17,106.0
431.23,86.0
431.3,99.0
431.36,87.0
431.42,79.0
431.49,80.0
431.55,78.0
431.61,87.0
431.68,83.0
431.74,91.0
431.8,74.0
431.86,82.0
431.93,67.0
431.99,83.0
432.05,97.0
432.12,107.0
432.18,83.0
432.24,77.0
432.31,87.0
432.37,89.0
432.43,58.0
432.49,55.0
432.56,55.0
432.62,64.0
432.68,57.0
432.75,60.0
432.81,66.0
432.87,77.0
432.94,85.0
433.0,63.0
433.06,52.0
433.12,65.0
433.19,64.0
433.25,57.0
433.31,62.0
433.38,71.0
433.44,76.0
433.5,61.0
433.57,64.0
433.63,91.0
433.69,73.0
433.75,60.0
433.82,65.0
433.88,53.0
433.94,71.0
434.01,64.0
434.07,67.0
434.13,65.0
434.2,52.0
434.26,86.0
434.32,68.0
434.38,62.0
434.45,60.0
434.51,66.0
434.57,64.0
434.64,67.0
434.7,75.0
434.76,76.0
434.83,71.0
434.89,64.0
434.95,86.0
435.01,88.0
435.08,64.0
435.14,49.0
435.2,38.0
435.27,59.0
435.33,69.0
435.39,55.0
435.46,57.0
435.52,61.0
435.58,50.0
435.64,53.0
435.71,62.0
435.77,61.0
435.83,66.0
435.9,67.0
435.96,60.0
436.02,70.0
436.09,60.0
436.15,62.0
436.21,51.0
436.27,46.0
436.34,61.0
436.4,65.0
436.46,49.0
436.53,55.0
436.59,68.0
436.65,52.0
436.72,64.0
436.78,60.0
436.84,64.0
436.9,64.0
436.97,71.0
437.03,65.0
437.09,71.0
437.16,68.0
437.22,66.0
437.28,64.0
437.35,72.0
437.41,60.0
437.47,79.0
437.53,78.0
437.6,73.0
437.66,74.0
437.72,67.0
437.79,83.0
437.85,68.0
437.91,82.0
437.98,70.0
438.04,77.0
438.1,66.0
438.16,72.0
438.23,79.0
438.29,66.0
438.35,62.0
438.42,28.0
438.48,57.0
438.54,52.0
438.61,41.0
438.67,51.0
438.73,54.0
438.79,61.0
438.86,40.0
438.92,43.0
438.98,51.0
439.05,46.0
439.11,50.0
439.17,53.0
439.24,75.0
439.3,49.0
439.36,60.0
439.42,69.0
439.49,53.0
439.55,70.0
439.61,73.0
439.68,70.0
439.74,77.0
439.8,84.0
439.87,69.0
439.93,63.0
439.99,71.0
440.05,71.0
440.12,69.0
440.18,67.0
440.24,42.0
440.31,55.0
440.37,70.0
440.43,61.0
440.5,56.0
440.56,82.0
440.62,71.0
440.68,66.0
440.75,54.0
440.81,46.0
440.87,59.0
440.94,52.0
441.0,45.0
441.06,37.0
441.13,7.0
441.19,5.0
441.25,17.0
441.31,21.0
441.38,31.0
441.44,30.0
441.5,28.0
441.57,42.0
441.63,25.0
441.69,43.0
441.76,31.0
441.82,26.0
441.88,20.0
441.94,46.0
442.01,70.0
442.07,72.0
442.13,48.0
442.2,67.0
442.26,77.0
442.32,77.0
442.39,85.0
442.45,73.0
442.51,99.0
442.57,89.0
442.64,84.0
442.7,84.0
442.76,63.0
442.83,97.0
442.89,78.0
442.95,74.0
443.02,81.0
443.08,83.0
443.14,91.0
443.2,108.0
443.27,105.0
443.33,91.0
443.39,108.0
443.46,102.0
443.52,105.0
443.58,107.0
443.65,108.0
443.71,111.0
443.77,123.0
443.83,130.0
443.9,134.0
443.96,131.0
444.02,141.0
444.09,116.0
444.15,121.0
444.21,141.0
444.28,119.0
444.34,133.0
444.4,149.0
444.46,156.0
444.53,146.0
444.59,135.0
444.65,132.0
444.72,140.0
444.78,135.0
444.84,153.0
444.91,152.0
444.97,154.0
445.03,146.0
445.09,147.0
445.16,144.0
445.22,146.0
445.28,154.0
445.35,161.0
445.41,152.0
445.47,146.0
445.54,175.0
445.6,167.0
445.66,148.0
445.72,147.0
445.79,153.0
445.85,153.0
445.91,169.0
445.98,166.0
446.04,161.0
446.1,160.0
446.17,157.0
446.23,149.0
446.29,148.0
446.35,159.0
446.42,135.0
446.48,141.0
446.54,137.0
446.61,141.0
446.67,154.0
446.73,155.0
446.8,160.0
446.86,162.0
446.92,149.0
446.98,133.0
447.05,141.0
447.11,142.0
447.17,135.0
447.24,143.0
447.3,145.0
447.36,141.0
447.43,133.0
447.49,141.0
447.55,152.0
447.61,144.0
447.68,143.0
447.74,149.0
447.8,130.0
447.87,135.0
447.93,133.0
447.99,129.0
448.06,138.0
448.12,138.0
448.18,137.0
448.24,141.0
448.31,141.0
448.37,147.0
448.43,141.0
448.5,126.0
448.56,123.0
448.62,128.0
448.69,120.0
448.75,131.0
448.81,119.0
448.87,100.0
448.94,105.0
449.0,124.0
449.06,108.0
449.13,87.0
449.19,127.0
449.25,124.0
449.32,134.0
449.38,130.0
449.44,119.0
449.5,119.0
449.57,133.0
449.63,133.0
449.69,152.0
449.76,132.0
449.82,127.0
449.88,134.0
449.95,116.0
450.01,119.0
450.07,136.0
450.13,138.0
450.2,124.0
450.26,133.0
450.32,132.0
450.39,115.0
450.45,91.0
450.51,119.0
450.58,118.0
450.64,122.0
450.7,122.0
450.76,118.0
450.83,128.0
450.89,118.0
450.95,92.0
451.02,116.0
451.08,122.0
451.14,104.0
451.21,96.0
451.27,102.0
451.33,105.0
451.39,117.0
451.46,113.0
451.52,100.0
451.58,126.0
451.65,95.0
451.71,105.0
451.77,135.0
451.84,142.0
451.9,134.0
451.96,115.0
452.02,105.0
452.09,111.0
452.15,117.0
452.21,108.0
452.28,109.0
452.34,126.0
452.4,123.0
452.47,103.0
452.53,111.0
452.59,101.0
452.65,136.0
452.72,108.0
452.78,119.0
452.84,101.0
452.91,89.0
452.97,99.0
453.03,96.0
453.1,100.0
453.16,99.0
453.22,100.0
453.28,100.0
453.35,89.0
453.41,110.0
453.47,113.0
453.54,115.0
453.6,125.0
453.66,125.0
453.73,136.0
453.79,108.0
453.85,108.0
453.91,109.0
453.98,117.0
454.04,104.0
454.1,86.0
454.17,80.0
454.23,78.0
454.29,96.0
454.36,87.0
454.42,87.0
454.48,79.0
454.54,82.0
454.61,75.0
454.67,69.0
454.73,66.0
454.8,63.0
454.86,92.0
454.92,69.0
454.99,87.0
455.05,104.0
455.11,94.0
455.17,80.0
455.24,80.0
455.3,83.0
455.36,82.0
455.43,72.0
455.49,59.0
455.55,100.0
455.62,74.0
455.68,89.0
455.74,95.0
455.8,67.0
455.87,95.0
455.93,75.0
455.99,93.0
456.06,111.0
456.12,86.0
456.18,82.0
456.25,71.0
456.31,105.0
456.37,77.0
456.43,75.0
456.5,77.0
456.56,88.0
456.62,95.0
456.69,98.0
456.75,95.0
456.81,72.0
456.88,92.0
456.94,99.0
457.0,80.0
457.06,99.0
457.13,111.0
457.19,88.0
457.25,65.0
457.32,81.0
457.38,86.0
457.44,60.0
457.51,57.0
457.57,65.0
457.63,73.0
457.69,51.0
457.76,43.0
457.82,46.0
457.88,42.0
457.95,60.0
458.01,46.0
458.07,34.0
458.14,33.0
458.2,41.0
458.26,33.0
458.32,35.0
458.39,49.0
458.45,39.0
458.51,44.0
458.58,22.0
458.64,34.0
458.7,29.0
458.77,30.0
458.83,33.0
458.89,33.0
458.95,22.0
459.02,37.0
459.08,40.0
459.14,50.0
459.21,24.0
459.27,34.0
459.33,41.0
459.4,49.0
459.46,55.0
459.52,41.0
459.58,41.0
459.65,38.0
459.71,45.0
459.77,41.0
459.84,43.0
459.9,22.0
459.96,41.0
460.03,57.0
460.09,46.0
460.15,50.0
460.21,59.0
460.28,47.0
460.34,46.0
460.4,44.0
460.47,55.0
460.53,61.0
460.59,66.0
460.66,77.0
460.72,70.0
460.78,52.0
460.84,67.0
460.91,62.0
460.97,67.0
461.03,58.0
461.1,59.0
461.16,67.0
461.22,54.0
461.29,75.0
461.35,89.0
461.41,119.0
461.47,107.0
461.54,115.0
461.6,107.0
461.66,100.0
461.73,129.0
461.79,118.0
461.85,115.0
461.92,120.0
461.98,141.0
462.04,130.0
462.1,119.0
462.17,129.0
462.23,126.0
462.29,129.0
462.36,130.0
462.42,132.0
462.48,136.0
462.55,141.0
462.61,117.0
462.67,112.0
462.73,123.0
462.8,132.0
462.86,126.0
462.92,126.0
462.99,106.0
463.05,143.0
463.11,119.0
463.18,114.0
463.24,114.0
463.3,139.0
463.36,141.0
463.43,140.0
463.49,142.0
463.55,141.0
463.62,115.0
463.68,139.0
463.74,130.0
463.81,120.0
463.87,110.0
463.93,110.0
463.99,119.0
464.06,116.0
464.12,130.0
464.18,131.0
464.25,133.0
464.31,128.0
464.37,132.0
464.44,129.0
464.5,133.0
464.56,153.0
464.62,133.0
464.69,141.0
464.75,134.0
464.81,124.0
464.88,130.0
464.94,105.0
465.0,104.0
465.07,112.0
465.13,103.0
465.19,115.0
465.25,100.0
465.32,83.0
465.38,85.0
465.44,78.0
465.51,95.0
465.57,98.0
465.63,91.0
465.7,86.0
465.76,91.0
465.82,82.0
465.88,75.0
465.95,80.0
466.01,88.0
466.07,75.0
466.14,78.0
466.2,71.0
466.26,71.0
466.33,90.0
466.39,68.0
466.45,71.0
466.51,75.0
466.58,87.0
466.64,87.0
466.7,68.0
466.77,57.0
466.83,69.0
466.89,90.0
466.96,67.0
467.02,78.0
467.08,79.0
467.14,81.0
467.21,89.0
467.27,101.0
467.33,91.0
467.4,81.0
467.46,110.0
467.52,88.0
467.59,81.0
467.65,92.0
467.71,91.0
467.77,86.0
467.84,99.0
467.9,97.0
467.96,107.0
468.03,88.0
468.09,111.0
468.15,111.0
468.22,108.0
468.28,104.0
468.34,90.0
468.4,93.0
468.47,85.0
468.53,91.0
468.59,99.0
468.66,115.0
468.72,105.0
468.78,102.0
468.85,101.0
468.91,101.0
468.97,120.0
469.03,109.0
469.1,94.0
469.16,93.0
469.22,92.0
469.29,111.0
469.35,100.0
469.41,133.0
469.48,141.0
469.54,135.0
469.6,121.0
469.66,131.0
469.73,153.0
469.79,148.0
469.85,146.0
469.92,146.0
469.98,124.0
470.04,144.0
470.11,157.0
470.17,150.0
470.23,164.0
470.29,147.0
470.36,147.0
470.42,134.0
470.48,133.0
470.55,158.0
470.61,152.0
470.67,145.0
470.74,155.0
470.8,133.0
470.86,147.0
470.92,146.0
470.99,146.0
471.05,156.0
471.11,139.0
471.18,157.0
471.24,170.0
471.3,187.0
471.37,178.0
471.43,161.0
471.49,173.0
471.55,154.0
471.62,174.0
471.68,162.0
471.74,152.0
471.81,156.0
471.87,153.0
471.93,133.0
472.0,156.0
472.06,155.0
472.12,162.0
472.18,163.0
472.25,141.0
472.31,147.0
472.37,152.0
472.44,159.0
472.5,152.0
472.56,129.0
472.63,145.0
472.69,140.0
472.75,125.0
472.81,133.0
472.88,120.0
472.94,135.0
473.0,137.0
473.07,124.0
473.13,113.0
473.19,119.0
473.26,126.0
473.32,140.0
473.38,119.0
473.44,135.0
473.51,145.0
473.57,126.0
473.63,126.0
473.7,138.0
473.76,139.0
473.82,143.0
473.89,152.0
473.95,141.0
474.01,108.0
474.07,105.0
474.14,107.0
474.2,108.0
474.26,101.0
474.33,101.0
474.39,102.0
474.45,104.0
474.52,88.0
474.58,93.0
474.64,100.0
474.7,91.0
474.77,92.0
474.83,55.0
474.89,46.0
474.96,43.0
475.02,60.0
475.08,57.0
475.15,70.0
475.21,77.0
475.27,79.0
475.33,80.0
475.4,70.0
475.46,64.0
475.52,77.0
475.59,45.0
475.65,44.0
475.71,53.0
475.78,71.0
475.84,91.0
475.9,77.0
475.96,72.0
476.03,84.0
476.09,90.0
476.15,83.0
476.22,97.0
476.28,91.0
476.34,102.0
476.41,105.0
476.47,90.0
476.53,105.0
476.59,78.0
476.66,88.0
476.72,107.0
476.78,93.0
476.85,105.0
476.91,111.0
476.97,114.0
477.04,101.0
477.1,105.0
477.16,97.0
477.22,99.0
477.29,81.0
477.35,69.0
477.41,88.0
477.48,76.0
477.54,79.0
477.6,90.0
477.67,97.0
477.73,124.0
477.79,90.0
477.85,96.0
477.92,85.0
477.98,102.0
478.04,85.0
478.11,100.0
478.17,101.0
478.23,92.0
478.3,114.0
478.36,122.0
478.42,122.0
478.48,107.0
478.55,124.0
478.61,145.0
478.67,152.0
478.74,162.0
478.8,155.0
478.86,145.0
478.93,157.0
478.99,170.0
479.05,151.0
479.11,151.0
479.18,171.0
479.24,163.0
479.3,161.0
479.37,151.0
479.43,145.0
479.49,153.0
479.56,162.0
479.62,190.0
479.68,187.0
479.74,167.0
479.81,151.0
479.87,157.0
479.93,144.0
480.0,150.0
480.06,161.0
480.12,139.0
480.19,138.0
480.25,130.0
480.31,119.0
480.37,129.0
480.44,132.0
480.5,134.0
480.56,122.0
480.63,122.0
480.69,145.0
480.75,159.0
480.82,162.0
480.88,166.0
480.94,144.0
481.0,140.0
481.07,141.0
481.13,144.0
481.19,130.0
481.26,125.0
481.32,134.0
481.38,119.0
481.45,126.0
481.51,140.0
481.57,131.0
481.63,92.0
481.7,117.0
481.76,115.0
481.82,111.0
481.89,116.0
481.95,108.0
482.01,111.0
482.08,137.0
482.14,137.0
482.2,114.0
482.26,129.0
482.33,153.0
482.39,140.0
482.45,152.0
482.52,143.0
482.58,130.0
482.64,109.0
482.71,105.0
482.77,133.0
482.83,119.0
482.89,110.0
482.96,117.0
483.02,121.0
483.08,129.0
483.15,128.0
483.21,113.0
483.27,96.0
483.34,92.0
483.4,111.0
483.46,86.0
483.52,97.0
483.59,99.0
483.65,84.0
483.71,82.0
483.78,77.0
483.84,108.0
483.9,99.0
483.97,96.0
484.03,78.0
484.09,61.0
484.15,67.0
484.22,61.0
484.28,83.0
484.34,63.0
484.41,88.0
484.47,81.0
484.53,82.0
484.6,72.0
484.66,64.0
484.72,82.0
484.78,77.0
484.85,74.0
484.91,94.0
484.97,89.0
485.04,80.0
485.1,60.0
485.16,58.0
485.23,62.0
485.29,70.0
485.35,73.0
485.41,78.0
485.48,66.0
485.54,80.0
485.6,84.0
485.67,87.0
485.73,73.0
485.79,73.0
485.86,70.0
485.92,74.0
485.98,90.0
486.04,74.0
486.11,63.0
486.17,67.0
486.23,75.0
486.3,52.0
486.36,71.0
486.42,67.0
486.49,67.0
486.55,53.0
486.61,61.0
486.67,73.0
486.74,78.0
486.8,64.0
486.86,60.0
486.93,81.0
486.99,80.0
487.05,88.0
487.12,69.0
487.18,80.0
487.24,75.0
487.3,64.0
487.37,50.0
487.43,51.0
487.49,75.0
487.56,79.0
487.62,72.0
487.68,74.0
487.75,83.0
487.81,76.0
487.87,86.0
487.93,77.0
488.0,81.0
488.06,87.0
488.12,65.0
488.19,78.0
488.25,82.0
488.31,74.0
488.38,81.0
488.44,63.0
488.5,70.0
488.56,59.0
488.63,66.0
488.69,56.0
488.75,37.0
488.82,51.0
488.88,67.0
488.94,70.0
489.01,65.0
489.07,69.0
489.13,66.0
489.19,70.0
489.26,71.0
489.32,58.0
489.38,41.0
489.45,47.0
489.51,53.0
489.57,57.0
489.64,79.0
489.7,49.0
489.76,59.0
489.82,64.0
489.89,78.0
489.95,82.0
490.01,86.0
490.08,77.0
490.14,52.0
490.2,56.0
490.27,48.0
490.33,48.0
490.39,49.0
490.45,39.0
490.52,57.0
490.58,56.0
490.64,62.0
490.71,63.0
490.77,67.0
490.83,61.0
490.9,46.0
490.96,39.0
491.02,41.0
491.08,35.0
491.15,34.0
491.21,39.0
491.27,47.0
491.34,44.0
491.4,28.0
491.46,35.0
491.53,16.0
491.59,19.0
491.65,20.0
491.71,27.0
491.78,20.0
491.84,20.0
491.9,10.0
491.97,17.0
492.03,30.0
492.09,11.0
492.16,14.0
492.22,11.0
492.28,13.0
492.34,30.0
492.41,21.0
492.47,19.0
492.53,14.0
492.6,-5.0
492.66,30.0
492.72,35.0
492.79,45.0
492.85,35.0
492.91,32.0
492.97,24.0
493.04,53.0
493.1,46.0
493.16,41.0
493.23,42.0
493.29,42.0
493.35,54.0
493.42,52.0
493.48,33.0
493.54,61.0
493.6,49.0
493.67,65.0
493.73,66.0
493.79,61.0
493.86,67.0
493.92,72.0
493.98,86.0
494.05,63.0
494.11,73.0
494.17,65.0
494.23,66.0
494.3,75.0
494.36,76.0
494.42,61.0
494.49,86.0
494.55,103.0
494.61,88.0
494.68,82.0
494.74,71.0
494.8,101.0
494.86,108.0
494.93,110.0
494.99,105.0
495.05,112.0
495.12,115.0
495.18,104.0
495.24,130.0
495.31,132.0
495.37,134.0
495.43,133.0
495.49,123.0
495.56,121.0
495.62,141.0
495.68,136.0
495.75,141.0
495.81,123.0
495.87,133.0
495.94,132.0
496.0,140.0
496.06,137.0
496.12,138.0
496.19,135.0
496.25,129.0
496.31,135.0
496.38,108.0
496.44,120.0
496.5,114.0
496.57,113.0
496.63,108.0
496.69,105.0
496.75,113.0
496.82,108.0
496.88,108.0
496.94,121.0
497.01,109.0
497.07,111.0
497.13,103.0
497.2,101.0
497.26,112.0
497.32,126.0
497.38,145.0
497.45,142.0
497.51,131.0
497.57,129.0
497.64,129.0
497.7,124.0
497.76,118.0
497.83,144.0
497.89,147.0
497.95,154.0
498.01,148.0
498.08,140.0
498.14,170.0
498.2,148.0
498.27,148.0
498.33,134.0
498.39,124.0
498.46,125.0
498.52,134.0
498.58,143.0
498.64,133.0
498.71,132.0
498.77,126.0
498.83,133.0
498.9,147.0
498.96,144.0
499.02,131.0
499.09,128.0
499.15,144.0
499.21,130.0
499.27,118.0
499.34,129.0
499.4,153.0
499.46,147.0
499.53,136.0
499.59,126.0
499.65,122.0
499.72,135.0
499.78,121.0
499.84,152.0
499.9,136.0
499.97,133.0
500.03,137.0
500.09,135.0
500.16,127.0
500.22,144.0
500.28,146.0
500.35,132.0
500.41,141.0
500.47,143.0
500.53,113.0
500.6,130.0
500.66,120.0
500.72,103.0
500.79,115.0
500.85,101.0
500.91,131.0
500.98,124.0
501.04,117.0
501.1,123.0
501.16,124.0
501.23,129.0
501.29,136.0
501.35,119.0
501.42,122.0
501.48,145.0
501.54,143.0
501.61,148.0
501.67,159.0
501.73,155.0
501.79,149.0
501.86,127.0
501.92,144.0
501.98,143.0
502.05,136.0
502.11,136.0
502.17,145.0
502.24,159.0
502.3,169.0
502.36,144.0
502.42,138.0
502.49,158.0
502.55,141.0
502.61,146.0
502.68,147.0
502.74,146.0
502.8,137.0
502.87,133.0
502.93,138.0
502.99,130.0
503.05,129.0
503.12,126.0
503.18,143.0
503.24,129.0
503.31,133.0
503.37,141.0
503.43,140.0
503.5,150.0
503.56,133.0
503.62,122.0
503.68,138.0
503.75,154.0
503.81,138.0
503.87,136.0
503.94,143.0
504.0,146.0
504.06,131.0
504.13,131.0
504.19,136.0
504.25,121.0
504.31,139.0
504.38,119.0
504.44,121.0
504.5,124.0
504.57,128.0
504.63,125.0
504.69,110.0
504.76,133.0
504.82,115.0
504.88,87.0
504.94,108.0
505.01,106.0
505.07,97.0
505.13,75.0
505.2,78.0
505.26,121.0
505.32,101.0
505.39,105.0
505.45,97.0
505.51,117.0
505.57,108.0
505.64,108.0
505.7,99.0
505.76,105.0
505.83,98.0
505.89,87.0
505.95,91.0
506.02,95.0
506.08,96.0
506.14,80.0
506.2,97.0
506.27,105.0
506.33,96.0
506.39,102.0
506.46,93.0
506.52,92.0
506.58,95.0
506.65,100.0
506.71,100.0
506.77,81.0
506.83,78.0
506.9,83.0
506.96,96.0
507.02,64.0
507.09,90.0
507.15,88.0
507.21,96.0
507.28,104.0
507.34,75.0
507.4,80.0
507.46,82.0
507.53,60.0
507.59,67.0
507.65,65.0
507.72,71.0
507.78,63.0
507.84,73.0
507.91,90.0
507.97,63.0
508.03,51.0
508.09,53.0
508.16,66.0
508.22,64.0
508.28,56.0
508.35,38.0
508.41,55.0
508.47,57.0
508.54,71.0
508.6,85.0
508.66,70.0
508.72,63.0
508.79,66.0
508.85,68.0
508.91,41.0
508.98,44.0
509.04,49.0
509.1,38.0
509.17,44.0
509.23,67.0
509.29,52.0
509.35,52.0
509.42,49.0
509.48,52.0
509.54,64.0
509.61,55.0
509.67,37.0
509.73,56.0
509.8,77.0
509.86,55.0
509.92,70.0
509.98,68.0
510.05,63.0
510.11,62.0
510.17,77.0
510.24,86.0
510.3,70.0
510.36,71.0
510.43,87.0
510.49,51.0
510.55,56.0
510.61,76.0
510.68,58.0
510.74,62.0
510.8,55.0
510.87,94.0
510.93,97.0
510.99,76.0
511.06,82.0
511.12,65.0
511.18,71.0
511.24,80.0
511.31,59.0
511.37,70.0
511.43,78.0
511.5,63.0
511.56,47.0
511.62,52.0
511.69,35.0
511.75,42.0
511.81,52.0
511.87,60.0
511.94,50.0
512.0,33.0
512.06,55.0
512.13,57.0
512.19,58.0
512.25,74.0
512.32,74.0
512.38,77.0
512.44,85.0
512.5,77.0
512.57,54.0
512.63,56.0
512.69,77.0
512.76,76.0
512.82,78.0
512.88,88.0
512.95,85.0
513.01,81.0
513.07,77.0
513.13,72.0
513.2,88.0
513.26,72.0
513.32,71.0
513.39,87.0
513.45,82.0
513.51,74.0
513.58,86.0
513.64,80.0
513.7,71.0
513.76,87.0
513.83,114.0
513.89,109.0
513.95,75.0
514.02,83.0
514.08,98.0
514.14,86.0
514.21,95.0
514.27,96.0
514.33,94.0
514.39,90.0
514.46,90.0
514.52,90.0
514.58,93.0
514.65,82.0
514.71,91.0
514.77,89.0
514.84,86.0
514.9,96.0
514.96,91.0
515.02,84.0
515.09,103.0
515.15,88.0
515.21,87.0
515.28,98.0
515.34,94.0
515.4,97.0
515.47,75.0
515.53,67.0
515.59,84.0
515.65,79.0
515.72,81.0
515.78,73.0
515.84,64.0
515.91,59.0
515.97,80.0
516.03,80.0
516.1,69.0
516.16,76.0
516.22,65.0
516.28,71.0
516.35,62.0
516.41,47.0
516.47,63.0
516.54,64.0
516.6,57.0
516.66,68.0
516.73,58.0
516.79,69.0
516.85,61.0
516.91,57.0
516.98,77.0
517.04,73.0
517.1,68.0
517.17,77.0
517.23,104.0
517.29,87.0
517.36,76.0
517.42,78.0
517.48,70.0
517.54,78.0
517.61,53.0
517.67,63.0
517.73,68.0
517.8,56.0
517.86,60.0
517.92,74.0
517.99,75.0
518.05,69.0
518.11,71.0
518.17,61.0
518.24,62.0
518.3,70.0
518.36,52.0
518.43,45.0
518.49,54.0
518.55,36.0
518.62,44.0
518.68,34.0
518.74,56.0
518.8,66.0
518.87,62.0
518.93,60.0
518.99,54.0
519.06,51.0
519.12,78.0
519.18,69.0
519.25,67.0
519.31,55.0
519.37,76.0
519.43,86.0
519.5,78.0
519.56,73.0
519.62,64.0
519.69,69.0
519.75,67.0
519.81,81.0
519.88,60.0
519.94,62.0
520.0,85.0
520.06,77.0
520.13,85.0
520.19,106.0
520.25,91.0
520.32,94.0
520.38,92.0
520.44,79.0
520.51,91.0
520.57,95.0
520.63,85.0
520.69,79.0
520.76,94.0
520.82,92.0
520.88,106.0
520.95,118.0
521.01,118.0
521.07,133.0
521.14,124.0
521.2,122.0
521.26,115.0
521.32,133.0
521.39,115.0
521.45,141.0
521.51,125.0
521.58,111.0
521.64,126.0
521.7,123.0
521.77,133.0
521.83,135.0
521.89,119.0
521.95,111.0
522.02,102.0
522.08,109.0
522.14,104.0
522.21,122.0
522.27,130.0
522.33,120.0
522.4,107.0
522.46,130.0
522.52,132.0
522.58,116.0
522.65,122.0
522.71,125.0
522.77,122.0
522.84,121.0
522.9,99.0
522.96,119.0
523.03,125.0
523.09,116.0
523.15,115.0
523.21,129.0
523.28,132.0
523.34,117.0
523.4,152.0
523.47,146.0
523.53,135.0
523.59,117.0
523.66,134.0
523.72,136.0
523.78,135.0
523.84,137.0
523.91,142.0
523.97,139.0
524.03,141.0
524.1,144.0
524.16,135.0
524.22,154.0
524.29,147.0
524.35,144.0
524.41,123.0
524.47,104.0
524.54,97.0
524.6,111.0
524.66,114.0
524.73,119.0
524.79,130.0
524.85,97.0
524.92,107.0
524.98,106.0
525.04,96.0
525.1,108.0
525.17,115.0
525.23,129.0
525.29,111.0
525.36,122.0
525.42,132.0
525.48,111.0
525.55,114.0
525.61,127.0
525.67,125.0
525.73,111.0
525.8,138.0
525.86,125.0
525.92,109.0
525.99,115.0
526.05,131.0
526.11,122.0
526.18,129.0
526.24,148.0
526.3,149.0
526.36,137.0
526.43,129.0
526.49,127.0
526.55,130.0
526.62,132.0
526.68,146.0
526.74,136.0
526.81,162.0
526.87,152.0
526.93,141.0
526.99,151.0
527.06,147.0
527.12,155.0
527.18,156.0
527.25,157.0
527.31,151.0
527.37,168.0
527.44,171.0
527.5,165.0
527.56,146.0
527.62,140.0
527.69,151.0
527.75,169.0
527.81,167.0
527.88,162.0
527.94,157.0
528.0,155.0
528.07,157.0
528.13,134.0
528.19,141.0
528.25,173.0
528.32,168.0
528.38,157.0
528.44,123.0
528.51,150.0
528.57,128.0
528.63,132.0
528.7,130.0
528.76,121.0
528.82,159.0
528.88,135.0
528.95,123.0
529.01,100.0
529.07,115.0
529.14,102.0
529.2,101.0
529.26,134.0
529.33,123.0
529.39,144.0
529.45,123.0
529.51,128.0
529.58,158.0
529.64,156.0
529.7,129.0
529.77,126.0
529.83,145.0
529.89,144.0
529.96,149.0
530.02,129.0
530.08,136.0
530.14,170.0
530.21,148.0
530.27,169.0
530.33,144.0
530.4,146.0
530.46,139.0
530.52,130.0
530.59,140.0
530.65,146.0
530.71,141.0
530.77,147.0
530.84,151.0
530.9,122.0
530.96,109.0
531.03,115.0
531.09,111.0
531.15,113.0
531.22,106.0
531.28,105.0
531.34,126.0
531.4,122.0
531.47,111.0
531.53,101.0
531.59,131.0
531.66,143.0
531.72,103.0
531.78,102.0
531.85,117.0
531.91,118.0
531.97,122.0
532.03,132.0
532.1,135.0
532.16,145.0
532.22,135.0
532.29,115.0
532.35,129.0
532.41,129.0
532.48,137.0
532.54,128.0
532.6,144.0
532.66,144.0
532.73,143.0
532.79,129.0
532.85,139.0
532.92,129.0
532.98,120.0
533.04,112.0
533.11,96.0
533.17,99.0
533.23,97.0
533.29,118.0
533.36,99.0
533.42,96.0
533.48,91.0
533.55,101.0
533.61,85.0
533.67,85.0
533.74,90.0
533.8,65.0
533.86,66.0
533.92,75.0
533.99,75.0
534.05,75.0
534.11,82.0
534.18,97.0
534.24,85.0
534.3,73.0
534.37,104.0
534.43,96.0
534.49,97.0
534.55,83.0
534.62,97.0
534.68,98.0
534.74,89.0
534.81,111.0
534.87,84.0
534.93,85.0
535.0,96.0
535.06,83.0
535.12,86.0
535.18,89.0
535.25,81.0
535.31,74.0
535.37,74.0
535.44,87.0
535.5,82.0
535.56,49.0
535.63,59.0
535.69,52.0
535.75,50.0
535.81,65.0
535.88,76.0
535.94,67.0
536.0,74.0
536.07,47.0
536.13,71.0
536.19,52.0
536.26,57.0
536.32,68.0
536.38,73.0
536.44,82.0
536.51,75.0
536.57,72.0
536.63,81.0
536.7,77.0
536.76,75.0
536.82,67.0
536.89,80.0
536.95,59.0
537.01,52.0
537.07,58.0
537.14,79.0
537.2,55.0
537.26,52.0
537.33,51.0
537.39,58.0
537.45,74.0
537.52,80.0
537.58,76.0
537.64,65.0
537.7,66.0
537.77,64.0
537.83,54.0
537.89,60.0
537.96,57.0
538.02,45.0
538.08,35.0
538.15,54.0
538.21,45.0
538.27,44.0
538.33,48.0
538.4,52.0
538.46,41.0
538.52,35.0
538.59,34.0
538.65,22.0
538.71,30.0
538.78,35.0
538.84,47.0
538.9,32.0
538.96,38.0
539.03,19.0
539.09,32.0
539.15,29.0
539.22,24.0
539.28,48.0
539.34,58.0
539.41,49.0
539.47,57.0
539.53,51.0
539.59,46.0
539.66,41.0
539.72,73.0
539.78,55.0
539.85,53.0
539.91,54.0
539.97,63.0
540.04,80.0
540.1,70.0
540.16,63.0
540.22,58.0
540.29,75.0
540.35,78.0
540.41,63.0
540.48,60.0
540.54,64.0
540.6,82.0
540.67,94.0
540.73,97.0
540.79,104.0
540.85,81.0
540.92,66.0
540.98,60.0
541.04,65.0
541.11,47.0
541.17,53.0
541.23,58.0
541.3,48.0
541.36,50.0
541.42,44.0
541.48,43.0
541.55,28.0
541.61,37.0
541.67,34.0
541.74,39.0
541.8,41.0
541.86,41.0
541.93,41.0
541.99,29.0
542.05,46.0
542.11,34.0
542.18,41.0
542.24,34.0
542.3,49.0
542.37,53.0
542.43,45.0
542.49,46.0
542.56,43.0
542.62,42.0
542.68,47.0
542.74,49.0
542.81,37.0
542.87,45.0
542.93,45.0
543.0,51.0
543.06,31.0
543.12,47.0
543.19,47.0
543.25,52.0
543.31,49.0
543.37,50.0
543.44,50.0
543.5,65.0
543.56,56.0
543.63,53.0
543.69,54.0
543.75,58.0
543.82,61.0
543.88,73.0
543.94,34.0
544.0,47.0
544.07,41.0
544.13,52.0
544.19,54.0
544.26,56.0
544.32,68.0
544.38,44.0
544.45,63.0
544.51,75.0
544.57,70.0
544.63,85.0
544.7,89.0
544.76,85.0
544.82,79.0
544.89,83.0
544.95,84.0
545.01,90.0
545.08,77.0
545.14,89.0
545.2,100.0
545.26,84.0
545.33,96.0
545.39,92.0
545.45,106.0
545.52,113.0
545.58,123.0
545.64,121.0
545.71,129.0
545.77,127.0
545.83,135.0
545.89,143.0
545.96,135.0
546.02,134.0
546.08,126.0
546.15,137.0
546.21,141.0
546.27,143.0
546.34,125.0
546.4,117.0
546.46,118.0
546.52,119.0
546.59,127.0
546.65,134.0
546.71,138.0
546.78,129.0
546.84,134.0
546.9,112.0
546.97,119.0
547.03,118.0
547.09,107.0
547.15,113.0
547.22,100.0
547.28,97.0
547.34,96.0
547.41,96.0
547.47,102.0
547.53,75.0
547.6,69.0
547.66,85.0
547.72,77.0
547.78,71.0
547.85,86.0
547.91,85.0
547.97,106.0
548.04,93.0
548.1,96.0
548.16,103.0
548.23,93.0
548.29,108.0
548.35,107.0
548.41,126.0
548.48,109.0
548.54,111.0
548.6,106.0
548.67,106.0
548.73,107.0
548.79,89.0
548.86,97.0
548.92,104.0
548.98,112.0
549.04,115.0
549.11,121.0
549.17,110.0
549.23,142.0
549.3,139.0
549.36,128.0
549.42,143.0
549.49,133.0
549.55,118.0
549.61,128.0
549.67,124.0
549.74,126.0
549.8,132.0
549.86,125.0
549.93,119.0
549.99,120.0
550.05,115.0
550.12,105.0
550.18,99.0
550.24,113.0
550.3,122.0
550.37,104.0
550.43,118.0
550.49,111.0
550.56,136.0
550.62,133.0
550.68,126.0
550.75,129.0
550.81,135.0
550.87,125.0
550.93,122.0
551.0,121.0
551.06,123.0
551.12,133.0
551.19,118.0
551.25,122.0
551.31,132.0
551.38,129.0
551.44,130.0
551.5,115.0
551.56,147.0
551.63,124.0
551.69,129.0
551.75,131.0
551.82,128.0
551.88,126.0
551.94,133.0
552.01,127.0
552.07,124.0
552.13,104.0
552.19,126.0
552.26,129.0
552.32,145.0
552.38,142.0
552.45,148.0
552.51,150.0
552.57,147.0
552.64,135.0
552.7,143.0
552.76,140.0
552.82,149.0
552.89,145.0
552.95,152.0
553.01,158.0
553.08,162.0
553.14,169.0
553.2,155.0
553.27,144.0
553.33,162.0
553.39,168.0
553.45,169.0
553.52,155.0
553.58,168.0
553.64,165.0
553.71,144.0
553.77,138.0
553.83,171.0
553.9,168.0
553.96,162.0
554.02,148.0
554.08,123.0
554.15,136.0
554.21,153.0
554.27,143.0
554.34,125.0
554.4,119.0
554.46,133.0
554.53,127.0
554.59,133.0
554.65,115.0
554.71,116.0
554.78,125.0
554.84,125.0
554.9,115.0
554.97,126.0
555.03,123.0
555.09,108.0
555.16,108.0
555.22,92.0
555.28,138.0
555.34,130.0
555.41,130.0
555.47,133.0
555.53,122.0
555.6,135.0
555.66,118.0
555.72,118.0
555.79,143.0
555.85,132.0
555.91,156.0
555.97,140.0
556.04,151.0
556.1,138.0
556.16,132.0
556.23,129.0
556.29,125.0
556.35,122.0
556.42,124.0
556.48,129.0
556.54,129.0
556.6,140.0
556.67,96.0
556.73,120.0
556.79,96.0
556.86,102.0
556.92,105.0
556.98,110.0
557.05,123.0
557.11,111.0
557.17,118.0
557.23,99.0
557.3,110.0
557.36,115.0
557.42,109.0
557.49,127.0
557.55,105.0
557.61,105.0
557.68,116.0
557.74,110.0
557.8,97.0
557.86,80.0
557.93,107.0
557.99,85.0
558.05,71.0
558.12,82.0
558.18,81.0
558.24,80.0
558.31,74.0
558.37,76.0
558.43,65.0
558.49,52.0
558.56,67.0
558.62,61.0
558.68,47.0
558.75,40.0
558.81,56.0
558.87,61.0
558.94,59.0
559.0,78.0
559.06,57.0
559.12,68.0
559.19,67.0
559.25,61.0
559.31,63.0
559.38,57.0
559.44,51.0
559.5,71.0
559.57,70.0
559.63,61.0
559.69,66.0
559.75,74.0
559.82,61.0
559.88,42.0
559.94,47.0
560.01,51.0
560.07,44.0
560.13,67.0
560.2,44.0
560.26,24.0
560.32,41.0
560.38,53.0
560.45,46.0
560.51,56.0
560.57,53.0
560.64,55.0
560.7,52.0
560.76,63.0
560.83,61.0
560.89,48.0
560.95,59.0
561.01,53.0
561.08,63.0
561.14,75.0
561.2,63.0
561.27,68.0
561.33,75.0
561.39,62.0
561.46,79.0
561.52,72.0
561.58,72.0
561.64,82.0
561.71,88.0
561.77,90.0
561.83,72.0
561.9,80.0
561.96,96.0
562.02,75.0
562.09,80.0
562.15,72.0
562.21,81.0
562.27,63.0
562.34,63.0
562.4,97.0
562.46,50.0
562.53,40.0
562.59,53.0
562.65,32.0
562.72,64.0
562.78,59.0
562.84,71.0
562.9,59.0
562.97,63.0
563.03,54.0
563.09,50.0
563.16,88.0
563.22,71.0
563.28,72.0
563.35,93.0
563.41,78.0
563.47,77.0
563.53,74.0
563.6,68.0
563.66,58.0
563.72,75.0
563.79,66.0
563.85,79.0
563.91,77.0
563.98,73.0
564.04,90.0
564.1,110.0
564.16,110.0
564.23,100.0
564.29,91.0
564.35,77.0
564.42,72.0
564.48,83.0
564.54,91.0
564.61,105.0
564.67,72.0
564.73,109.0
564.79,105.0
564.86,118.0
564.92,100.0
564.98,92.0
565.05,89.0
565.11,89.0
565.17,94.0
565.24,74.0
565.3,77.0
565.36,65.0
565.42,55.0
565.49,39.0
565.55,34.0
565.61,69.0
565.68,83.0
565.74,69.0
565.8,71.0
565.87,74.0
565.93,73.0
565.99,90.0
566.05,71.0
566.12,86.0
566.18,94.0
566.24,91.0
566.31,81.0
566.37,81.0
566.43,82.0
566.5,76.0
566.56,96.0
566.62,76.0
566.68,67.0
566.75,76.0
566.81,71.0
566.87,71.0
566.94,71.0
567.0,87.0
567.06,95.0
567.13,81.0
567.19,89.0
567.25,68.0
567.31,67.0
567.38,83.0
567.44,86.0
567.5,81.0
567.57,76.0
567.63,71.0
567.69,68.0
567.76,84.0
567.82,76.0
567.88,67.0
567.94,81.0
568.01,69.0
568.07,66.0
568.13,100.0
568.2,69.0
568.26,78.0
568.32,78.0
568.39,69.0
568.45,67.0
568.51,77.0
568.57,71.0
568.64,77.0
568.7,67.0
568.76,63.0
568.83,74.0
568.89,77.0
568.95,89.0
569.02,70.0
569.08,70.0
569.14,69.0
569.2,75.0
569.27,60.0
569.33,59.0
569.39,75.0
569.46,64.0
569.52,58.0
569.58,69.0
569.65,81.0
569.71,76.0
569.77,70.0
569.83,70.0
569.9,59.0
569.96,53.0
570.02,63.0
570.09,75.0
570.15,74.0
570.21,53.0
570.28,81.0
570.34,69.0
570.4,69.0
570.46,81.0
570.53,75.0
570.59,78.0
570.65,79.0
570.72,80.0
570.78,83.0
570.84,88.0
570.91,97.0
570.97,95.0
571.03,92.0
571.09,105.0
571.16,102.0
571.22,112.0
571.28,105.0
571.35,103.0
571.41,124.0
571.47,92.0
571.54,90.0
571.6,89.0
571.66,88.0
571.72,118.0
571.79,124.0
571.85,125.0
571.91,118.0
571.98,130.0
572.04,104.0
572.1,103.0
572.17,114.0
572.23,110.0
572.29,134.0
572.35,114.0
572.42,114.0
572.48,133.0
572.54,133.0
572.61,141.0
572.67,135.0
572.73,154.0
572.8,136.0
572.86,152.0
572.92,139.0
572.98,133.0
573.05,137.0
573.11,147.0
573.17,153.0
573.24,162.0
573.3,175.0
573.36,170.0
573.43,158.0
573.49,142.0
573.55,147.0
573.61,134.0
573.68,143.0
573.74,112.0
573.8,100.0
573.87,96.0
573.93,70.0
573.99,101.0
574.06,117.0
574.12,80.0
574.18,78.0
574.24,84.0
574.31,108.0
574.37,89.0
574.43,98.0
574.5,121.0
574.56,113.0
574.62,105.0
574.69,99.0
574.75,88.0
574.81,77.0
574.87,83.0
574.94,78.0
575.0,102.0
575.06,102.0
575.13,83.0
575.19,80.0
575.25,83.0
575.32,74.0
575.38,69.0
575.44,42.0
575.5,52.0
575.57,55.0
575.63,52.0
575.69,47.0
575.76,55.0
575.82,55.0
575.88,63.0
575.95,60.0
576.01,68.0
576.07,81.0
576.13,75.0
576.2,71.0
576.26,61.0
576.32,76.0
576.39,69.0
576.45,63.0
576.51,78.0
576.58,88.0
576.64,108.0
576.7,92.0
576.76,113.0
576.83,105.0
576.89,94.0
576.95,117.0
577.02,109.0
577.08,116.0
577.14,117.0
577.21,105.0
577.27,117.0
577.33,115.0
577.39,109.0
577.46,135.0
577.52,112.0
577.58,108.0
577.65,124.0
577.71,101.0
577.77,102.0
577.84,105.0
577.9,104.0
577.96,105.0
578.02,104.0
578.09,114.0
578.15,122.0
578.21,125.0
578.28,140.0
578.34,149.0
578.4,143.0
578.47,127.0
578.53,120.0
578.59,106.0
578.65,122.0
578.72,131.0
578.78,132.0
578.84,128.0
578.91,148.0
578.97,162.0
579.03,155.0
579.1,172.0
579.16,162.0
579.22,155.0
579.28,147.0
579.35,162.0
579.41,166.0
579.47,156.0
579.54,165.0
579.6,157.0
579.66,133.0
579.73,166.0
579.79,162.0
579.85,157.0
579.91,166.0
579.98,152.0
580.04,165.0
580.1,183.0
580.17,173.0
580.23,174.0
580.29,160.0
580.36,171.0
580.42,178.0
580.48,169.0
580.54,183.0
580.61,170.0
580.67,167.0
580.73,171.0
580.8,168.0
580.86,171.0
580.92,159.0
580.99,166.0
581.05,161.0
581.11,157.0
581.17,160.0
581.24,179.0
581.3,168.0
581.36,151.0
581.43,163.0
581.49,156.0
581.55,149.0
581.62,170.0
581.68,193.0
581.74,185.0
581.8,187.0
581.87,167.0
581.93,165.0
581.99,168.0
582.06,155.0
582.12,163.0
582.18,163.0
582.25,148.0
582.31,151.0
582.37,149.0
582.43,159.0
582.5,157.0
582.56,188.0
582.62,155.0
582.69,145.0
582.75,147.0
582.81,119.0
582.88,122.0
582.94,110.0
583.0,96.0
583.06,124.0
583.13,126.0
583.19,125.0
583.25,120.0
583.32,124.0
583.38,116.0
583.44,124.0
583.51,134.0
583.57,118.0
583.63,132.0
583.69,129.0
583.76,95.0
583.82,97.0
583.88,102.0
583.95,96.0
584.01,99.0
584.07,92.0
584.14,108.0
584.2,99.0
584.26,100.0
584.32,94.0
584.39,89.0
584.45,107.0
584.51,99.0
584.58,108.0
584.64,81.0
584.7,81.0
584.77,74.0
584.83,67.0
584.89,86.0
584.95,95.0
585.02,104.0
585.08,104.0
585.14,78.0
585.21,83.0
585.27,85.0
585.33,92.0
585.4,113.0
585.46,100.0
585.52,96.0
585.58,110.0
585.65,108.0
585.71,105.0
585.77,115.0
585.84,112.0
585.9,89.0
585.96,84.0
586.03,100.0
586.09,101.0
586.15,89.0
586.21,106.0
586.28,100.0
586.34,79.0
586.4,83.0
586.47,61.0
586.53,72.0
586.59,67.0
586.66,66.0
586.72,85.0
586.78,74.0
586.84,82.0
586.91,88.0
586.97,101.0
587.03,93.0
587.1,87.0
587.16,86.0
587.22,85.0
587.29,88.0
587.35,87.0
587.41,109.0
587.47,94.0
587.54,96.0
587.6,91.0
587.66,62.0
587.73,86.0
587.79,87.0
587.85,91.0
587.92,57.0
587.98,55.0
588.04,82.0
588.1,86.0
588.17,86.0
588.23,89.0
588.29,105.0
588.36,110.0
588.42,111.0
588.48,80.0
588.55,87.0
588.61,87.0
588.67,103.0
588.73,80.0
588.8,92.0
588.86,78.0
588.92,75.0
588.99,103.0
589.05,78.0
589.11,82.0
589.18,79.0
589.24,63.0
589.3,66.0
589.36,76.0
589.43,71.0
589.49,71.0
589.55,71.0
589.62,65.0
589.68,51.0
589.74,63.0
589.81,72.0
589.87,77.0
589.93,70.0
589.99,63.0
590.06,75.0
590.12,71.0
590.18,58.0
590.25,81.0
590.31,73.0
590.37,69.0
590.44,83.0
590.5,75.0
590.56,75.0
590.62,68.0
590.69,92.0
590.75,103.0
590.81,99.0
590.88,97.0
590.94,101.0
591.0,75.0
591.07,61.0
591.13,86.0
591.19,92.0
591.25,80.0
591.32,86.0
591.38,70.0
591.44,72.0
591.51,55.0
591.57,39.0
591.63,50.0
591.7,52.0
591.76,53.0
591.82,50.0
591.88,52.0
591.95,51.0
592.01,52.0
592.07,70.0
592.14,46.0
592.2,28.0
592.26,32.0
592.33,33.0
592.39,30.0
592.45,41.0
592.51,47.0
592.58,33.0
592.64,54.0
592.7,49.0
592.77,36.0
592.83,45.0
592.89,52.0
592.96,40.0
593.02,66.0
593.08,75.0
593.14,53.0
593.21,43.0
593.27,49.0
593.33,67.0
593.4,57.0
593.46,46.0
593.52,52.0
593.59,67.0
593.65,72.0
593.71,49.0
593.77,76.0
593.84,84.0
593.9,63.0
593.96,63.0
594.03,62.0
594.09,70.0
594.15,78.0
594.22,65.0
594.28,75.0
594.34,59.0
594.4,73.0
594.47,87.0
594.53,81.0
594.59,82.0
594.66,80.0
594.72,88.0
594.78,81.0
594.85,70.0
594.91,85.0
594.97,91.0
595.03,86.0
595.1,88.0
595.16,89.0
595.22,93.0
595.29,97.0
595.35,88.0
595.41,93.0
595.48,93.0
595.54,85.0
595.6,89.0
595.66,101.0
595.73,112.0
595.79,93.0
595.85,84.0
595.92,94.0
595.98,75.0
596.04,62.0
596.11,83.0
596.17,78.0
596.23,94.0
596.29,92.0
596.36,80.0
596.42,90.0
596.48,83.0
596.55,54.0
596.61,68.0
596.67,68.0
596.74,81.0
596.8,82.0
596.86,70.0
596.92,74.0
596.99,86.0
597.05,85.0
597.11,71.0
597.18,74.0
597.24,63.0
597.3,62.0
597.37,66.0
597.43,63.0
597.49,75.0
597.55,69.0
597.62,68.0
597.68,46.0
597.74,72.0
597.81,62.0
597.87,70.0
597.93,80.0
598.0,72.0
598.06,82.0
598.12,80.0
598.18,70.0
598.25,77.0
598.31,88.0
598.37,88.0
598.44,100.0
598.5,84.0
598.56,82.0
598.63,92.0
598.69,83.0
598.75,76.0
598.81,75.0
598.88,72.0
598.94,70.0
599.0,80.0
599.07,81.0
599.13,77.0
599.19,91.0
599.26,97.0
599.32,82.0
599.38,100.0
599.44,94.0
599.51,92.0
599.57,88.0
599.63,97.0
599.7,107.0
599.76,100.0
599.82,99.0
599.89,89.0
599.95,63.0
600.01,67.0
600.07,83.0
600.14,80.0
600.2,86.0
600.26,103.0
600.33,111.0
600.39,111.0
600.45,111.0
600.52,98.0
600.58,113.0
600.64,100.0
600.7,93.0
600.77,86.0
600.83,101.0
600.89,99.0
600.96,86.0
601.02,105.0
601.08,85.0
601.15,96.0
601.21,110.0
601.27,98.0
601.33,96.0
601.4,103.0
601.46,99.0
601.52,109.0
601.59,108.0
601.65,111.0
601.71,136.0
601.78,139.0
601.84,129.0
601.9,116.0
601.96,119.0
602.03,120.0
602.09,88.0
602.15,81.0
602.22,89.0
602.28,98.0
602.34,89.0
602.41,86.0
602.47,90.0
602.53,95.0
602.59,99.0
602.66,107.0
602.72,121.0
602.78,122.0
602.85,118.0
602.91,96.0
602.97,108.0
603.04,99.0
603.1,102.0
603.16,112.0
603.22,102.0
603.29,122.0
603.35,119.0
603.41,106.0
603.48,108.0
603.54,104.0
603.6,125.0
603.67,114.0
603.73,123.0
603.79,94.0
603.85,101.0
603.92,78.0
603.98,94.0
604.04,89.0
604.11,92.0
604.17,94.0
604.23,100.0
604.3,110.0
604.36,108.0
604.42,98.0
604.48,112.0
604.55,114.0
604.61,115.0
604.67,119.0
604.74,119.0
604.8,109.0
604.86,100.0
604.93,112.0
604.99,129.0
605.05,140.0
605.11,132.0
605.18,134.0
605.24,135.0
605.3,122.0
605.37,136.0
605.43,133.0
605.49,144.0
605.56,147.0
605.62,153.0
605.68,164.0
605.74,157.0
605.81,137.0
605.87,153.0
605.93,158.0
606.0,169.0
606.06,163.0
606.12,166.0
606.19,140.0
606.25,166.0
606.31,132.0
606.37,153.0
606.44,158.0
606.5,131.0
606.56,140.0
606.63,143.0
606.69,162.0
606.75,148.0
606.82,137.0
606.88,153.0
606.94,157.0
607.0,159.0
607.07,147.0
607.13,190.0
607.19,159.0
607.26,159.0
607.32,151.0
607.38,151.0
607.45,150.0
607.51,164.0
607.57,154.0
607.63,140.0
607.7,145.0
607.76,128.0
607.82,107.0
607.89,111.0
607.95,107.0
608.01,130.0
608.08,122.0
608.14,127.0
608.2,105.0
608.26,110.0
608.33,138.0
608.39,135.0
608.45,139.0
608.52,113.0
608.58,117.0
608.64,111.0
608.71,93.0
608.77,100.0
608.83,103.0
608.89,106.0
608.96,99.0
609.02,105.0
609.08,109.0
609.15,100.0
609.21,91.0
609.27,100.0
609.34,90.0
609.4,103.0
609.46,82.0
609.52,67.0
609.59,100.0
609.65,83.0
609.71,82.0
609.78,78.0
609.84,72.0
609.9,67.0
609.97,83.0
610.03,76.0
610.09,55.0
610.15,63.0
610.22,49.0
610.28,56.0
610.34,75.0
610.41,41.0
610.47,55.0
610.53,57.0
610.6,50.0
610.66,56.0
610.72,71.0
610.78,55.0
610.85,59.0
610.91,56.0
610.97,43.0
611.04,51.0
611.1,72.0
611.16,53.0
611.23,42.0
611.29,55.0
611.35,30.0
611.41,27.0
611.48,23.0
611.54,24.0
611.6,36.0
611.67,18.0
611.73,50.0
611.79,59.0
611.86,60.0
611.92,53.0
611.98,45.0
612.04,55.0
612.11,53.0
612.17,46.0
612.23,37.0
612.3,36.0
612.36,33.0
612.42,36.0
612.49,37.0
612.55,44.0
612.61,33.0
612.67,29.0
612.74,48.0
612.8,42.0
612.86,34.0
612.93,45.0
612.99,53.0
613.05,45.0
613.12,45.0
613.18,58.0
613.24,63.0
613.3,54.0
613.37,67.0
613.43,60.0
613.49,41.0
613.56,65.0
613.62,46.0
613.68,48.0
613.75,39.0
613.81,45.0
613.87,59.0
613.93,41.0
614.0,31.0
614.06,44.0
614.12,45.0
614.19,28.0
614.25,42.0
614.31,56.0
614.38,45.0
614.44,64.0
614.5,61.0
614.56,53.0
614.63,73.0
614.69,61.0
614.75,46.0
614.82,56.0
614.88,57.0
614.94,63.0
615.01,59.0
615.07,66.0
615.13,73.0
615.19,74.0
615.26,66.0
615.32,73.0
615.38,85.0
615.45,70.0
615.51,80.0
615.57,64.0
615.64,61.0
615.7,71.0
615.76,79.0
615.82,83.0
615.89,63.0
615.95,70.0
616.01,82.0
616.08,60.0
616.14,53.0
616.2,83.0
616.27,82.0
616.33,73.0
616.39,91.0
616.45,95.0
616.52,86.0
616.58,66.0
616.64,74.0
616.71,69.0
616.77,55.0
616.83,71.0
616.9,53.0
616.96,72.0
617.02,72.0
617.08,76.0
617.15,61.0
617.21,81.0
617.27,92.0
617.34,76.0
617.4,79.0
617.46,80.0
617.53,89.0
617.59,81.0
617.65,74.0
617.71,96.0
617.78,81.0
617.84,85.0
617.9,85.0
617.97,83.0
618.03,88.0
618.09,98.0
618.16,94.0
618.22,92.0
618.28,92.0
618.34,92.0
618.41,96.0
618.47,83.0
618.53,101.0
618.6,101.0
618.66,112.0
618.72,103.0
618.79,99.0
618.85,96.0
618.91,76.0
618.97,88.0
619.04,71.0
619.1,76.0
619.16,81.0
619.23,77.0
619.29,85.0
619.35,74.0
619.42,100.0
619.48,91.0
619.54,90.0
619.6,74.0
619.67,77.0
619.73,65.0
619.79,53.0
619.86,63.0
619.92,68.0
619.98,74.0
620.05,83.0
620.11,93.0
620.17,79.0
620.23,93.0
620.3,100.0
620.36,88.0
620.42,106.0
620.49,111.0
620.55,110.0
620.61,98.0
620.68,118.0
620.74,112.0
620.8,116.0
620.86,107.0
620.93,78.0
620.99,89.0
621.05,104.0
621.12,101.0
621.18,104.0
621.24,111.0
621.31,122.0
621.37,117.0
621.43,124.0
621.49,152.0
621.56,146.0
621.62,144.0
621.68,112.0
621.75,148.0
621.81,146.0
621.87,142.0
621.94,148.0
622.0,149.0
622.06,159.0
622.12,159.0
622.19,161.0
622.25,164.0
622.31,168.0
622.38,152.0
622.44,173.0
622.5,153.0
622.57,152.0
622.63,166.0
622.69,170.0
622.75,142.0
622.82,144.0
622.88,154.0
622.94,148.0
623.01,136.0
623.07,143.0
623.13,179.0
623.2,152.0
623.26,148.0
623.32,157.0
623.38,147.0
623.45,149.0
623.51,144.0
623.57,139.0
623.64,147.0
623.7,168.0
623.76,165.0
623.83,168.0
623.89,157.0
623.95,176.0
624.01,184.0
624.08,170.0
624.14,173.0
624.2,176.0
624.27,171.0
624.33,169.0
624.39,177.0
624.46,172.0
624.52,170.0
624.58,172.0
624.64,146.0
624.71,163.0
624.77,162.0
624.83,163.0
624.9,156.0
624.96,151.0
625.02,143.0
625.09,164.0
625.15,147.0
625.21,151.0
625.27,147.0
625.34,147.0
625.4,144.0
625.46,137.0
625.53,137.0
625.59,132.0
625.65,151.0
625.72,129.0
625.78,136.0
625.84,138.0
625.9,124.0
625.97,130.0
626.03,108.0
626.09,110.0
626.16,110.0
626.22,101.0
626.28,99.0
626.35,100.0
626.41,113.0
626.47,102.0
626.53,94.0
626.6,80.0
626.66,84.0
626.72,76.0
626.79,78.0
626.85,57.0
626.91,71.0
626.98,79.0
627.04,86.0
627.1,70.0
627.16,74.0
627.23,56.0
627.29,79.0
627.35,83.0
627.42,88.0
627.48,80.0
627.54,63.0
627.61,97.0
627.67,89.0
627.73,100.0
627.79,90.0
627.86,90.0
627.92,107.0
627.98,94.0
628.05,92.0
628.11,88.0
628.17,95.0
628.24,103.0
628.3,94.0
628.36,110.0
628.42,116.0
628.49,85.0
628.55,97.0
628.61,87.0
628.68,90.0
628.74,88.0
628.8,96.0
628.87,107.0
628.93,88.0
628.99,97.0
629.05,82.0
629.12,85.0
629.18,95.0
629.24,101.0
629.31,86.0
629.37,97.0
629.43,110.0
629.5,96.0
629.56,103.0
629.62,116.0
629.68,110.0
629.75,97.0
629.81,102.0
629.87,111.0
629.94,118.0
630.0,117.0
630.06,124.0
630.13,116.0
630.19,89.0
630.25,90.0
630.31,94.0
630.38,108.0
630.44,99.0
630.5,77.0
630.57,89.0
630.63,102.0
630.69,90.0
630.76,89.0
630.82,118.0
630.88,75.0
630.94,75.0
631.01,81.0
631.07,76.0
631.13,107.0
631.2,94.0
631.26,91.0
631.32,102.0
631.39,82.0
631.45,85.0
631.51,115.0
631.57,98.0
631.64,106.0
631.7,97.0
631.76,106.0
631.83,96.0
631.89,98.0
631.95,104.0
632.02,96.0
632.08,85.0
632.14,102.0
632.2,94.0
632.27,118.0
632.33,119.0
632.39,114.0
632.46,108.0
632.52,100.0
632.58,100.0
632.65,111.0
632.71,116.0
632.77,115.0
632.83,114.0
632.9,118.0
632.96,118.0
633.02,110.0
633.09,123.0
633.15,124.0
633.21,138.0
633.28,136.0
633.34,137.0
633.4,122.0
633.46,113.0
633.53,133.0
633.59,122.0
633.65,118.0
633.72,132.0
633.78,123.0
633.84,105.0
633.91,121.0
633.97,100.0
634.03,96.0
634.09,113.0
634.16,100.0
634.22,110.0
634.28,99.0
634.35,96.0
634.41,119.0
634.47,113.0
634.54,114.0
634.6,125.0
634.66,118.0
634.72,120.0
634.79,104.0
634.85,108.0
634.91,102.0
634.98,87.0
635.04,113.0
635.1,97.0
635.17,108.0
635.23,99.0
635.29,100.0
635.35,107.0
635.42,90.0
635.48,96.0
635.54,82.0
635.61,83.0
635.67,85.0
635.73,83.0
635.8,89.0
635.86,76.0
635.92,72.0
635.98,64.0
636.05,82.0
636.11,72.0
636.17,96.0
636.24,102.0
636.3,85.0
636.36,83.0
636.43,102.0
636.49,89.0
636.55,92.0
636.61,88.0
636.68,91.0
636.74,93.0
636.8,107.0
636.87,112.0
636.93,97.0
636.99,109.0
637.06,102.0
637.12,104.0
637.18,108.0
637.24,104.0
637.31,100.0
637.37,104.0
637.43,106.0
637.5,122.0
637.56,112.0
637.62,140.0
637.69,124.0
637.75,115.0
637.81,92.0
637.87,102.0
637.94,127.0
638.0,114.0
638.06,124.0
638.13,119.0
638.19,122.0
638.25,111.0
638.32,115.0
638.38,121.0
638.44,124.0
638.5,118.0
638.57,109.0
638.63,100.0
638.69,106.0
638.76,98.0
638.82,96.0
638.88,101.0
638.95,114.0
639.01,95.0
639.07,105.0
639.13,118.0
639.2,109.0
639.26,122.0
639.32,111.0
639.39,110.0
639.45,107.0
639.51,110.0
639.58,105.0
639.64,92.0
639.7,87.0
639.76,100.0
639.83,102.0
639.89,108.0
639.95,121.0
640.02,110.0
640.08,112.0
640.14,108.0
640.21,92.0
640.27,122.0
640.33,119.0
640.39,108.0
640.46,105.0
640.52,105.0
640.58,110.0
640.65,116.0
640.71,118.0
640.77,106.0
640.84,115.0
640.9,119.0
640.96,101.0
641.02,114.0
641.09,116.0
641.15,108.0
641.21,87.0
641.28,100.0
641.34,108.0
641.4,113.0
641.47,120.0
641.53,111.0
641.59,98.0
641.65,98.0
641.72,107.0
641.78,104.0
641.84,82.0
641.91,74.0
641.97,70.0
642.03,84.0
642.1,63.0
642.16,63.0
642.22,82.0
642.28,67.0
642.35,81.0
642.41,84.0
642.47,72.0
642.54,81.0
642.6,82.0
642.66,77.0
642.73,80.0
642.79,79.0
642.85,67.0
642.91,52.0
642.98,71.0
643.04,50.0
643.1,72.0
643.17,67.0
643.23,55.0
643.29,53.0
643.36,61.0
643.42,71.0
643.48,67.0
643.54,73.0
643.61,67.0
643.67,71.0
643.73,63.0
643.8,56.0
643.86,64.0
643.92,73.0
643.99,86.0
644.05,78.0
644.11,64.0
644.17,71.0
644.24,63.0
644.3,68.0
644.36,70.0
644.43,76.0
644.49,63.0
644.55,58.0
644.62,61.0
644.68,57.0
644.74,64.0
644.8,61.0
644.87,56.0
644.93,81.0
644.99,92.0
645.06,101.0
645.12,86.0
645.18,83.0
645.25,96.0
645.31,74.0
645.37,82.0
645.43,78.0
645.5,94.0
645.56,89.0
645.62,69.0
645.69,77.0
645.75,70.0
645.81,74.0
645.88,85.0
645.94,60.0
646.0,63.0
646.06,82.0
646.13,82.0
646.19,82.0
646.25,96.0
646.32,69.0
646.38,79.0
646.44,77.0
646.51,74.0
646.57,95.0
646.63,77.0
646.69,67.0
646.76,93.0
646.82,111.0
646.88,115.0
646.95,107.0
647.01,109.0
647.07,114.0
647.14,106.0
647.2,107.0
647.26,104.0
647.32,105.0
647.39,109.0
647.45,86.0
647.51,90.0
647.58,78.0
647.64,89.0
647.7,78.0
647.77,82.0
647.83,100.0
647.89,100.0
647.95,105.0
648.02,114.0
648.08,120.0
648.14,117.0
648.21,122.0
648.27,110.0
648.33,107.0
648.4,108.0
648.46,110.0
648.52,113.0
648.58,112.0
648.65,103.0
648.71,110.0
648.77,122.0
648.84,119.0
648.9,114.0
648.96,112.0
649.03,126.0
649.09,112.0
649.15,119.0
649.21,118.0
649.28,123.0
649.34,137.0
649.4,132.0
649.47,126.0
649.53,115.0
649.59,105.0
649.66,108.0
649.72,141.0
649.78,146.0
649.84,136.0
649.91,133.0
649.97,122.0
650.03,127.0
650.1,111.0
650.16,123.0
650.22,122.0
650.29,116.0
650.35,118.0
650.41,104.0
650.47,116.0
650.54,106.0
650.6,112.0
650.66,95.0
650.73,93.0
650.79,99.0
650.85,103.0
650.92,103.0
650.98,105.0
651.04,120.0
651.1,109.0
651.17,104.0
651.23,109.0
651.29,120.0
651.36,100.0
651.42,99.0
651.48,105.0
651.55,112.0
651.61,107.0
651.67,121.0
651.73,117.0
651.8,103.0
651.86,100.0
651.92,101.0
651.99,97.0
652.05,104.0
652.11,104.0
652.18,111.0
652.24,93.0
652.3,108.0
652.36,91.0
652.43,89.0
652.49,104.0
652.55,109.0
652.62,122.0
652.68,113.0
652.74,119.0
652.81,113.0
652.87,125.0
652.93,126.0
652.99,125.0
653.06,106.0
653.12,81.0
653.18,104.0
653.25,93.0
653.31,104.0
653.37,114.0
653.44,102.0
653.5,122.0
653.56,118.0
653.62,120.0
653.69,119.0
653.75,128.0
653.81,133.0
653.88,122.0
653.94,133.0
654.0,131.0
654.07,130.0
654.13,124.0
654.19,130.0
654.25,126.0
654.32,151.0
654.38,154.0
654.44,118.0
654.51,134.0
654.57,136.0
654.63,129.0
654.7,117.0
654.76,108.0
654.82,100.0
654.88,96.0
654.95,123.0
655.01,128.0
655.07,129.0
655.14,115.0
655.2,129.0
655.26,140.0
655.33,106.0
655.39,119.0
655.45,119.0
655.51,113.0
655.58,127.0
655.64,133.0
655.7,136.0
655.77,129.0
655.83,109.0
655.89,115.0
655.96,93.0
656.02,107.0
656.08,103.0
656.14,116.0
656.21,105.0
656.27,98.0
656.33,106.0
656.4,108.0
656.46,133.0
656.52,136.0
656.59,125.0
656.65,140.0
656.71,130.0
656.77,140.0
656.84,131.0
656.9,129.0
656.96,131.0
657.03,146.0
657.09,143.0
657.15,135.0
657.22,162.0
657.28,150.0
657.34,143.0
657.4,130.0
657.47,121.0
657.53,122.0
657.59,84.0
657.66,114.0
657.72,120.0
657.78,136.0
657.85,116.0
657.91,124.0
657.97,126.0
658.03,130.0
658.1,125.0
658.16,132.0
658.22,129.0
658.29,118.0
658.35,133.0
658.41,118.0
658.48,129.0
658.54,128.0
658.6,133.0
658.66,129.0
658.73,107.0
658.79,129.0
658.85,129.0
658.92,131.0
658.98,146.0
659.04,154.0
659.11,133.0
659.17,133.0
659.23,135.0
659.29,111.0
659.36,109.0
659.42,109.0
659.48,91.0
659.55,85.0
659.61,99.0
659.67,94.0
659.74,92.0
659.8,73.0
659.86,68.0
659.92,59.0
659.99,55.0
660.05,61.0
660.11,63.0
660.18,65.0
660.24,41.0
660.3,69.0
660.37,49.0
660.43,24.0
660.49,51.0
660.55,50.0
660.62,52.0
660.68,41.0
660.74,55.0
660.81,80.0
660.87,81.0
660.93,72.0
661.0,61.0
661.06,64.0
661.12,68.0
661.18,89.0
661.25,83.0
661.31,90.0
661.37,77.0
661.44,79.0
661.5,53.0
661.56,73.0
661.63,69.0
661.69,85.0
661.75,67.0
661.81,45.0
661.88,62.0
661.94,80.0
662.0,93.0
662.07,92.0
662.13,87.0
662.19,97.0
662.26,81.0
662.32,73.0
662.38,80.0
662.44,95.0
662.51,94.0
662.57,91.0
662.63,93.0
662.7,88.0
662.76,108.0
662.82,116.0
662.89,112.0
662.95,114.0
663.01,116.0
663.07,107.0
663.14,113.0
663.2,122.0
663.26,126.0
663.33,127.0
663.39,124.0
663.45,108.0
663.52,107.0
663.58,96.0
663.64,106.0
663.7,101.0
663.77,91.0
663.83,74.0
663.89,64.0
663.96,55.0
664.02,78.0
664.08,76.0
664.15,83.0
664.21,70.0
664.27,89.0
664.33,94.0
664.4,80.0
664.46,86.0
664.52,95.0
664.59,99.0
664.65,101.0
664.71,96.0
664.78,87.0
664.84,84.0
664.9,52.0
664.96,84.0
665.03,86.0
665.09,78.0
665.15,88.0
665.22,79.0
665.28,89.0
665.34,89.0
665.41,90.0
665.47,106.0
665.53,84.0
665.59,89.0
665.66,98.0
665.72,92.0
665.78,96.0
665.85,112.0
665.91,117.0
665.97,105.0
666.04,109.0
666.1,89.0
666.16,74.0
666.22,104.0
666.29,103.0
666.35,98.0
666.41,80.0
666.48,57.0
666.54,74.0
666.6,67.0
666.67,70.0
666.73,61.0
666.79,58.0
666.85,67.0
666.92,53.0
666.98,59.0
667.04,79.0
667.11,69.0
667.17,60.0
667.23,52.0
667.3,54.0
667.36,66.0
667.42,41.0
667.48,48.0
667.55,39.0
667.61,75.0
667.67,48.0
667.74,56.0
667.8,64.0
667.86,56.0
667.93,63.0
667.99,37.0
668.05,45.0
668.11,74.0
668.18,80.0
668.24,52.0
668.3,55.0
668.37,70.0
668.43,68.0
668.49,62.0
668.56,46.0
668.62,49.0
668.68,53.0
668.74,83.0
668.81,50.0
668.87,43.0
668.93,51.0
669.0,35.0
669.06,47.0
669.12,53.0
669.19,38.0
669.25,43.0
669.31,23.0
669.37,33.0
669.44,46.0
669.5,43.0
669.56,55.0
669.63,44.0
669.69,54.0
669.75,74.0
669.82,72.0
669.88,56.0
669.94,74.0
670.0,76.0
670.07,81.0
670.13,79.0
670.19,96.0
670.26,80.0
670.32,81.0
670.38,53.0
670.45,58.0
670.51,62.0
670.57,58.0
670.63,72.0
670.7,71.0
670.76,83.0
670.82,66.0
670.89,71.0
670.95,55.0
671.01,62.0
671.08,66.0
671.14,60.0
671.2,60.0
671.26,70.0
671.33,80.0
671.39,68.0
671.45,75.0
671.52,82.0
671.58,92.0
671.64,81.0
671.71,97.0
671.77,105.0
671.83,78.0
671.89,113.0
671.96,96.0
672.02,88.0
672.08,109.0
672.15,80.0
672.21,102.0
672.27,114.0
672.34,107.0
672.4,101.0
672.46,104.0
672.52,123.0
672.59,124.0
672.65,116.0
672.71,127.0
672.78,111.0
672.84,101.0
672.9,107.0
672.97,110.0
673.03,96.0
673.09,120.0
673.15,115.0
673.22,127.0
673.28,129.0
673.34,118.0
673.41,127.0
673.47,137.0
673.53,107.0
673.6,102.0
673.66,111.0
673.72,119.0
673.78,121.0
673.85,140.0
673.91,141.0
673.97,122.0
674.04,118.0
674.1,132.0
674.16,154.0
674.23,150.0
674.29,138.0
674.35,130.0
674.41,116.0
674.48,133.0
674.54,116.0
674.6,106.0
674.67,119.0
674.73,120.0
674.79,118.0
674.86,104.0
674.92,96.0
674.98,100.0
675.04,93.0
675.11,93.0
675.17,105.0
675.23,111.0
675.3,114.0
675.36,105.0
675.42,97.0
675.49,70.0
675.55,67.0
675.61,92.0
675.67,80.0
675.74,67.0
675.8,74.0
675.86,74.0
675.93,92.0
675.99,87.0
676.05,92.0
676.12,112.0
676.18,67.0
676.24,63.0
676.3,77.0
676.37,68.0
676.43,67.0
676.49,81.0
676.56,108.0
676.62,106.0
676.68,111.0
676.75,93.0
676.81,79.0
676.87,79.0
676.93,81.0
677.0,81.0
677.06,87.0
677.12,103.0
677.19,95.0
677.25,79.0
677.31,79.0
677.38,67.0
677.44,70.0
677.5,62.0
677.56,87.0
677.63,97.0
677.69,81.0
677.75,69.0
677.82,67.0
677.88,55.0
677.94,38.0
678.01,63.0
678.07,78.0
678.13,69.0
678.19,67.0
678.26,77.0
678.32,61.0
678.38,54.0
678.45,82.0
678.51,82.0
678.57,83.0
678.64,92.0
678.7,87.0
678.76,88.0
678.82,105.0
678.89,94.0
678.95,112.0
679.01,94.0
679.08,91.0
679.14,100.0
679.2,91.0
679.27,96.0
679.33,94.0
679.39,92.0
679.45,86.0
679.52,86.0
679.58,107.0
679.64,107.0
679.71,116.0
679.77,122.0
679.83,89.0
679.9,100.0
679.96,99.0
680.02,119.0
680.08,107.0
680.15,113.0
680.21,134.0
680.27,120.0
680.34,116.0
680.4,112.0
680.46,114.0
680.53,141.0
680.59,124.0
680.65,125.0
680.71,135.0
680.78,119.0
680.84,107.0
680.9,100.0
680.97,86.0
681.03,97.0
681.09,98.0
681.16,98.0
681.22,94.0
681.28,99.0
681.34,104.0
681.41,103.0
681.47,89.0
681.53,98.0
681.6,106.0
681.66,107.0
681.72,99.0
681.79,92.0
681.85,110.0
681.91,104.0
681.97,100.0
682.04,103.0
682.1,103.0
682.16,103.0
682.23,85.0
682.29,90.0
682.35,97.0
682.42,111.0
682.48,97.0
682.54,90.0
682.6,104.0
682.67,118.0
682.73,100.0
682.79,116.0
682.86,104.0
682.92,122.0
682.98,111.0
683.05,114.0
683.11,112.0
683.17,107.0
683.23,123.0
683.3,118.0
683.36,133.0
683.42,119.0
683.49,124.0
683.55,117.0
683.61,115.0
683.68,85.0
683.74,96.0
683.8,101.0
683.86,91.0
683.93,87.0
683.99,89.0
684.05,77.0
684.12,77.0
684.18,83.0
684.24,99.0
684.31,93.0
684.37,96.0
684.43,95.0
684.49,91.0
684.56,122.0
684.62,121.0
684.68,107.0
684.75,115.0
684.81,100.0
684.87,93.0
684.94,103.0
685.0,116.0
685.06,104.0
685.12,99.0
685.19,99.0
685.25,91.0
685.31,93.0
685.38,97.0
685.44,112.0
685.5,115.0
685.57,126.0
685.63,137.0
685.69,122.0
685.75,110.0
685.82,130.0
685.88,119.0
685.94,105.0
686.01,114.0
686.07,100.0
686.13,106.0
686.2,106.0
686.26,112.0
686.32,107.0
686.38,104.0
686.45,123.0
686.51,130.0
686.57,118.0
686.64,114.0
686.7,115.0
686.76,105.0
686.83,127.0
686.89,133.0
686.95,105.0
687.01,114.0
687.08,140.0
687.14,127.0
687.2,119.0
687.27,120.0
687.33,143.0
687.39,145.0
687.46,147.0
687.52,164.0
687.58,161.0
687.64,155.0
687.71,172.0
687.77,158.0
687.83,162.0
687.9,174.0
687.96,157.0
688.02,159.0
688.09,145.0
688.15,141.0
688.21,131.0
688.27,157.0
688.34,147.0
688.4,156.0
688.46,161.0
688.53,151.0
688.59,140.0
688.65,141.0
688.72,155.0
688.78,141.0
688.84,147.0
688.9,143.0
688.97,173.0
689.03,144.0
689.09,123.0
689.16,141.0
689.22,148.0
689.28,135.0
689.35,129.0
689.41,149.0
689.47,140.0
689.53,132.0
689.6,148.0
689.66,160.0
689.72,165.0
689.79,174.0
689.85,176.0
689.91,166.0
689.98,162.0
690.04,166.0
690.1,173.0
690.16,153.0
690.23,169.0
690.29,168.0
690.35,162.0
690.42,174.0
690.48,168.0
690.54,160.0
690.61,149.0
690.67,165.0
690.73,159.0
690.79,143.0
690.86,151.0
690.92,148.0
690.98,174.0
691.05,156.0
691.11,169.0
691.17,169.0
691.24,166.0
691.3,149.0
691.36,139.0
691.42,161.0
691.49,160.0
691.55,147.0
691.61,162.0
691.68,159.0
691.74,139.0
691.8,147.0
691.87,138.0
691.93,126.0
691.99,133.0
692.05,130.0
692.12,123.0
692.18,122.0
692.24,129.0
692.31,135.0
692.37,126.0
692.43,116.0
692.5,128.0
692.56,124.0
692.62,129.0
692.68,122.0
692.75,109.0
692.81,94.0
692.87,93.0
692.94,110.0
693.0,110.0
693.06,104.0
693.13,123.0
693.19,96.0
693.25,89.0
693.31,118.0
693.38,116.0
693.44,110.0
693.5,122.0
693.57,113.0
693.63,82.0
693.69,79.0
693.76,94.0
693.82,95.0
693.88,89.0
693.94,86.0
694.01,83.0
694.07,91.0
694.13,99.0
694.2,63.0
694.26,64.0
694.32,77.0
694.39,76.0
694.45,70.0
694.51,79.0
694.57,85.0
694.64,78.0
694.7,81.0
694.76,76.0
694.83,85.0
694.89,105.0
694.95,94.0
695.02,94.0
695.08,89.0
695.14,79.0
695.2,80.0
695.27,81.0
695.33,73.0
695.39,91.0
695.46,83.0
695.52,80.0
695.58,56.0
695.65,59.0
695.71,87.0
695.77,80.0
695.83,89.0
695.9,71.0
695.96,97.0
696.02,91.0
696.09,93.0
696.15,87.0
696.21,66.0
696.28,67.0
696.34,72.0
696.4,81.0
696.46,71.0
696.53,74.0
696.59,62.0
696.65,69.0
696.72,73.0
696.78,75.0
696.84,65.0
696.91,69.0
696.97,89.0
697.03,88.0
697.09,67.0
697.16,65.0
697.22,68.0
697.28,61.0
697.35,67.0
697.41,68.0
697.47,64.0
697.54,63.0
697.6,53.0
697.66,78.0
697.72,76.0
697.79,64.0
697.85,52.0
697.91,59.0
697.98,53.0
698.04,61.0
698.1,86.0
698.17,82.0
698.23,87.0
698.29,66.0
698.35,56.0
698.42,76.0
698.48,72.0
698.54,45.0
698.61,74.0
698.67,65.0
698.73,52.0
698.8,72.0
698.86,60.0
698.92,59.0
698.98,60.0
699.05,45.0
699.11,57.0
699.17,43.0
699.24,49.0
699.3,59.0
699.36,62.0
699.43,51.0
699.49,61.0
699.55,62.0
699.61,89.0
699.68,73.0
699.74,69.0
699.8,74.0
699.87,79.0
699.93,74.0
699.99,58.0
700.06,62.0
700.12,70.0
700.18,71.0
700.24,63.0
700.31,66.0
700.37,60.0
700.43,71.0
700.5,58.0
700.56,61.0
700.62,59.0
700.69,46.0
700.75,60.0
700.81,60.0
700.87,49.0
700.94,47.0
701.0,60.0
701.06,50.0
701.13,52.0
701.19,85.0
701.25,88.0
701.32,86.0
701.38,67.0
701.44,70.0
701.5,59.0
701.57,65.0
701.63,83.0
701.69,65.0
701.76,71.0
701.82,71.0
701.88,60.0
701.95,91.0
702.01,109.0
702.07,103.0
702.13,96.0
702.2,120.0
702.26,114.0
702.32,99.0
702.39,96.0
702.45,89.0
702.51,119.0
702.58,104.0
702.64,77.0
702.7,88.0
702.76,92.0
702.83,94.0
702.89,83.0
702.95,79.0
703.02,81.0
703.08,90.0
703.14,101.0
703.21,100.0
703.27,92.0
703.33,96.0
703.39,102.0
703.46,106.0
703.52,95.0
703.58,95.0
703.65,121.0
703.71,120.0
703.77,115.0
703.84,122.0
703.9,131.0
703.96,126.0
704.02,147.0
704.09,129.0
704.15,138.0
704.21,147.0
704.28,124.0
704.34,111.0
704.4,130.0
704.47,143.0
704.53,137.0
704.59,127.0
704.65,140.0
704.72,110.0
704.78,115.0
704.84,113.0
704.91,125.0
704.97,125.0
705.03,112.0
705.1,97.0
705.16,90.0
705.22,99.0
705.28,109.0
705.35,107.0
705.41,125.0
705.47,136.0
705.54,141.0
705.6,127.0
705.66,133.0
705.73,145.0
705.79,156.0
705.85,170.0
705.91,163.0
705.98,176.0
706.04,156.0
706.1,160.0
706.17,146.0
706.23,159.0
706.29,144.0
706.36,151.0
706.42,154.0
706.48,140.0
706.54,121.0
706.61,113.0
706.67,129.0
706.73,127.0
706.8,114.0
706.86,131.0
706.92,134.0
706.99,126.0
707.05,126.0
707.11,138.0
707.17,151.0
707.24,148.0
707.3,160.0
707.36,166.0
707.43,147.0
707.49,129.0
707.55,147.0
707.62,148.0
707.68,135.0
707.74,155.0
707.8,133.0
707.87,163.0
707.93,160.0
707.99,164.0
708.06,141.0
708.12,149.0
708.18,133.0
708.25,133.0
708.31,141.0
708.37,143.0
708.43,126.0
708.5,129.0
708.56,146.0
708.62,137.0
708.69,157.0
708.75,121.0
708.81,132.0
708.88,147.0
708.94,157.0
709.0,154.0
709.06,119.0
709.13,143.0
709.19,136.0
709.25,117.0
709.32,107.0
709.38,116.0
709.44,111.0
709.51,102.0
709.57,99.0
709.63,110.0
709.69,111.0
709.76,96.0
709.82,91.0
709.88,103.0
709.95,91.0
710.01,85.0
710.07,100.0
710.14,98.0
710.2,97.0
710.26,94.0
710.32,90.0
710.39,80.0
710.45,86.0
710.51,66.0
710.58,83.0
710.64,85.0
710.7,89.0
710.77,84.0
710.83,57.0
710.89,64.0
710.95,92.0
711.02,71.0
711.08,73.0
711.14,71.0
711.21,65.0
711.27,66.0
711.33,81.0
711.4,79.0
711.46,67.0
711.52,65.0
711.58,75.0
711.65,88.0
711.71,66.0
711.77,72.0
711.84,73.0
711.9,88.0
711.96,96.0
712.03,77.0
712.09,72.0
712.15,60.0
712.21,74.0
712.28,81.0
712.34,77.0
712.4,89.0
712.47,108.0
712.53,118.0
712.59,141.0
712.66,133.0
712.72,116.0
712.78,125.0
712.84,105.0
712.91,125.0
712.97,133.0
713.03,114.0
713.1,106.0
713.16,113.0
713.22,128.0
713.29,124.0
713.35,123.0
713.41,121.0
713.47,110.0
713.54,108.0
713.6,112.0
713.66,124.0
713.73,146.0
713.79,134.0
713.85,105.0
713.92,109.0
713.98,121.0
714.04,113.0
714.1,99.0
714.17,124.0
714.23,117.0
714.29,135.0
714.36,121.0
714.42,122.0
714.48,104.0
714.55,119.0
714.61,113.0
714.67,118.0
714.73,121.0
714.8,99.0
714.86,108.0
714.92,100.0
714.99,108.0
715.05,106.0
715.11,94.0
715.18,101.0
715.24,112.0
715.3,112.0
715.36,102.0
715.43,118.0
715.49,103.0
715.55,92.0
715.62,113.0
715.68,115.0
715.74,125.0
715.81,114.0
715.87,119.0
715.93,151.0
715.99,135.0
716.06,124.0
716.12,123.0
716.18,155.0
716.25,147.0
716.31,137.0
716.37,134.0
716.44,120.0
716.5,122.0
716.56,133.0
716.62,111.0
716.69,127.0
716.75,117.0
716.81,115.0
716.88,110.0
716.94,97.0
717.0,118.0
717.07,97.0
717.13,84.0
717.19,119.0
717.25,123.0
717.32,125.0
717.38,118.0
717.44,99.0
717.51,117.0
717.57,120.0
717.63,114.0
717.7,117.0
717.76,102.0
717.82,117.0
717.88,107.0
717.95,103.0
718.01,107.0
718.07,96.0
718.14,96.0
718.2,81.0
718.26,74.0
718.33,85.0
718.39,76.0
718.45,81.0
718.51,86.0
718.58,70.0
718.64,68.0
718.7,58.0
718.77,62.0
718.83,70.0
718.89,91.0
718.96,78.0
719.02,76.0
719.08,77.0
719.14,63.0
719.21,49.0
719.27,70.0
719.33,82.0
719.4,73.0
719.46,84.0
719.52,75.0
719.59,92.0
719.65,80.0
719.71,83.0
719.77,72.0
719.84,52.0
719.9,42.0
719.96,48.0
720.03,75.0
720.09,81.0
720.15,81.0
720.22,66.0
720.28,81.0
720.34,67.0
720.4,64.0
720.47,69.0
720.53,59.0
720.59,56.0
720.66,78.0
720.72,68.0
720.78,84.0
720.85,92.0
720.91,78.0
720.97,74.0
721.03,85.0
721.1,104.0
721.16,90.0
721.22,94.0
721.29,118.0
721.35,110.0
721.41,110.0
721.48,109.0
721.54,110.0
721.6,106.0
721.66,111.0
721.73,117.0
721.79,121.0
721.85,107.0
721.92,129.0
721.98,111.0
722.04,109.0
722.11,105.0
722.17,94.0
722.23,105.0
722.29,98.0
722.36,117.0
722.42,93.0
722.48,118.0
722.55,113.0
722.61,103.0
722.67,122.0
722.74,106.0
722.8,95.0
722.86,100.0
722.92,98.0
722.99,78.0
723.05,75.0
723.11,81.0
723.18,103.0
723.24,99.0
723.3,112.0
723.37,105.0
723.43,75.0
723.49,74.0
723.55,80.0
723.62,89.0
723.68,69.0
723.74,75.0
723.81,80.0
723.87,90.0
723.93,80.0
724.0,89.0
724.06,65.0
724.12,75.0
724.18,102.0
724.25,94.0
724.31,91.0
724.37,110.0
724.44,115.0
724.5,122.0
724.56,110.0
724.63,108.0
724.69,113.0
724.75,104.0
724.81,118.0
724.88,107.0
724.94,100.0
725.0,107.0
725.07,92.0
725.13,94.0
725.19,91.0
725.26,81.0
725.32,75.0
725.38,64.0
725.44,90.0
725.51,83.0
725.57,83.0
725.63,78.0
725.7,61.0
725.76,69.0
725.82,77.0
725.89,88.0
725.95,63.0
726.01,67.0
726.07,55.0
726.14,62.0
726.2,42.0
726.26,43.0
726.33,55.0
726.39,48.0
726.45,48.0
726.52,42.0
726.58,62.0
726.64,83.0
726.7,60.0
726.77,63.0
726.83,75.0
726.89,80.0
726.96,92.0
727.02,100.0
727.08,112.0
727.15,105.0
727.21,115.0
727.27,111.0
727.33,110.0
727.4,104.0
727.46,100.0
727.52,111.0
727.59,93.0
727.65,105.0
727.71,100.0
727.78,103.0
727.84,96.0
727.9,96.0
727.96,95.0
728.03,94.0
728.09,110.0
728.15,87.0
728.22,77.0
728.28,55.0
728.34,83.0
728.41,83.0
728.47,78.0
728.53,83.0
728.59,97.0
728.66,97.0
728.72,91.0
728.78,77.0
728.85,89.0
728.91,100.0
728.97,80.0
729.04,81.0
729.1,87.0
729.16,90.0
729.22,89.0
729.29,103.0
729.35,89.0
729.41,95.0
729.48,105.0
729.54,84.0
729.6,90.0
729.67,89.0
729.73,92.0
729.79,89.0
729.85,111.0
729.92,100.0
729.98,122.0
730.04,118.0
730.11,142.0
730.17,139.0
730.23,113.0
730.3,123.0
730.36,126.0
730.42,140.0
730.48,132.0
730.55,123.0
730.61,118.0
730.67,114.0
730.74,124.0
730.8,137.0
730.86,129.0
730.93,111.0
730.99,121.0
731.05,111.0
731.11,100.0
731.18,109.0
731.24,104.0
731.3,110.0
731.37,128.0
731.43,122.0
731.49,125.0
731.56,104.0
731.62,91.0
731.68,94.0
731.74,133.0
731.81,111.0
731.87,127.0
731.93,134.0
732.0,122.0
732.06,107.0
732.12,122.0
732.19,97.0
732.25,88.0
732.31,82.0
732.37,84.0
732.44,58.0
732.5,65.0
732.56,96.0
732.63,79.0
732.69,88.0
732.75,92.0
732.82,74.0
732.88,85.0
732.94,78.0
733.0,81.0
733.07,66.0
733.13,57.0
733.19,46.0
733.26,45.0
733.32,65.0
733.38,63.0
733.45,68.0
733.51,49.0
733.57,61.0
733.63,84.0
733.7,87.0
733.76,72.0
733.82,44.0
733.89,56.0
733.95,67.0
734.01,63.0
734.08,71.0
734.14,62.0
734.2,70.0
734.26,52.0
734.33,46.0
734.39,41.0
734.45,35.0
734.52,41.0
734.58,51.0
734.64,55.0
734.71,86.0
734.77,101.0
734.83,81.0
734.89,69.0
734.96,91.0
735.02,100.0
735.08,97.0
735.15,107.0
735.21,125.0
735.27,96.0
735.34,96.0
735.4,77.0
735.46,88.0
735.52,77.0
735.59,92.0
735.65,94.0
735.71,69.0
735.78,86.0
735.84,95.0
735.9,65.0
735.97,63.0
736.03,49.0
736.09,67.0
736.15,88.0
736.22,80.0
736.28,68.0
736.34,56.0
736.41,61.0
736.47,52.0
736.53,67.0
736.6,68.0
736.66,78.0
736.72,80.0
736.78,75.0
736.85,83.0
736.91,70.0
736.97,63.0
737.04,63.0
737.1,93.0
737.16,69.0
737.23,78.0
737.29,72.0
737.35,78.0
737.41,100.0
737.48,114.0
737.54,108.0
737.6,126.0
737.67,117.0
737.73,114.0
737.79,118.0
737.86,103.0
737.92,124.0
737.98,118.0
738.04,112.0
738.11,147.0
738.17,124.0
738.23,133.0
738.3,146.0
738.36,125.0
738.42,158.0
738.49,132.0
738.55,122.0
738.61,135.0
738.67,144.0
738.74,132.0
738.8,131.0
738.86,144.0
738.93,132.0
738.99,133.0
739.05,150.0
739.12,151.0
739.18,132.0
739.24,155.0
739.3,150.0
739.37,134.0
739.43,136.0
739.49,146.0
739.56,148.0
739.62,137.0
739.68,151.0
739.75,141.0
739.81,152.0
739.87,151.0
739.93,136.0
740.0,123.0
740.06,146.0
740.12,139.0
740.19,133.0
740.25,150.0
740.31,161.0
740.38,161.0
740.44,169.0
740.5,178.0
740.56,168.0
740.63,169.0
740.69,169.0
740.75,188.0
740.82,173.0
740.88,169.0
740.94,188.0
741.01,181.0
741.07,169.0
741.13,181.0
741.19,170.0
741.26,158.0
741.32,156.0
741.38,162.0
741.45,157.0
741.51,158.0
741.57,143.0
741.64,132.0
741.7,141.0
741.76,142.0
741.82,151.0
741.89,137.0
741.95,130.0
742.01,152.0
742.08,138.0
742.14,137.0
742.2,142.0
742.27,138.0
742.33,151.0
742.39,129.0
742.45,140.0
742.52,120.0
742.58,139.0
742.64,118.0
742.71,133.0
742.77,138.0
742.83,110.0
742.9,115.0
742.96,115.0
743.02,111.0
743.08,121.0
743.15,130.0
743.21,114.0
743.27,96.0
743.34,112.0
743.4,97.0
743.46,100.0
743.53,116.0
743.59,90.0
743.65,73.0
743.71,98.0
743.78,83.0
743.84,91.0
743.9,103.0
743.97,80.0
744.03,80.0
744.09,75.0
744.16,86.0
744.22,79.0
744.28,72.0
744.34,72.0
744.41,88.0
744.47,86.0
744.53,79.0
744.6,75.0
744.66,56.0
744.72,41.0
744.79,50.0
744.85,73.0
744.91,66.0
744.97,54.0
745.04,53.0
745.1,69.0
745.16,58.0
745.23,65.0
745.29,68.0
745.35,63.0
745.42,60.0
745.48,69.0
745.54,79.0
745.6,80.0
745.67,81.0
745.73,83.0
745.79,71.0
745.86,75.0
745.92,79.0
745.98,85.0
746.05,74.0
746.11,76.0
746.17,90.0
746.23,102.0
746.3,99.0
746.36,108.0
746.42,100.0
746.49,127.0
746.55,113.0
746.61,104.0
746.68,112.0
746.74,103.0
746.8,89.0
746.86,100.0
746.93,101.0
746.99,76.0
747.05,70.0
747.12,88.0
747.18,91.0
747.24,96.0
747.31,94.0
747.37,95.0
747.43,85.0
747.49,86.0
747.56,85.0
747.62,89.0
747.68,80.0
747.75,77.0
747.81,56.0
747.87,60.0
747.94,66.0
748.0,77.0
748.06,83.0
748.12,86.0
748.19,91.0
748.25,66.0
748.31,66.0
748.38,70.0
748.44,82.0
748.5,77.0
748.57,59.0
748.63,70.0
748.69,78.0
748.75,82.0
748.82,72.0
748.88,71.0
748.94,81.0
749.01,57.0
749.07,56.0
749.13,55.0
749.2,62.0
749.26,53.0
749.32,69.0
749.38,55.0
749.45,56.0
749.51,50.0
749.57,43.0
749.64,59.0
749.7,63.0
749.76,60.0
749.83,70.0
749.89,60.0
749.95,63.0
750.01,75.0
750.08,72.0
750.14,69.0
750.2,74.0
750.27,79.0
750.33,81.0
750.39,84.0
750.46,80.0
750.52,59.0
750.58,70.0
750.64,90.0
750.71,74.0
750.77,75.0
750.83,90.0
750.9,67.0
750.96,54.0
751.02,60.0
751.09,71.0
751.15,71.0
751.21,64.0
751.27,75.0
751.34,66.0
751.4,65.0
751.46,53.0
751.53,61.0
751.59,73.0
751.65,75.0
751.72,70.0
751.78,64.0
751.84,72.0
751.9,78.0
751.97,75.0
752.03,45.0
752.09,59.0
752.16,53.0
752.22,48.0
752.28,58.0
752.35,47.0
752.41,49.0
752.47,59.0
752.53,72.0
752.6,44.0
752.66,39.0
752.72,52.0
752.79,60.0
752.85,75.0
752.91,86.0
752.98,78.0
753.04,66.0
753.1,79.0
753.16,88.0
753.23,80.0
753.29,79.0
753.35,91.0
753.42,62.0
753.48,60.0
753.54,78.0
753.61,70.0
753.67,75.0
753.73,57.0
753.79,53.0
753.86,53.0
753.92,46.0
753.98,92.0
754.05,111.0
754.11,93.0
754.17,93.0
754.24,76.0
754.3,55.0
754.36,58.0
754.42,72.0
754.49,72.0
754.55,71.0
754.61,61.0
754.68,77.0
754.74,79.0
754.8,70.0
754.87,65.0
754.93,83.0
754.99,96.0
755.05,92.0
755.12,99.0
755.18,115.0
755.24,96.0
755.31,81.0
755.37,105.0
755.43,97.0
755.5,86.0
755.56,85.0
755.62,96.0
755.68,102.0
755.75,138.0
755.81,132.0
755.87,136.0
755.94,129.0
756.0,120.0
756.06,162.0
756.13,144.0
756.19,125.0
756.25,136.0
756.31,112.0
756.38,127.0
756.44,133.0
756.5,124.0
756.57,168.0
756.63,169.0
756.69,168.0
756.76,159.0
756.82,155.0
756.88,159.0
756.94,152.0
757.01,143.0
757.07,169.0
757.13,174.0
757.2,173.0
757.26,169.0
757.32,150.0
757.39,176.0
757.45,169.0
757.51,165.0
757.57,171.0
757.64,183.0
757.7,188.0
757.76,171.0
757.83,164.0
757.89,165.0
757.95,167.0
758.02,182.0
758.08,192.0
758.14,195.0
758.2,179.0
758.27,179.0
758.33,184.0
758.39,209.0
758.46,191.0
758.52,177.0
758.58,163.0
758.65,166.0
758.71,150.0
758.77,166.0
758.83,141.0
758.9,145.0
758.96,144.0
759.02,152.0
759.09,152.0
759.15,153.0
759.21,137.0
759.28,122.0
759.34,139.0
759.4,123.0
759.46,121.0
759.53,130.0
759.59,118.0
759.65,102.0
759.72,122.0
759.78,126.0
759.84,107.0
759.91,112.0
759.97,111.0
760.03,102.0
760.09,119.0
760.16,97.0
760.22,85.0
760.28,86.0
760.35,74.0
760.41,103.0
760.47,89.0
760.54,108.0
760.6,106.0
760.66,114.0
760.72,119.0
760.79,123.0
760.85,96.0
760.91,96.0
760.98,94.0
761.04,111.0
761.1,115.0
761.17,118.0
761.23,101.0
761.29,114.0
761.35,105.0
761.42,90.0
761.48,79.0
761.54,91.0
761.61,116.0
761.67,118.0
761.73,103.0
761.8,118.0
761.86,127.0
761.92,126.0
761.98,109.0
762.05,107.0
762.11,109.0
762.17,122.0
762.24,122.0
762.3,106.0
762.36,116.0
762.43,108.0
762.49,112.0
762.55,117.0
762.61,153.0
762.68,134.0
762.74,124.0
762.8,117.0
762.87,127.0
762.93,132.0
762.99,141.0
763.06,149.0
763.12,147.0
763.18,119.0
763.24,109.0
763.31,111.0
763.37,92.0
763.43,122.0
763.5,122.0
763.56,108.0
763.62,113.0
763.69,96.0
763.75,106.0
763.81,111.0
763.87,103.0
763.94,114.0
764.0,104.0
764.06,99.0
764.13,96.0
764.19,90.0
764.25,73.0
764.32,83.0
764.38,66.0
764.44,77.0
764.5,77.0
764.57,60.0
764.63,55.0
764.69,78.0
764.76,70.0
764.82,52.0
764.88,70.0
764.95,54.0
765.01,56.0
765.07,67.0
765.13,71.0
765.2,67.0
765.26,49.0
765.32,74.0
765.39,82.0
765.45,107.0
765.51,102.0
765.58,74.0
765.64,83.0
765.7,77.0
765.76,68.0
765.83,77.0
765.89,85.0
765.95,76.0
766.02,93.0
766.08,85.0
766.14,76.0
766.21,74.0
766.27,90.0
766.33,80.0
766.39,59.0
766.46,75.0
766.52,67.0
766.58,66.0
766.65,70.0
766.71,70.0
766.77,62.0
766.84,72.0
766.9,59.0
766.96,60.0
767.02,53.0
767.09,65.0
767.15,71.0
767.21,75.0
767.28,63.0
767.34,69.0
767.4,88.0
767.47,74.0
767.53,65.0
767.59,78.0
767.65,74.0
767.72,77.0
767.78,56.0
767.84,56.0
767.91,71.0
767.97,78.0
768.03,58.0
768.1,57.0
768.16,78.0
768.22,69.0
768.28,64.0
768.35,74.0
768.41,81.0
768.47,77.0
768.54,69.0
768.6,80.0
768.66,81.0
768.73,72.0
768.79,83.0
768.85,83.0
768.91,50.0
768.98,69.0
769.04,25.0
769.1,51.0
769.17,59.0
769.23,63.0
769.29,72.0
769.36,57.0
769.42,57.0
769.48,61.0
769.54,53.0
769.61,34.0
769.67,39.0
769.73,27.0
769.8,58.0
769.86,54.0
769.92,67.0
769.99,59.0
770.05,63.0
770.11,56.0
770.17,34.0
770.24,34.0
770.3,47.0
770.36,38.0
770.43,44.0
770.49,36.0
770.55,62.0
770.62,58.0
770.68,50.0
770.74,61.0
770.8,64.0
770.87,80.0
770.93,68.0
770.99,64.0
771.06,72.0
771.12,76.0
771.18,85.0
771.25,78.0
771.31,104.0
771.37,118.0
771.43,102.0
771.5,76.0
771.56,87.0
771.62,88.0
771.69,67.0
771.75,90.0
771.81,90.0
771.88,68.0
771.94,60.0
772.0,47.0
772.06,61.0
772.13,68.0
772.19,98.0
772.25,90.0
772.32,99.0
772.38,96.0
772.44,111.0
772.51,116.0
772.57,128.0
772.63,114.0
772.69,126.0
772.76,135.0
772.82,108.0
772.88,127.0
772.95,115.0
773.01,127.0
773.07,126.0
773.14,130.0
773.2,126.0
773.26,100.0
773.32,120.0
773.39,121.0
773.45,115.0
773.51,134.0
773.58,137.0
773.64,120.0
773.7,129.0
773.77,162.0
773.83,137.0
773.89,138.0
773.95,135.0
774.02,158.0
774.08,174.0
774.14,143.0
774.21,139.0
774.27,154.0
774.33,153.0
774.4,169.0
774.46,163.0
774.52,149.0
774.58,149.0
774.65,133.0
774.71,131.0
774.77,128.0
774.84,131.0
774.9,114.0
774.96,104.0
775.03,112.0
775.09,90.0
775.15,91.0
775.21,89.0
775.28,91.0
775.34,101.0
775.4,88.0
775.47,100.0
775.53,86.0
775.59,75.0
775.66,75.0
775.72,99.0
775.78,89.0
775.84,92.0
775.91,86.0
775.97,85.0
776.03,85.0
776.1,99.0
776.16,106.0
776.22,94.0
776.29,87.0
776.35,87.0
776.41,96.0
776.47,82.0
776.54,92.0
776.6,106.0
776.66,104.0
776.73,126.0
776.79,111.0
776.85,97.0
776.92,94.0
776.98,92.0
777.04,121.0
777.1,113.0
777.17,105.0
777.23,122.0
777.29,111.0
777.36,96.0
777.42,96.0
777.48,82.0
777.55,93.0
777.61,83.0
777.67,78.0
777.73,96.0
777.8,90.0
777.86,96.0
777.92,72.0
777.99,80.0
778.05,88.0
778.11,101.0
778.18,89.0
778.24,79.0
778.3,92.0
778.36,100.0
778.43,84.0
778.49,75.0
778.55,95.0
778.62,72.0
778.68,109.0
778.74,100.0
778.81,90.0
778.87,109.0
778.93,102.0
778.99,100.0
779.06,113.0
779.12,118.0
779.18,116.0
779.25,109.0
779.31,115.0
779.37,107.0
779.44,109.0
779.5,121.0
779.56,91.0
779.62,91.0
779.69,95.0
779.75,96.0
779.81,98.0
779.88,102.0
779.94,117.0
780.0,103.0
780.07,103.0
780.13,107.0
780.19,115.0
780.25,100.0
780.32,90.0
780.38,90.0
780.44,88.0
780.51,71.0
780.57,65.0
780.63,79.0
780.7,88.0
780.76,68.0
780.82,50.0
780.88,77.0
780.95,89.0
781.01,74.0
781.07,85.0
781.14,77.0
781.2,93.0
781.26,72.0
781.33,64.0
781.39,83.0
781.45,91.0
781.51,105.0
781.58,89.0
781.64,89.0
781.7,100.0
781.77,72.0
781.83,64.0
781.89,58.0
781.96,64.0
782.02,66.0
782.08,60.0
782.14,64.0
782.21,38.0
782.27,43.0
782.33,46.0
782.4,22.0
782.46,23.0
782.52,26.0
782.59,44.0
782.65,56.0
782.71,59.0
782.77,62.0
782.84,65.0
782.9,58.0
782.96,53.0
783.03,67.0
783.09,73.0
783.15,71.0
783.22,51.0
783.28,79.0
783.34,53.0
783.4,43.0
783.47,81.0
783.53,70.0
783.59,84.0
783.66,86.0
783.72,89.0
783.78,77.0
783.85,83.0
783.91,81.0
783.97,82.0
784.03,58.0
784.1,52.0
784.16,74.0
784.22,71.0
784.29,97.0
784.35,89.0
784.41,83.0
784.48,83.0
784.54,88.0
784.6,92.0
784.66,71.0
784.73,68.0
784.79,78.0
784.85,66.0
784.92,68.0
784.98,70.0
785.04,82.0
785.11,82.0
785.17,67.0
785.23,82.0
785.29,86.0
785.36,84.0
785.42,63.0
785.48,73.0
785.55,70.0
785.61,79.0
785.67,82.0
785.74,67.0
785.8,83.0
785.86,89.0
785.92,79.0
785.99,74.0
786.05,79.0
786.11,94.0
786.18,86.0
786.24,89.0
786.3,88.0
786.37,72.0
786.43,63.0
786.49,82.0
786.55,73.0
786.62,63.0
786.68,48.0
786.74,66.0
786.81,72.0
786.87,80.0
786.93,74.0
787.0,83.0
787.06,87.0
787.12,98.0
787.18,88.0
787.25,96.0
787.31,89.0
787.37,92.0
787.44,91.0
787.5,82.0
787.56,99.0
787.63,112.0
787.69,113.0
787.75,128.0
787.81,135.0
787.88,117.0
787.94,113.0
788.0,118.0
788.07,100.0
788.13,104.0
788.19,97.0
788.26,96.0
788.32,107.0
788.38,99.0
788.44,100.0
788.51,82.0
788.57,96.0
788.63,104.0
788.7,113.0
788.76,93.0
788.82,88.0
788.89,99.0
788.95,86.0
789.01,82.0
789.07,91.0
789.14,90.0
789.2,98.0
789.26,89.0
789.33,92.0
789.39,88.0
789.45,76.0
789.52,84.0
789.58,82.0
789.64,93.0
789.7,102.0
789.77,86.0
789.83,82.0
789.89,108.0
789.96,102.0
790.02,107.0
790.08,113.0
790.15,85.0
790.21,93.0
790.27,97.0
790.33,112.0
790.4,103.0
790.46,115.0
790.52,93.0
790.59,98.0
790.65,107.0
790.71,117.0
790.78,119.0
790.84,102.0
790.9,119.0
790.96,126.0
791.03,125.0
791.09,120.0
791.15,121.0
791.22,140.0
791.28,149.0
791.34,130.0
791.41,116.0
791.47,113.0
791.53,109.0
791.59,91.0
791.66,114.0
791.72,121.0
791.78,123.0
791.85,133.0
791.91,132.0
791.97,134.0
792.04,113.0
792.1,124.0
792.16,121.0
792.22,118.0
792.29,111.0
792.35,110.0
792.41,121.0
792.48,115.0
792.54,125.0
792.6,135.0
792.67,104.0
792.73,107.0
792.79,129.0
792.85,113.0
792.92,117.0
792.98,122.0
793.04,110.0
793.11,108.0
793.17,121.0
793.23,121.0
793.3,105.0
793.36,104.0
793.42,102.0
793.48,111.0
793.55,118.0
793.61,135.0
793.67,151.0
793.74,109.0
793.8,107.0
793.86,114.0
793.93,108.0
793.99,119.0
794.05,121.0
794.11,105.0
794.18,115.0
794.24,104.0
794.3,81.0
794.37,86.0
794.43,98.0
794.49,95.0
794.56,109.0
794.62,102.0
794.68,103.0
794.74,89.0
794.81,108.0
794.87,110.0
794.93,102.0
795.0,103.0
795.06,113.0
795.12,97.0
795.19,82.0
795.25,102.0
795.31,84.0
795.37,75.0
795.44,77.0
795.5,88.0
795.56,75.0
795.63,87.0
795.69,86.0
795.75,88.0
795.82,78.0
795.88,93.0
795.94,89.0
796.0,90.0
796.07,72.0
796.13,96.0
796.19,108.0
796.26,86.0
796.32,81.0
796.38,80.0
796.45,102.0
796.51,97.0
796.57,92.0
796.63,82.0
796.7,74.0
796.76,78.0
796.82,93.0
796.89,98.0
796.95,93.0
797.01,99.0
797.08,100.0
797.14,90.0
797.2,88.0
797.26,70.0
797.33,78.0
797.39,86.0
797.45,104.0
797.52,82.0
797.58,79.0
797.64,67.0
797.71,68.0
797.77,63.0
797.83,79.0
797.89,86.0
797.96,69.0
798.02,80.0
798.08,74.0
798.15,74.0
798.21,65.0
798.27,69.0
798.34,83.0
798.4,88.0
798.46,85.0
798.52,85.0
798.59,76.0
798.65,78.0
798.71,88.0
798.78,90.0
798.84,80.0
798.9,93.0
798.97,87.0
799.03,72.0
799.09,81.0
799.15,78.0
799.22,80.0
799.28,63.0
799.34,75.0
799.41,92.0
799.47,73.0
799.53,71.0
799.6,78.0
799.66,72.0
799.72,89.0
799.78,94.0
799.85,89.0
799.91,78.0
799.97,47.0
800.04,53.0
800.1,70.0
800.16,58.0
800.23,63.0
800.29,56.0
800.35,67.0
800.41,52.0
800.48,34.0
800.54,37.0
800.6,49.0
800.67,56.0
800.73,40.0
800.79,54.0
800.86,61.0
800.92,57.0
800.98,47.0
801.04,33.0
801.11,34.0
801.17,31.0
801.23,37.0
801.3,22.0
801.36,4.0
801.42,-3.0
801.49,19.0
801.55,19.0
801.61,9.0
801.67,28.0
801.74,25.0
801.8,45.0
801.86,35.0
801.93,42.0
801.99,23.0
802.05,33.0
802.12,42.0
802.18,44.0
802.24,27.0
802.3,26.0
802.37,42.0
802.43,36.0
802.49,40.0
802.56,35.0
802.62,31.0
802.68,18.0
802.75,50.0
802.81,53.0
802.87,49.0
802.93,36.0
803.0,37.0
803.06,45.0
803.12,45.0
803.19,35.0
803.25,33.0
803.31,30.0
803.38,27.0
803.44,19.0
803.5,12.0
803.56,34.0
803.63,57.0
803.69,49.0
803.75,63.0
803.82,53.0
803.88,63.0
803.94,42.0
804.01,38.0
804.07,71.0
804.13,72.0
804.19,64.0
804.26,41.0
804.32,37.0
804.38,43.0
804.45,58.0
804.51,60.0
804.57,63.0
804.64,57.0
804.7,36.0
804.76,54.0
804.82,55.0
804.89,50.0
804.95,48.0
805.01,63.0
805.08,54.0
805.14,62.0
805.2,67.0
805.27,67.0
805.33,77.0
805.39,90.0
805.45,82.0
805.52,89.0
805.58,94.0
805.64,68.0
805.71,66.0
805.77,68.0
805.83,74.0
805.9,72.0
805.96,58.0
806.02,72.0
806.08,88.0
806.15,78.0
806.21,70.0
806.27,70.0
806.34,61.0
806.4,69.0
806.46,84.0
806.53,82.0
806.59,89.0
806.65,89.0
806.71,83.0
806.78,88.0
806.84,80.0
806.9,89.0
806.97,79.0
807.03,92.0
807.09,80.0
807.16,110.0
807.22,130.0
807.28,101.0
807.34,103.0
807.41,114.0
807.47,118.0
807.53,100.0
807.6,117.0
807.66,92.0
807.72,108.0
807.79,132.0
807.85,136.0
807.91,138.0
807.97,124.0
808.04,112.0
808.1,110.0
808.16,108.0
808.23,101.0
808.29,116.0
808.35,134.0
808.42,125.0
808.48,147.0
808.54,141.0
808.6,130.0
808.67,136.0
808.73,153.0
808.79,147.0
808.86,158.0
808.92,166.0
808.98,149.0
809.05,149.0
809.11,145.0
809.17,151.0
809.23,138.0
809.3,147.0
809.36,144.0
809.42,121.0
809.49,125.0
809.55,118.0
809.61,136.0
809.68,127.0
809.74,128.0
809.8,128.0
809.86,110.0
809.93,117.0
809.99,111.0
810.05,116.0
810.12,130.0
810.18,120.0
810.24,138.0
810.31,143.0
810.37,141.0
810.43,159.0
810.49,139.0
810.56,146.0
810.62,122.0
810.68,134.0
810.75,136.0
810.81,142.0
810.87,136.0
810.94,114.0
811.0,114.0
811.06,89.0
811.12,90.0
811.19,106.0
811.25,119.0
811.31,108.0
811.38,102.0
811.44,88.0
811.5,103.0
811.57,89.0
811.63,88.0
811.69,92.0
811.75,97.0
811.82,137.0
811.88,122.0
811.94,129.0
812.01,135.0
812.07,134.0
812.13,131.0
812.2,125.0
812.26,134.0
812.32,123.0
812.38,94.0
812.45,87.0
812.51,96.0
812.57,84.0
812.64,90.0
812.7,113.0
812.76,128.0
812.83,116.0
812.89,120.0
812.95,131.0
813.01,121.0
813.08,134.0
813.14,145.0
813.2,143.0
813.27,136.0
813.33,146.0
813.39,140.0
813.46,155.0
813.52,163.0
813.58,147.0
813.64,152.0
813.71,156.0
813.77,141.0
813.83,152.0
813.9,147.0
813.96,152.0
814.02,156.0
814.09,153.0
814.15,152.0
814.21,151.0
814.27,130.0
814.34,120.0
814.4,129.0
814.46,130.0
814.53,118.0
814.59,116.0
814.65,129.0
814.72,117.0
814.78,141.0
814.84,136.0
814.9,149.0
814.97,139.0
815.03,132.0
815.09,144.0
815.16,125.0
815.22,139.0
815.28,156.0
815.35,139.0
815.41,114.0
815.47,116.0
815.53,110.0
815.6,113.0
815.66,91.0
815.72,80.0
815.79,102.0
815.85,106.0
815.91,109.0
815.98,103.0
816.04,77.0
816.1,85.0
816.16,105.0
816.23,105.0
816.29,88.0
816.35,89.0
816.42,89.0
816.48,92.0
816.54,92.0
816.61,92.0
816.67,70.0
816.73,91.0
816.79,59.0
816.86,70.0
816.92,79.0
816.98,77.0
817.05,85.0
817.11,74.0
817.17,67.0
817.24,78.0
817.3,77.0
817.36,82.0
817.42,80.0
817.49,82.0
817.55,72.0
817.61,78.0
817.68,85.0
817.74,89.0
817.8,100.0
817.87,88.0
817.93,75.0
817.99,80.0
818.05,88.0
818.12,92.0
818.18,91.0
818.24,100.0
818.31,89.0
818.37,81.0
818.43,83.0
818.5,85.0
818.56,86.0
818.62,98.0
818.68,110.0
818.75,110.0
818.81,100.0
818.87,95.0
818.94,98.0
819.0,100.0
819.06,79.0
819.13,109.0
819.19,96.0
819.25,112.0
819.31,114.0
819.38,104.0
819.44,106.0
819.5,89.0
819.57,91.0
819.63,74.0
819.69,88.0
819.76,99.0
819.82,70.0
819.88,84.0
819.94,75.0
820.01,93.0
820.07,84.0
820.13,90.0
820.2,102.0
820.26,102.0
820.32,112.0
820.39,117.0
820.45,116.0
820.51,116.0
820.57,117.0
820.64,114.0
820.7,110.0
820.76,110.0
820.83,128.0
820.89,114.0
820.95,112.0
821.02,100.0
821.08,100.0
821.14,88.0
821.2,78.0
821.27,80.0
821.33,66.0
821.39,84.0
821.46,89.0
821.52,85.0
821.58,99.0
821.65,85.0
821.71,80.0
821.77,89.0
821.83,105.0
821.9,105.0
821.96,94.0
822.02,111.0
822.09,118.0
822.15,106.0
822.21,105.0
822.28,88.0
822.34,101.0
822.4,90.0
822.46,108.0
822.53,105.0
822.59,111.0
822.65,137.0
822.72,132.0
822.78,118.0
822.84,110.0
822.91,100.0
822.97,140.0
823.03,161.0
823.09,154.0
823.16,130.0
823.22,126.0
823.28,130.0
823.35,133.0
823.41,143.0
823.47,132.0
823.54,141.0
823.6,158.0
823.66,141.0
823.72,148.0
823.79,164.0
823.85,148.0
823.91,155.0
823.98,163.0
824.04,173.0
824.1,146.0
824.17,157.0
824.23,167.0
824.29,170.0
824.35,176.0
824.42,170.0
824.48,154.0
824.54,172.0
824.61,183.0
824.67,154.0
824.73,158.0
824.8,183.0
824.86,148.0
824.92,154.0
824.98,156.0
825.05,147.0
825.11,151.0
825.17,142.0
825.24,129.0
825.3,122.0
825.36,118.0
825.43,139.0
825.49,132.0
825.55,137.0
825.61,143.0
825.68,154.0
825.74,154.0
825.8,139.0
825.87,125.0
825.93,149.0
825.99,136.0
826.06,139.0
826.12,150.0
826.18,148.0
826.24,121.0
826.31,119.0
826.37,114.0
826.43,130.0
826.5,125.0
826.56,120.0
826.62,94.0
826.69,114.0
826.75,124.0
826.81,103.0
826.87,126.0
826.94,130.0
827.0,128.0
827.06,122.0
827.13,105.0
827.19,102.0
827.25,107.0
827.32,116.0
827.38,103.0
827.44,92.0
827.5,88.0
827.57,107.0
827.63,111.0
827.69,86.0
827.76,97.0
827.82,80.0
827.88,88.0
827.95,82.0
828.01,81.0
828.07,67.0
828.13,86.0
828.2,96.0
828.26,72.0
828.32,67.0
828.39,73.0
828.45,56.0
828.51,56.0
828.58,69.0
828.64,75.0
828.7,78.0
828.76,67.0
828.83,69.0
828.89,73.0
828.95,74.0
829.02,82.0
829.08,63.0
829.14,85.0
829.21,72.0
829.27,70.0
829.33,83.0
829.39,77.0
829.46,74.0
829.52,62.0
829.58,52.0
829.65,77.0
829.71,62.0
829.77,66.0
829.84,73.0
829.9,74.0
829.96,86.0
830.02,66.0
830.09,71.0
830.15,99.0
830.21,77.0
830.28,89.0
830.34,89.0
830.4,73.0
830.47,83.0
830.53,91.0
830.59,82.0
830.65,75.0
830.72,60.0
830.78,58.0
830.84,75.0
830.91,77.0
830.97,65.0
831.03,70.0
831.1,66.0
831.16,70.0
831.22,74.0
831.28,63.0
831.35,62.0
831.41,69.0
831.47,67.0
831.54,66.0
831.6,64.0
831.66,55.0
831.73,36.0
831.79,48.0
831.85,41.0
831.91,35.0
831.98,53.0
832.04,30.0
832.1,39.0
832.17,39.0
832.23,38.0
832.29,70.0
832.36,53.0
832.42,62.0
832.48,52.0
832.54,45.0
832.61,58.0
832.67,59.0
832.73,84.0
832.8,77.0
832.86,63.0
832.92,55.0
832.99,53.0
833.05,44.0
833.11,37.0
833.17,55.0
833.24,53.0
833.3,62.0
833.36,55.0
833.43,53.0
833.49,44.0
833.55,47.0
833.62,63.0
833.68,57.0
833.74,51.0
833.8,45.0
833.87,36.0
833.93,42.0
833.99,22.0
834.06,40.0
834.12,48.0
834.18,40.0
834.25,29.0
834.31,15.0
834.37,17.0
834.43,19.0
834.5,22.0
834.56,19.0
834.62,14.0
834.69,0.0
834.75,6.0
834.81,25.0
834.88,33.0
834.94,26.0
835.0,25.0
835.06,27.0
835.13,58.0
835.19,43.0
835.25,33.0
835.32,56.0
835.38,32.0
835.44,37.0
835.51,37.0
835.57,48.0
835.63,51.0
835.69,70.0
835.76,71.0
835.82,58.0
835.88,50.0
835.95,49.0
836.01,42.0
836.07,48.0
836.14,56.0
836.2,62.0
836.26,61.0
836.32,57.0
836.39,44.0
836.45,54.0
836.51,70.0
836.58,52.0
836.64,57.0
836.7,48.0
836.77,81.0
836.83,82.0
836.89,90.0
836.95,96.0
837.02,87.0
837.08,68.0
837.14,63.0
837.21,55.0
837.27,51.0
837.33,64.0
837.4,58.0
837.46,62.0
837.52,60.0
837.58,57.0
837.65,56.0
837.71,55.0
837.77,61.0
837.84,82.0
837.9,77.0
837.96,62.0
838.03,79.0
838.09,62.0
838.15,55.0
838.21,46.0
838.28,42.0
838.34,57.0
838.4,58.0
838.47,67.0
838.53,97.0
838.59,86.0
838.66,114.0
838.72,120.0
838.78,119.0
838.84,113.0
838.91,107.0
838.97,106.0
839.03,105.0
839.1,110.0
839.16,125.0
839.22,141.0
839.29,124.0
839.35,116.0
839.41,125.0
839.47,130.0
839.54,128.0
839.6,118.0
839.66,112.0
839.73,124.0
839.79,138.0
839.85,132.0
839.92,132.0
839.98,143.0
840.04,144.0
840.1,131.0
840.17,127.0
840.23,131.0
840.29,135.0
840.36,118.0
840.42,110.0
840.48,118.0
840.55,131.0
840.61,120.0
840.67,123.0
840.73,137.0
840.8,146.0
840.86,149.0
840.92,133.0
840.99,130.0
841.05,115.0
841.11,114.0
841.18,130.0
841.24,126.0
841.3,121.0
841.36,117.0
841.43,128.0
841.49,127.0
841.55,139.0
841.62,114.0
841.68,100.0
841.74,130.0
841.81,127.0
841.87,113.0
841.93,107.0
841.99,143.0
842.06,132.0
842.12,100.0
842.18,105.0
842.25,91.0
842.31,97.0
842.37,81.0
842.44,108.0
842.5,121.0
842.56,105.0
842.62,95.0
842.69,110.0
842.75,115.0
842.81,104.0
842.88,96.0
842.94,107.0
843.0,121.0
843.07,119.0
843.13,114.0
843.19,116.0
843.25,131.0
843.32,107.0
843.38,124.0
843.44,117.0
843.51,105.0
843.57,121.0
843.63,110.0
843.7,116.0
843.76,112.0
843.82,99.0
843.88,101.0
843.95,97.0
844.01,103.0
844.07,114.0
844.14,112.0
844.2,113.0
844.26,94.0
844.33,99.0
844.39,106.0
844.45,88.0
844.51,91.0
844.58,89.0
844.64,96.0
844.7,122.0
844.77,106.0
844.83,83.0
844.89,99.0
844.96,112.0
845.02,101.0
845.08,108.0
845.14,107.0
845.21,110.0
845.27,95.0
845.33,96.0
845.4,106.0
845.46,112.0
845.52,98.0
845.59,100.0
845.65,96.0
845.71,111.0
845.77,127.0
845.84,124.0
845.9,118.0
845.96,113.0
846.03,114.0
846.09,121.0
846.15,107.0
846.22,101.0
846.28,119.0
846.34,108.0
846.4,118.0
846.47,122.0
846.53,125.0
846.59,117.0
846.66,140.0
846.72,98.0
846.78,106.0
846.85,117.0
846.91,97.0
846.97,115.0
847.03,113.0
847.1,100.0
847.16,110.0
847.22,136.0
847.29,127.0
847.35,122.0
847.41,106.0
847.48,113.0
847.54,111.0
847.6,97.0
847.66,108.0
847.73,111.0
847.79,119.0
847.85,91.0
847.92,101.0
847.98,103.0
848.04,118.0
848.11,121.0
848.17,103.0
848.23,108.0
848.29,103.0
848.36,104.0
848.42,105.0
848.48,111.0
848.55,108.0
848.61,107.0
848.67,106.0
848.74,104.0
848.8,116.0
848.86,93.0
848.92,103.0
848.99,119.0
849.05,112.0
849.11,119.0
849.18,102.0
849.24,129.0
849.3,110.0
849.37,91.0
849.43,105.0
849.49,94.0
849.55,111.0
849.62,110.0
849.68,84.0
849.74,100.0
849.81,96.0
849.87,108.0
849.93,112.0
850.0,88.0
850.06,99.0
850.12,92.0
850.18,70.0
850.25,85.0
850.31,81.0
850.37,83.0
850.44,91.0
850.5,102.0
850.56,80.0
850.63,76.0
850.69,89.0
850.75,90.0
850.81,70.0
850.88,69.0
850.94,73.0
851.0,60.0
851.07,55.0
851.13,81.0
851.19,72.0
851.26,81.0
851.32,78.0
851.38,59.0
851.44,52.0
851.51,51.0
851.57,55.0
851.63,66.0
851.7,62.0
851.76,56.0
851.82,74.0
851.89,69.0
851.95,62.0
852.01,65.0
852.07,44.0
852.14,55.0
852.2,64.0
852.26,54.0
852.33,57.0
852.39,67.0
852.45,43.0
852.52,52.0
852.58,56.0
852.64,34.0
852.7,30.0
852.77,24.0
852.83,53.0
852.89,61.0
852.96,52.0
853.02,51.0
853.08,46.0
853.15,46.0
853.21,37.0
853.27,48.0
853.33,50.0
853.4,37.0
853.46,35.0
853.52,41.0
853.59,22.0
853.65,28.0
853.71,40.0
853.78,34.0
853.84,37.0
853.9,52.0
853.96,37.0
854.03,53.0
854.09,41.0
854.15,59.0
854.22,44.0
854.28,23.0
854.34,32.0
854.41,22.0
854.47,36.0
854.53,38.0
854.59,48.0
854.66,54.0
854.72,44.0
854.78,64.0
854.85,80.0
854.91,68.0
854.97,65.0
855.04,58.0
855.1,69.0
855.16,61.0
855.22,60.0
855.29,75.0
855.35,67.0
855.41,55.0
855.48,52.0
855.54,61.0
855.6,62.0
855.67,63.0
855.73,69.0
855.79,75.0
855.85,74.0
855.92,72.0
855.98,85.0
856.04,90.0
856.11,81.0
856.17,95.0
856.23,83.0
856.3,77.0
856.36,85.0
856.42,85.0
856.48,99.0
856.55,99.0
856.61,100.0
856.67,117.0
856.74,118.0
856.8,90.0
856.86,77.0
856.93,74.0
856.99,87.0
857.05,88.0
857.11,99.0
857.18,109.0
857.24,97.0
857.3,106.0
857.37,99.0
857.43,85.0
857.49,105.0
857.56,120.0
857.62,117.0
857.68,108.0
857.74,105.0
857.81,113.0
857.87,129.0
857.93,121.0
858.0,135.0
858.06,121.0
858.12,130.0
858.19,99.0
858.25,120.0
858.31,137.0
858.37,113.0
858.44,156.0
858.5,142.0
858.56,138.0
858.63,129.0
858.69,116.0
858.75,112.0
858.82,110.0
858.88,114.0
858.94,119.0
859.0,109.0
859.07,93.0
859.13,103.0
859.19,85.0
859.26,92.0
859.32,119.0
859.38,117.0
859.45,109.0
859.51,114.0
859.57,117.0
859.63,121.0
859.7,141.0
859.76,117.0
859.82,120.0
859.89,132.0
859.95,128.0
860.01,136.0
860.08,143.0
860.14,148.0
860.2,141.0
860.26,130.0
860.33,136.0
860.39,146.0
860.45,134.0
860.52,133.0
860.58,117.0
860.64,122.0
860.71,131.0
860.77,128.0
860.83,117.0
860.89,126.0
860.96,117.0
861.02,94.0
861.08,120.0
861.15,113.0
861.21,99.0
861.27,113.0
861.34,126.0
861.4,105.0
861.46,97.0
861.52,119.0
861.59,113.0
861.65,117.0
861.71,100.0
861.78,95.0
861.84,111.0
861.9,88.0
861.97,90.0
862.03,89.0
862.09,85.0
862.15,99.0
862.22,100.0
862.28,108.0
862.34,110.0
862.41,110.0
862.47,101.0
862.53,110.0
862.6,103.0
862.66,128.0
862.72,129.0
862.78,132.0
862.85,132.0
862.91,132.0
862.97,143.0
863.04,138.0
863.1,134.0
863.16,146.0
863.23,141.0
863.29,147.0
863.35,159.0
863.41,127.0
863.48,139.0
863.54,149.0
863.6,141.0
863.67,120.0
863.73,131.0
863.79,147.0
863.86,141.0
863.92,120.0
863.98,124.0
864.04,118.0
864.11,112.0
864.17,128.0
864.23,117.0
864.3,134.0
864.36,127.0
864.42,122.0
864.49,136.0
864.55,149.0
864.61,117.0
864.67,132.0
864.74,125.0
864.8,133.0
864.86,145.0
864.93,132.0
864.99,125.0
865.05,137.0
865.12,136.0
865.18,149.0
865.24,152.0
865.3,160.0
865.37,125.0
865.43,146.0
865.49,154.0
865.56,131.0
865.62,138.0
865.68,139.0
865.75,139.0
865.81,124.0
865.87,87.0
865.93,94.0
866.0,120.0
866.06,137.0
866.12,134.0
866.19,121.0
866.25,141.0
866.31,151.0
866.38,139.0
866.44,146.0
866.5,143.0
866.56,142.0
866.63,147.0
866.69,136.0
866.75,149.0
866.82,158.0
866.88,135.0
866.94,147.0
867.01,145.0
867.07,125.0
867.13,125.0
867.19,112.0
867.26,119.0
867.32,103.0
867.38,118.0
867.45,92.0
867.51,100.0
867.57,94.0
867.64,83.0
867.7,84.0
867.76,77.0
867.82,96.0
867.89,97.0
867.95,97.0
868.01,110.0
868.08,102.0
868.14,114.0
868.2,80.0
868.27,66.0
868.33,58.0
868.39,66.0
868.45,80.0
868.52,90.0
868.58,90.0
868.64,99.0
868.71,93.0
868.77,74.0
868.83,77.0
868.9,76.0
868.96,83.0
869.02,86.0
869.08,84.0
869.15,92.0
869.21,91.0
869.27,85.0
869.34,70.0
869.4,70.0
869.46,83.0
869.53,91.0
869.59,81.0
869.65,77.0
869.71,93.0
869.78,74.0
869.84,68.0
869.9,67.0
869.97,60.0
870.03,69.0
870.09,79.0
870.16,81.0
870.22,73.0
870.28,55.0
870.34,64.0
870.41,61.0
870.47,50.0
870.53,59.0
870.6,58.0
870.66,43.0
870.72,43.0
870.79,46.0
870.85,66.0
870.91,55.0
870.97,62.0
871.04,69.0
871.1,63.0
871.16,48.0
871.23,59.0
871.29,66.0
871.35,62.0
871.42,74.0
871.48,88.0
871.54,72.0
871.6,63.0
871.67,51.0
871.73,62.0
871.79,70.0
871.86,59.0
871.92,75.0
871.98,62.0
872.05,73.0
872.11,81.0
872.17,65.0
872.23,86.0
872.3,61.0
872.36,55.0
872.42,37.0
872.49,55.0
872.55,56.0
872.61,66.0
872.68,73.0
872.74,75.0
872.8,70.0
872.86,62.0
872.93,66.0
872.99,89.0
873.05,77.0
873.12,76.0
873.18,88.0
873.24,93.0
873.31,121.0
873.37,122.0
873.43,131.0
873.49,118.0
873.56,113.0
873.62,118.0
873.68,100.0
873.75,91.0
873.81,110.0
873.87,97.0
873.94,125.0
874.0,133.0
874.06,115.0
874.12,111.0
874.19,110.0
874.25,126.0
874.31,132.0
874.38,125.0
874.44,134.0
874.5,125.0
874.57,105.0
874.63,133.0
874.69,116.0
874.75,118.0
874.82,119.0
874.88,124.0
874.94,134.0
875.01,128.0
875.07,158.0
875.13,180.0
875.2,150.0
875.26,155.0
875.32,140.0
875.38,136.0
875.45,146.0
875.51,137.0
875.57,149.0
875.64,128.0
875.7,155.0
875.76,159.0
875.83,158.0
875.89,173.0
875.95,156.0
876.01,162.0
876.08,169.0
876.14,165.0
876.2,151.0
876.27,145.0
876.33,132.0
876.39,140.0
876.46,143.0
876.52,147.0
876.58,143.0
876.64,134.0
876.71,121.0
876.77,138.0
876.83,135.0
876.9,132.0
876.96,128.0
877.02,124.0
877.09,127.0
877.15,132.0
877.21,132.0
877.27,126.0
877.34,140.0
877.4,135.0
877.46,146.0
877.53,148.0
877.59,148.0
877.65,118.0
877.72,132.0
877.78,138.0
877.84,116.0
877.9,136.0
877.97,112.0
878.03,117.0
878.09,97.0
878.16,90.0
878.22,82.0
878.28,73.0
878.35,81.0
878.41,100.0
878.47,96.0
878.53,90.0
878.6,86.0
878.66,84.0
878.72,105.0
878.79,92.0
878.85,107.0
878.91,106.0
878.98,69.0
879.04,72.0
879.1,71.0
879.16,79.0
879.23,72.0
879.29,69.0
879.35,96.0
879.42,86.0
879.48,96.0
879.54,95.0
879.61,108.0
879.67,83.0
879.73,89.0
879.79,91.0
879.86,73.0
879.92,80.0
879.98,78.0
880.05,85.0
880.11,102.0
880.17,104.0
880.24,114.0
880.3,102.0
880.36,103.0
880.42,102.0
880.49,103.0
880.55,125.0
880.61,103.0
880.68,121.0
880.74,135.0
880.8,134.0
880.87,132.0
880.93,128.0
880.99,122.0
881.05,128.0
881.12,133.0
881.18,130.0
881.24,114.0
881.31,125.0
881.37,130.0
881.43,138.0
881.5,126.0
881.56,122.0
881.62,127.0
881.68,106.0
881.75,114.0
881.81,127.0
881.87,97.0
881.94,111.0
882.0,109.0
882.06,130.0
882.13,128.0
882.19,132.0
882.25,135.0
882.31,112.0
882.38,116.0
882.44,126.0
882.5,110.0
882.57,105.0
882.63,97.0
882.69,108.0
882.76,100.0
882.82,81.0
882.88,67.0
882.94,87.0
883.01,74.0
883.07,86.0
883.13,111.0
883.2,92.0
883.26,110.0
883.32,109.0
883.39,96.0
883.45,110.0
883.51,115.0
883.57,99.0
883.64,94.0
883.7,81.0
883.76,95.0
883.83,88.0
883.89,93.0
883.95,91.0
884.02,51.0
884.08,81.0
884.14,96.0
884.2,86.0
884.27,82.0
884.33,70.0
884.39,71.0
884.46,86.0
884.52,91.0
884.58,101.0
884.65,106.0
884.71,124.0
884.77,112.0
884.83,135.0
884.9,148.0
884.96,132.0
885.02,136.0
885.09,122.0
885.15,140.0
885.21,135.0
885.28,130.0
885.34,125.0
885.4,124.0
885.46,130.0
885.53,156.0
885.59,144.0
885.65,148.0
885.72,125.0
885.78,124.0
885.84,119.0
885.91,125.0
885.97,102.0
886.03,107.0
886.09,96.0
886.16,91.0
886.22,95.0
886.28,100.0
886.35,108.0
886.41,116.0
886.47,99.0
886.54,94.0
886.6,97.0
886.66,77.0
886.72,89.0
886.79,88.0
886.85,102.0
886.91,85.0
886.98,78.0
887.04,73.0
887.1,51.0
887.17,78.0
887.23,70.0
887.29,81.0
887.35,69.0
887.42,63.0
887.48,82.0
887.54,53.0
887.61,54.0
887.67,47.0
887.73,72.0
887.8,74.0
887.86,68.0
887.92,74.0
887.98,72.0
888.05,66.0
888.11,64.0
888.17,69.0
888.24,43.0
888.3,61.0
888.36,66.0
888.43,55.0
888.49,59.0
888.55,62.0
888.61,79.0
888.68,82.0
888.74,62.0
888.8,74.0
888.87,92.0
888.93,92.0
888.99,81.0
889.06,100.0
889.12,83.0
889.18,95.0
889.24,89.0
889.31,68.0
889.37,92.0
889.43,75.0
889.5,78.0
889.56,63.0
889.62,71.0
889.69,67.0
889.75,68.0
889.81,93.0
889.87,86.0
889.94,91.0
890.0,98.0
890.06,103.0
890.13,117.0
890.19,71.0
890.25,99.0
890.32,103.0
890.38,96.0
890.44,106.0
890.5,110.0
890.57,110.0
890.63,100.0
890.69,102.0
890.76,117.0
890.82,121.0
890.88,107.0
890.95,103.0
891.01,130.0
891.07,127.0
891.13,118.0
891.2,131.0
891.26,133.0
891.32,112.0
891.39,116.0
891.45,133.0
891.51,110.0
891.58,114.0
891.64,141.0
891.7,110.0
891.76,124.0
891.83,97.0
891.89,124.0
891.95,128.0
892.02,128.0
892.08,120.0
892.14,111.0
892.21,125.0
892.27,121.0
892.33,133.0
892.39,104.0
892.46,110.0
892.52,117.0
892.58,123.0
892.65,132.0
892.71,133.0
892.77,136.0
892.84,140.0
892.9,145.0
892.96,148.0
893.02,138.0
893.09,121.0
893.15,123.0
893.21,122.0
893.28,135.0
893.34,125.0
893.4,105.0
893.47,102.0
893.53,80.0
893.59,86.0
893.65,125.0
893.72,119.0
893.78,111.0
893.84,106.0
893.91,105.0
893.97,115.0
894.03,113.0
894.1,110.0
894.16,107.0
894.22,110.0
894.28,131.0
894.35,114.0
894.41,110.0
894.47,124.0
894.54,105.0
894.6,99.0
894.66,86.0
894.73,89.0
894.79,86.0
894.85,91.0
894.91,82.0
894.98,70.0
895.04,76.0
895.1,91.0
895.17,93.0
895.23,75.0
895.29,73.0
895.36,92.0
895.42,92.0
895.48,101.0
895.54,94.0
895.61,117.0
895.67,95.0
895.73,99.0
895.8,91.0
895.86,74.0
895.92,91.0
895.99,98.0
896.05,105.0
896.11,124.0
896.17,121.0
896.24,103.0
896.3,91.0
896.36,105.0
896.43,89.0
896.49,84.0
896.55,77.0
896.62,84.0
896.68,94.0
896.74,83.0
896.8,74.0
896.87,84.0
896.93,82.0
896.99,70.0
897.06,63.0
897.12,78.0
897.18,91.0
897.25,92.0
897.31,77.0
897.37,77.0
897.43,81.0
897.5,84.0
897.56,76.0
897.62,89.0
897.69,85.0
897.75,97.0
897.81,88.0
897.88,76.0
897.94,100.0
898.0,86.0
898.06,88.0
898.13,70.0
898.19,83.0
898.25,93.0
898.32,102.0
898.38,81.0
898.44,89.0
898.51,77.0
898.57,67.0
898.63,63.0
898.69,74.0
898.76,66.0
898.82,66.0
898.88,80.0
898.95,81.0
899.01,97.0
899.07,71.0
899.14,82.0
899.2,70.0
899.26,85.0
899.32,77.0
899.39,57.0
899.45,78.0
899.51,72.0
899.58,66.0
899.64,67.0
899.7,69.0
899.77,81.0
899.83,86.0
899.89,82.0
899.95,79.0
900.02,79.0
900.08,76.0
900.14,63.0
900.21,76.0
900.27,66.0
900.33,62.0
900.4,69.0
900.46,69.0
900.52,78.0
900.58,80.0
900.65,72.0
900.71,88.0
900.77,81.0
900.84,59.0
900.9,53.0
900.96,72.0
901.03,57.0
901.09,73.0
901.15,81.0
901.21,82.0
901.28,86.0
901.34,82.0
901.4,64.0
901.47,68.0
901.53,98.0
901.59,88.0
901.66,85.0
901.72,91.0
901.78,81.0
901.84,75.0
901.91,93.0
901.97,75.0
902.03,78.0
902.1,80.0
902.16,80.0
902.22,89.0
902.29,83.0
902.35,88.0
902.41,80.0
902.47,87.0
902.54,83.0
902.6,80.0
902.66,70.0
902.73,51.0
902.79,61.0
902.85,66.0
902.92,69.0
902.98,73.0
903.04,64.0
903.1,65.0
903.17,70.0
903.23,80.0
903.29,80.0
903.36,78.0
903.42,99.0
903.48,84.0
903.55,102.0
903.61,93.0
903.67,103.0
903.73,96.0
903.8,79.0
903.86,88.0
903.92,60.0
903.99,63.0
904.05,56.0
904.11,55.0
904.18,65.0
904.24,62.0
904.3,67.0
904.36,66.0
904.43,54.0
904.49,45.0
904.55,37.0
904.62,49.0
904.68,49.0
904.74,53.0
904.81,81.0
904.87,71.0
904.93,55.0
904.99,52.0
905.06,48.0
905.12,53.0
905.18,58.0
905.25,44.0
905.31,52.0
905.37,47.0
905.44,65.0
905.5,48.0
905.56,44.0
905.62,63.0
905.69,59.0
905.75,76.0
905.81,62.0
905.88,72.0
905.94,77.0
906.0,62.0
906.07,63.0
906.13,63.0
906.19,72.0
906.25,74.0
906.32,65.0
906.38,74.0
906.44,74.0
906.51,72.0
906.57,93.0
906.63,88.0
906.7,98.0
906.76,92.0
906.82,89.0
906.88,88.0
906.95,73.0
907.01,86.0
907.07,92.0
907.14,97.0
907.2,98.0
907.26,96.0
907.33,98.0
907.39,123.0
907.45,116.0
907.51,105.0
907.58,108.0
907.64,103.0
907.7,100.0
907.77,116.0
907.83,104.0
907.89,96.0
907.96,99.0
908.02,105.0
908.08,125.0
908.14,100.0
908.21,111.0
908.27,95.0
908.33,95.0
908.4,108.0
908.46,94.0
908.52,83.0
908.59,92.0
908.65,79.0
908.71,86.0
908.77,114.0
908.84,100.0
908.9,102.0
908.96,96.0
909.03,102.0
909.09,92.0
909.15,87.0
909.22,92.0
909.28,70.0
909.34,95.0
909.4,101.0
909.47,100.0
909.53,129.0
909.59,106.0
909.66,109.0
909.72,115.0
909.78,121.0
909.85,123.0
909.91,129.0
909.97,132.0
910.03,154.0
910.1,139.0
910.16,136.0
910.22,157.0
910.29,157.0
910.35,138.0
910.41,115.0
910.48,120.0
910.54,140.0
910.6,139.0
910.66,139.0
910.73,139.0
910.79,123.0
910.85,137.0
910.92,123.0
910.98,134.0
911.04,131.0
911.11,122.0
911.17,123.0
911.23,84.0
911.29,99.0
911.36,99.0
911.42,99.0
911.48,96.0
911.55,107.0
911.61,133.0
911.67,124.0
911.74,119.0
911.8,96.0
911.86,92.0
911.92,106.0
911.99,98.0
912.05,94.0
912.11,122.0
912.18,105.0
912.24,89.0
912.3,111.0
912.37,109.0
912.43,102.0
912.49,125.0
912.55,113.0
912.62,113.0
912.68,127.0
912.74,127.0
912.81,122.0
912.87,117.0
912.93,127.0
913.0,132.0
913.06,136.0
913.12,112.0
913.18,119.0
913.25,103.0
913.31,99.0
913.37,120.0
913.44,112.0
913.5,119.0
913.56,121.0
913.63,125.0
913.69,108.0
913.75,106.0
913.81,140.0
913.88,136.0
913.94,123.0
914.0,136.0
914.07,132.0
914.13,132.0
914.19,137.0
914.26,121.0
914.32,131.0
914.38,133.0
914.44,139.0
914.51,115.0
914.57,129.0
914.63,139.0
914.7,132.0
914.76,133.0
914.82,118.0
914.89,122.0
914.95,130.0
915.01,132.0
915.07,144.0
915.14,118.0
915.2,121.0
915.26,138.0
915.33,129.0
915.39,149.0
915.45,150.0
915.52,132.0
915.58,145.0
915.64,122.0
915.7,131.0
915.77,122.0
915.83,137.0
915.89,139.0
915.96,125.0
916.02,147.0
916.08,135.0
916.15,127.0
916.21,107.0
916.27,118.0
916.33,123.0
916.4,127.0
916.46,135.0
916.52,156.0
916.59,151.0
916.65,146.0
916.71,139.0
916.78,131.0
916.84,141.0
916.9,129.0
916.96,140.0
917.03,143.0
917.09,140.0
917.15,155.0
917.22,134.0
917.28,117.0
917.34,117.0
917.41,119.0
917.47,114.0
917.53,111.0
917.59,121.0
917.66,119.0
917.72,117.0
917.78,140.0
917.85,122.0
917.91,131.0
917.97,124.0
918.04,109.0
918.1,120.0
918.16,114.0
918.22,118.0
918.29,139.0
918.35,125.0
918.41,136.0
918.48,113.0
918.54,114.0
918.6,122.0
918.67,112.0
918.73,128.0
918.79,138.0
918.85,129.0
918.92,112.0
918.98,116.0
919.04,112.0
919.11,113.0
919.17,103.0
919.23,106.0
919.3,122.0
919.36,134.0
919.42,126.0
919.48,117.0
919.55,131.0
919.61,139.0
919.67,140.0
919.74,136.0
919.8,122.0
919.86,115.0
919.93,109.0
919.99,100.0
920.05,117.0
920.11,118.0
920.18,101.0
920.24,94.0
920.3,102.0
920.37,103.0
920.43,109.0
920.49,92.0
920.56,76.0
920.62,69.0
920.68,77.0
920.74,59.0
920.81,70.0
920.87,97.0
920.93,92.0
921.0,97.0
921.06,91.0
921.12,96.0
921.19,93.0
921.25,112.0
921.31,127.0
921.37,110.0
921.44,75.0
921.5,103.0
921.56,106.0
921.63,99.0
921.69,103.0
921.75,111.0
921.82,95.0
921.88,105.0
921.94,92.0
922.0,97.0
922.07,91.0
922.13,80.0
922.19,74.0
922.26,72.0
922.32,74.0
922.38,99.0
922.45,77.0
922.51,63.0
922.57,89.0
922.63,102.0
922.7,106.0
922.76,97.0
922.82,89.0
922.89,111.0
922.95,99.0
923.01,107.0
923.08,100.0
923.14,132.0
923.2,111.0
923.26,104.0
923.33,111.0
923.39,86.0
923.45,86.0
923.52,91.0
923.58,119.0
923.64,99.0
923.71,95.0
923.77,109.0
923.83,88.0
923.89,114.0
923.96,121.0
924.02,95.0
924.08,91.0
924.15,85.0
924.21,88.0
924.27,73.0
924.34,87.0
924.4,75.0
924.46,84.0
924.52,103.0
924.59,76.0
924.65,93.0
924.71,112.0
924.78,114.0
924.84,112.0
924.9,121.0
924.97,126.0
925.03,141.0
925.09,140.0
925.15,124.0
925.22,130.0
925.28,136.0
925.34,124.0
925.41,136.0
925.47,143.0
925.53,141.0
925.6,140.0
925.66,141.0
925.72,129.0
925.78,136.0
925.85,138.0
925.91,139.0
925.97,116.0
926.04,120.0
926.1,124.0
926.16,138.0
926.23,113.0
926.29,134.0
926.35,149.0
926.41,139.0
926.48,155.0
926.54,143.0
926.6,134.0
926.67,128.0
926.73,114.0
926.79,141.0
926.86,144.0
926.92,135.0
926.98,124.0
927.04,127.0
927.11,134.0
927.17,135.0
927.23,132.0
927.3,135.0
927.36,118.0
927.42,131.0
927.49,118.0
927.55,113.0
927.61,122.0
927.67,103.0
927.74,132.0
927.8,117.0
927.86,102.0
927.93,110.0
927.99,115.0
928.05,106.0
928.12,102.0
928.18,99.0
928.24,113.0
928.3,124.0
928.37,116.0
928.43,112.0
928.49,112.0
928.56,117.0
928.62,125.0
928.68,112.0
928.75,117.0
928.81,110.0
928.87,104.0
928.93,103.0
929.0,111.0
929.06,117.0
929.12,137.0
929.19,125.0
929.25,122.0
929.31,124.0
929.38,144.0
929.44,127.0
929.5,122.0
929.56,132.0
929.63,122.0
929.69,126.0
929.75,111.0
929.82,118.0
929.88,115.0
929.94,130.0
930.01,125.0
930.07,121.0
930.13,105.0
930.19,117.0
930.26,122.0
930.32,114.0
930.38,114.0
930.45,97.0
930.51,99.0
930.57,100.0
930.64,92.0
930.7,84.0
930.76,105.0
930.82,88.0
930.89,114.0
930.95,125.0
931.01,116.0
931.08,110.0
931.14,102.0
931.2,104.0
931.27,105.0
931.33,104.0
931.39,86.0
931.45,92.0
931.52,103.0
931.58,101.0
931.64,108.0
931.71,100.0
931.77,87.0
931.83,89.0
931.9,73.0
931.96,82.0
932.02,84.0
932.08,89.0
932.15,91.0
932.21,74.0
932.27,77.0
932.34,74.0
932.4,87.0
932.46,94.0
932.53,75.0
932.59,95.0
932.65,91.0
932.71,84.0
932.78,90.0
932.84,96.0
932.9,104.0
932.97,88.0
933.03,94.0
933.09,117.0
933.16,105.0
933.22,111.0
933.28,108.0
933.34,128.0
933.41,87.0
933.47,96.0
933.53,92.0
933.6,91.0
933.66,87.0
933.72,78.0
933.79,97.0
933.85,91.0
933.91,99.0
933.97,97.0
934.04,83.0
934.1,92.0
934.16,94.0
934.23,99.0
934.29,92.0
934.35,73.0
934.42,85.0
934.48,78.0
934.54,92.0
934.6,90.0
934.67,96.0
934.73,80.0
934.79,58.0
934.86,75.0
934.92,59.0
934.98,74.0
935.05,87.0
935.11,70.0
935.17,61.0
935.23,88.0
935.3,86.0
935.36,58.0
935.42,62.0
935.49,84.0
935.55,77.0
935.61,80.0
935.68,74.0
935.74,77.0
935.8,78.0
935.86,77.0
935.93,44.0
935.99,63.0
936.05,58.0
936.12,69.0
936.18,77.0
936.24,61.0
936.31,66.0
936.37,61.0
936.43,53.0
936.49,80.0
936.56,88.0
936.62,70.0
936.68,71.0
936.75,71.0
936.81,53.0
936.87,55.0
936.94,20.0
937.0,53.0
937.06,40.0
937.12,14.0
937.19,40.0
937.25,35.0
937.31,49.0
937.38,33.0
937.44,29.0
937.5,46.0
937.57,36.0
937.63,39.0
937.69,59.0
937.75,54.0
937.82,56.0
937.88,47.0
937.94,41.0
938.01,47.0
938.07,28.0
938.13,36.0
938.2,33.0
938.26,37.0
938.32,39.0
938.38,33.0
938.45,30.0
938.51,34.0
938.57,39.0
938.64,44.0
938.7,44.0
938.76,48.0
938.83,43.0
938.89,30.0
938.95,26.0
939.01,17.0
939.08,56.0
939.14,70.0
939.2,53.0
939.27,79.0
939.33,78.0
939.39,74.0
939.46,72.0
939.52,45.0
939.58,46.0
939.64,58.0
939.71,63.0
939.77,67.0
939.83,48.0
939.9,55.0
939.96,77.0
940.02,65.0
940.09,87.0
940.15,102.0
940.21,88.0
940.27,79.0
940.34,78.0
940.4,72.0
940.46,67.0
940.53,73.0
940.59,74.0
940.65,80.0
940.72,86.0
940.78,104.0
940.84,104.0
940.9,114.0
940.97,114.0
941.03,92.0
941.09,94.0
941.16,85.0
941.22,94.0
941.28,108.0
941.35,130.0
941.41,117.0
941.47,111.0
941.53,118.0
941.6,118.0
941.66,117.0
941.72,128.0
941.79,137.0
941.85,130.0
941.91,125.0
941.98,119.0
942.04,125.0
942.1,115.0
942.16,125.0
942.23,141.0
942.29,133.0
942.35,143.0
942.42,127.0
942.48,149.0
942.54,129.0
942.61,115.0
942.67,119.0
942.73,112.0
942.79,114.0
942.86,106.0
942.92,100.0
942.98,123.0
943.05,121.0
943.11,138.0
943.17,119.0
943.24,132.0
943.3,131.0
943.36,153.0
943.42,142.0
943.49,120.0
943.55,136.0
943.61,133.0
943.68,138.0
943.74,132.0
943.8,119.0
943.87,126.0
943.93,124.0
943.99,119.0
944.05,111.0
944.12,99.0
944.18,114.0
944.24,106.0
944.31,99.0
944.37,111.0
944.43,98.0
944.5,79.0
944.56,97.0
944.62,115.0
944.68,108.0
944.75,110.0
944.81,113.0
944.87,112.0
944.94,110.0
945.0,92.0
945.06,85.0
945.13,81.0
945.19,91.0
945.25,92.0
945.31,97.0
945.38,98.0
945.44,83.0
945.5,100.0
945.57,99.0
945.63,103.0
945.69,105.0
945.76,115.0
945.82,122.0
945.88,119.0
945.94,118.0
946.01,138.0
946.07,129.0
946.13,127.0
946.2,122.0
946.26,123.0
946.32,143.0
946.39,118.0
946.45,110.0
946.51,116.0
946.57,143.0
946.64,115.0
946.7,102.0
946.76,118.0
946.83,117.0
946.89,117.0
946.95,108.0
947.02,125.0
947.08,112.0
947.14,110.0
947.2,98.0
947.27,129.0
947.33,151.0
947.39,144.0
947.46,138.0
947.52,155.0
947.58,171.0
947.65,179.0
947.71,162.0
947.77,149.0
947.83,130.0
947.9,153.0
947.96,160.0
948.02,163.0
948.09,140.0
948.15,132.0
948.21,150.0
948.28,152.0
948.34,172.0
948.4,158.0
948.46,168.0
948.53,150.0
948.59,154.0
948.65,145.0
948.72,140.0
948.78,163.0
948.84,140.0
948.91,125.0
948.97,140.0
949.03,119.0
949.09,106.0
949.16,105.0
949.22,119.0
949.28,137.0
949.35,128.0
949.41,118.0
949.47,108.0
949.54,108.0
949.6,113.0
949.66,103.0
949.72,102.0
949.79,123.0
949.85,124.0
949.91,117.0
949.98,119.0
950.04,117.0
950.1,108.0
950.17,100.0
950.23,111.0
950.29,131.0
950.35,129.0
950.42,122.0
950.48,114.0
950.54,103.0
950.61,106.0
950.67,128.0
950.73,130.0
950.8,107.0
950.86,101.0
950.92,106.0
950.98,106.0
951.05,93.0
951.11,89.0
951.17,103.0
951.24,96.0
951.3,90.0
951.36,92.0
951.43,95.0
951.49,104.0
951.55,113.0
951.61,112.0
951.68,103.0
951.74,103.0
951.8,98.0
951.87,91.0
951.93,88.0
951.99,81.0
952.06,91.0
952.12,88.0
952.18,99.0
952.24,97.0
952.31,97.0
952.37,98.0
952.43,98.0
952.5,96.0
952.56,79.0
952.62,100.0
952.69,75.0
952.75,80.0
952.81,92.0
952.87,72.0
952.94,84.0
953.0,99.0
953.06,92.0
953.13,82.0
953.19,83.0
953.25,99.0
953.32,87.0
953.38,78.0
953.44,67.0
953.5,57.0
953.57,70.0
953.63,74.0
953.69,66.0
953.76,49.0
953.82,64.0
953.88,83.0
953.95,82.0
954.01,38.0
954.07,69.0
954.13,79.0
954.2,72.0
954.26,75.0
954.32,59.0
954.39,49.0
954.45,66.0
954.51,55.0
954.58,49.0
954.64,59.0
954.7,44.0
954.76,53.0
954.83,82.0
954.89,64.0
954.95,66.0
955.02,65.0
955.08,64.0
955.14,78.0
955.21,58.0
955.27,55.0
955.33,58.0
955.39,63.0
955.46,52.0
955.52,66.0
955.58,61.0
955.65,72.0
955.71,85.0
955.77,66.0
955.84,62.0
955.9,73.0
955.96,73.0
956.02,73.0
956.09,92.0
956.15,79.0
956.21,81.0
956.28,96.0
956.34,99.0
956.4,112.0
956.47,97.0
956.53,98.0
956.59,94.0
956.65,92.0
956.72,100.0
956.78,117.0
956.84,111.0
956.91,121.0
956.97,107.0
957.03,102.0
957.1,92.0
957.16,102.0
957.22,93.0
957.28,106.0
957.35,103.0
957.41,94.0
957.47,92.0
957.54,103.0
957.6,106.0
957.66,103.0
957.73,93.0
957.79,107.0
957.85,119.0
957.91,119.0
957.98,134.0
958.04,116.0
958.1,125.0
958.17,118.0
958.23,110.0
958.29,131.0
958.36,160.0
958.42,140.0
958.48,140.0
958.54,145.0
958.61,152.0
958.67,150.0
958.73,143.0
958.8,138.0
958.86,144.0
958.92,140.0
958.99,165.0
959.05,163.0
959.11,155.0
959.17,158.0
959.24,165.0
959.3,186.0
959.36,171.0
959.43,185.0
959.49,175.0
959.55,182.0
959.62,176.0
959.68,170.0
959.74,184.0
959.8,173.0
959.87,158.0
959.93,151.0
959.99,179.0
960.06,174.0
960.12,163.0
960.18,173.0
960.25,159.0
960.31,165.0
960.37,145.0
960.43,147.0
960.5,146.0
960.56,168.0
960.62,168.0
960.69,163.0
960.75,171.0
960.81,146.0
960.88,164.0
960.94,173.0
961.0,177.0
961.06,180.0
961.13,172.0
961.19,174.0
961.25,169.0
961.32,152.0
961.38,157.0
961.44,159.0
961.51,152.0
961.57,166.0
961.63,144.0
961.69,141.0
961.76,150.0
961.82,141.0
961.88,152.0
961.95,165.0
962.01,148.0
962.07,151.0
962.14,125.0
962.2,125.0
962.26,130.0
962.32,117.0
962.39,134.0
962.45,139.0
962.51,128.0
962.58,126.0
962.64,147.0
962.7,138.0
962.77,140.0
962.83,168.0
962.89,133.0
962.95,151.0
963.02,153.0
963.08,153.0
963.14,158.0
963.21,154.0
963.27,154.0
963.33,153.0
963.4,164.0
963.46,157.0
963.52,162.0
963.58,155.0
963.65,164.0
963.71,158.0
963.77,157.0
963.84,176.0
963.9,169.0
963.96,172.0
964.03,149.0
964.09,149.0
964.15,153.0
964.21,146.0
964.28,169.0
964.34,165.0
964.4,164.0
964.47,146.0
964.53,132.0
964.59,160.0
964.66,145.0
964.72,152.0
964.78,150.0
964.84,118.0
964.91,128.0
964.97,110.0
965.03,123.0
965.1,141.0
965.16,114.0
965.22,114.0
965.29,108.0
965.35,110.0
965.41,106.0
965.47,103.0
965.54,128.0
965.6,112.0
965.66,101.0
965.73,116.0
965.79,121.0
965.85,103.0
965.92,90.0
965.98,105.0
966.04,117.0
966.1,89.0
966.17,97.0
966.23,106.0
966.29,88.0
966.36,106.0
966.42,106.0
966.48,97.0
966.55,111.0
966.61,111.0
966.67,98.0
966.73,106.0
966.8,88.0
966.86,92.0
966.92,105.0
966.99,80.0
967.05,83.0
967.11,82.0
967.18,95.0
967.24,84.0
967.3,91.0
967.36,90.0
967.43,76.0
967.49,86.0
967.55,96.0
967.62,109.0
967.68,108.0
967.74,105.0
967.81,92.0
967.87,95.0
967.93,91.0
967.99,79.0
968.06,76.0
968.12,68.0
968.18,75.0
968.25,67.0
968.31,54.0
968.37,59.0
968.44,67.0
968.5,72.0
968.56,59.0
968.62,70.0
968.69,65.0
968.75,78.0
968.81,55.0
968.88,50.0
968.94,62.0
969.0,53.0
969.07,66.0
969.13,47.0
969.19,41.0
969.25,61.0
969.32,58.0
969.38,75.0
969.44,75.0
969.51,86.0
969.57,80.0
969.63,77.0
969.7,77.0
969.76,62.0
969.82,59.0
969.88,56.0
969.95,48.0
970.01,41.0
970.07,52.0
970.14,60.0
970.2,49.0
970.26,42.0
970.33,54.0
970.39,36.0
970.45,25.0
970.51,14.0
970.58,13.0
970.64,16.0
970.7,2.0
970.77,15.0
970.83,18.0
970.89,6.0
970.96,4.0
971.02,-11.0
971.08,4.0
971.14,0.0
971.21,-7.0
971.27,13.0
971.33,-12.0
971.4,-10.0
971.46,8.0
971.52,9.0
971.59,5.0
971.65,-3.0
971.71,-11.0
971.77,-6.0
971.84,-19.0
971.9,-25.0
971.96,-27.0
972.03,-24.0
972.09,-7.0
972.15,4.0
972.22,10.0
972.28,-14.0
972.34,-15.0
972.4,3.0
972.47,-5.0
972.53,-5.0
972.59,4.0
972.66,16.0
972.72,16.0
972.78,4.0
972.85,14.0
972.91,16.0
972.97,26.0
973.03,39.0
973.1,12.0
973.16,24.0
973.22,30.0
973.29,22.0
973.35,26.0
973.41,35.0
973.48,13.0
973.54,14.0
973.6,13.0
973.66,42.0
973.73,46.0
973.79,29.0
973.85,34.0
973.92,47.0
973.98,29.0
974.04,34.0
974.11,34.0
974.17,41.0
974.23,41.0
974.29,30.0
974.36,45.0
974.42,43.0
974.48,49.0
974.55,56.0
974.61,47.0
974.67,63.0
974.74,45.0
974.8,63.0
974.86,69.0
974.92,36.0
974.99,70.0
975.05,84.0
975.11,102.0
975.18,98.0
975.24,86.0
975.3,94.0
975.37,87.0
975.43,100.0
975.49,90.0
975.55,106.0
975.62,98.0
975.68,84.0
975.74,108.0
975.81,114.0
975.87,114.0
975.93,109.0
976.0,103.0
976.06,86.0
976.12,100.0
976.18,101.0
976.25,106.0
976.31,115.0
976.37,105.0
976.44,107.0
976.5,98.0
976.56,88.0
976.63,95.0
976.69,101.0
976.75,91.0
976.81,87.0
976.88,101.0
976.94,102.0
977.0,79.0
977.07,81.0
977.13,79.0
977.19,96.0
977.26,95.0
977.32,87.0
977.38,102.0
977.44,96.0
977.51,84.0
977.57,89.0
977.63,88.0
977.7,101.0
977.76,95.0
977.82,109.0
977.89,115.0
977.95,100.0
978.01,97.0
978.07,113.0
978.14,133.0
978.2,84.0
978.26,125.0
978.33,115.0
978.39,118.0
978.45,127.0
978.52,96.0
978.58,105.0
978.64,102.0
978.7,97.0
978.77,109.0
978.83,108.0
978.89,112.0
978.96,104.0
979.02,99.0
979.08,86.0
979.15,87.0
979.21,82.0
979.27,84.0
979.33,90.0
979.4,105.0
979.46,122.0
979.52,98.0
979.59,117.0
979.65,100.0
979.71,104.0
979.78,105.0
979.84,112.0
979.9,130.0
979.96,139.0
980.03,136.0
980.09,162.0
980.15,159.0
980.22,154.0
980.28,140.0
980.34,168.0
980.41,188.0
980.47,187.0
980.53,171.0
980.59,147.0
980.66,159.0
980.72,166.0
980.78,165.0
980.85,164.0
980.91,152.0
980.97,148.0
981.04,163.0
981.1,155.0
981.16,158.0
981.22,166.0
981.29,166.0
981.35,139.0
981.41,145.0
981.48,168.0
981.54,177.0
981.6,161.0
981.67,150.0
981.73,158.0
981.79,147.0
981.85,149.0
981.92,154.0
981.98,153.0
982.04,162.0
982.11,174.0
982.17,169.0
982.23,163.0
982.3,172.0
982.36,182.0
982.42,173.0
982.48,186.0
982.55,182.0
982.61,190.0
982.67,155.0
982.74,166.0
982.8,179.0
982.86,177.0
982.93,180.0
982.99,182.0
983.05,168.0
983.11,169.0
983.18,162.0
983.24,150.0
983.3,173.0
983.37,179.0
983.43,167.0
983.49,170.0
983.56,166.0
983.62,174.0
983.68,180.0
983.74,162.0
983.81,170.0
983.87,174.0
983.93,182.0
984.0,210.0
984.06,183.0
984.12,194.0
984.19,213.0
984.25,208.0
984.31,205.0
984.37,198.0
984.44,201.0
984.5,204.0
984.56,200.0
984.63,197.0
984.69,211.0
984.75,211.0
984.82,214.0
984.88,202.0
984.94,205.0
985.0,208.0
985.07,202.0
985.13,203.0
985.19,216.0
985.26,197.0
985.32,183.0
985.38,175.0
985.45,172.0
985.51,154.0
985.57,159.0
985.63,166.0
985.7,148.0
985.76,159.0
985.82,137.0
985.89,140.0
985.95,150.0
986.01,146.0
986.08,172.0
986.14,160.0
986.2,158.0
986.26,157.0
986.33,162.0
986.39,154.0
986.45,141.0
986.52,143.0
986.58,159.0
986.64,150.0
986.71,144.0
986.77,122.0
986.83,133.0
986.89,122.0
986.96,107.0
987.02,100.0
987.08,99.0
987.15,90.0
987.21,91.0
987.27,66.0
987.34,96.0
987.4,91.0
987.46,82.0
987.52,78.0
987.59,78.0
987.65,96.0
987.71,62.0
987.78,74.0
987.84,78.0
987.9,77.0
987.97,66.0
988.03,82.0
988.09,76.0
988.15,63.0
988.22,73.0
988.28,59.0
988.34,66.0
988.41,76.0
988.47,77.0
988.53,84.0
988.6,63.0
988.66,73.0
988.72,79.0
988.78,68.0
988.85,60.0
988.91,67.0
988.97,81.0
989.04,80.0
989.1,65.0
989.16,69.0
989.23,74.0
989.29,65.0
989.35,62.0
989.41,87.0
989.48,67.0
989.54,67.0
989.6,79.0
989.67,80.0
989.73,83.0
989.79,74.0
989.86,78.0
989.92,60.0
989.98,70.0
990.04,55.0
990.11,63.0
990.17,62.0
990.23,59.0
990.3,51.0
990.36,54.0
990.42,54.0
990.49,60.0
990.55,49.0
990.61,60.0
990.67,48.0
990.74,59.0
990.8,59.0
990.86,49.0
990.93,62.0
990.99,41.0
991.05,58.0
991.12,54.0
991.18,41.0
991.24,71.0
991.3,89.0
991.37,93.0
991.43,85.0
991.49,84.0
991.56,85.0
991.62,103.0
991.68,96.0
991.75,73.0
991.81,79.0
991.87,73.0
991.93,83.0
992.0,96.0
992.06,97.0
992.12,81.0
992.19,61.0
992.25,88.0
992.31,76.0
992.38,60.0
992.44,67.0
992.5,52.0
992.56,64.0
992.63,33.0
992.69,52.0
992.75,45.0
992.82,37.0
992.88,26.0
992.94,41.0
993.01,42.0
993.07,49.0
993.13,44.0
993.19,59.0
993.26,55.0
993.32,58.0
993.38,63.0
993.45,67.0
993.51,76.0
993.57,73.0
993.64,89.0
993.7,93.0
993.76,91.0
993.82,108.0
993.89,84.0
993.95,86.0
994.01,85.0
994.08,84.0
994.14,90.0
994.2,78.0
994.27,87.0
994.33,91.0
994.39,97.0
994.45,110.0
994.52,94.0
994.58,92.0
994.64,92.0
994.71,99.0
994.77,103.0
994.83,95.0
994.9,88.0
994.96,98.0
995.02,104.0
995.08,83.0
995.15,81.0
995.21,86.0
995.27,81.0
995.34,79.0
995.4,78.0
995.46,90.0
995.53,81.0
995.59,87.0
995.65,100.0
995.71,77.0
995.78,85.0
995.84,72.0
995.9,72.0
995.97,71.0
996.03,92.0
996.09,82.0
996.16,85.0
996.22,93.0
996.28,90.0
996.34,81.0
996.41,82.0
996.47,102.0
996.53,75.0
996.6,53.0
996.66,60.0
996.72,68.0
996.79,74.0
996.85,92.0
996.91,81.0
996.97,75.0
997.04,91.0
997.1,93.0
997.16,92.0
997.23,121.0
997.29,96.0
997.35,88.0
997.42,107.0
997.48,85.0
997.54,104.0
997.6,115.0
997.67,104.0
997.73,123.0
997.79,100.0
997.86,102.0
997.92,85.0
997.98,84.0
998.05,111.0
998.11,111.0
998.17,114.0
998.23,106.0
998.3,93.0
998.36,106.0
998.42,110.0
998.49,113.0
998.55,90.0
998.61,76.0
998.68,104.0
998.74,123.0
998.8,111.0
998.86,104.0
998.93,118.0
998.99,132.0
999.05,111.0
999.12,114.0
999.18,113.0
999.24,101.0
999.31,107.0
999.37,115.0
999.43,113.0
999.49,95.0
999.56,130.0
999.62,129.0
999.68,117.0
999.75,114.0
999.81,132.0
999.87,144.0
