timestamp,intensity
0,-221.0
0.06,-244.0
0.13,-254.0
0.19,-256.0
0.25,-240.0
0.32,-247.0
0.38,-258.0
0.44,-275.0
0.5,-292.0
0.57,-280.0
0.63,-269.0
0.69,-263.0
0.76,-272.0
0.82,-266.0
0.88,-265.0
0.94,-270.0
1.01,-262.0
1.07,-279.0
1.13,-257.0
1.2,-261.0
1.26,-261.0
1.32,-277.0
1.39,-273.0
1.45,-274.0
1.51,-268.0
1.57,-275.0
1.64,-272.0
1.7,-262.0
1.76,-245.0
1.83,-269.0
1.89,-262.0
1.95,-269.0
2.02,-279.0
2.08,-280.0
2.14,-274.0
2.2,-267.0
2.27,-249.0
2.33,-238.0
2.39,-266.0
2.46,-253.0
2.52,-241.0
2.58,-246.0
2.65,-253.0
2.71,-228.0
2.77,-239.0
2.84,-245.0
2.9,-240.0
2.96,-239.0
3.02,-216.0
3.09,-215.0
3.15,-223.0
3.21,-239.0
3.28,-260.0
3.34,-217.0
3.4,-233.0
3.47,-237.0
3.53,-240.0
3.59,-212.0
3.65,-220.0
3.72,-212.0
3.78,-232.0
3.84,-238.0
3.91,-216.0
3.97,-199.0
4.03,-195.0
4.1,-205.0
4.16,-218.0
4.22,-220.0
4.28,-224.0
4.35,-220.0
4.41,-226.0
4.47,-236.0
4.54,-224.0
4.6,-219.0
4.66,-209.0
4.73,-211.0
4.79,-226.0
4.85,-224.0
4.91,-222.0
4.98,-214.0
5.04,-209.0
5.1,-226.0
5.17,-212.0
5.23,-224.0
5.29,-198.0
5.35,-209.0
5.42,-212.0
5.48,-211.0
5.54,-217.0
5.61,-218.0
5.67,-224.0
5.73,-229.0
5.8,-240.0
5.86,-227.0
5.92,-233.0
5.98,-243.0
6.05,-245.0
6.11,-252.0
6.17,-230.0
6.24,-251.0
6.3,-240.0
6.36,-229.0
6.43,-213.0
6.49,-213.0
6.55,-212.0
6.61,-202.0
6.68,-215.0
6.74,-202.0
6.8,-204.0
6.87,-220.0
6.93,-206.0
6.99,-184.0
7.06,-192.0
7.12,-186.0
7.18,-209.0
7.24,-186.0
7.31,-200.0
7.37,-204.0
7.43,-204.0
7.5,-223.0
7.56,-210.0
7.62,-206.0
7.69,-218.0
7.75,-224.0
7.81,-234.0
7.87,-228.0
7.94,-213.0
8.0,-225.0
8.06,-226.0
8.13,-241.0
8.19,-226.0
8.25,-231.0
8.32,-239.0
8.38,-241.0
8.44,-238.0
8.5,-231.0
8.57,-224.0
8.63,-226.0
8.69,-224.0
8.76,-242.0
8.82,-219.0
8.88,-211.0
8.95,-210.0
9.01,-193.0
9.07,-210.0
9.13,-202.0
9.2,-202.0
9.26,-196.0
9.32,-203.0
9.39,-221.0
9.45,-244.0
9.51,-253.0
9.58,-261.0
9.64,-255.0
9.7,-247.0
9.77,-258.0
9.83,-247.0
9.89,-248.0
9.95,-251.0
10.02,-248.0
10.08,-232.0
10.14,-242.0
10.21,-230.0
10.27,-230.0
10.33,-246.0
10.4,-247.0
10.46,-232.0
10.52,-233.0
10.58,-238.0
10.65,-235.0
10.71,-255.0
10.77,-265.0
10.84,-249.0
10.9,-239.0
10.96,-257.0
11.03,-249.0
11.09,-246.0
11.15,-253.0
11.21,-264.0
11.28,-256.0
11.34,-269.0
11.4,-278.0
11.47,-258.0
11.53,-274.0
11.59,-269.0
11.66,-263.0
11.72,-259.0
11.78,-251.0
11.84,-265.0
11.91,-241.0
11.97,-224.0
12.03,-241.0
12.1,-257.0
12.16,-249.0
12.22,-244.0
12.29,-238.0
12.35,-235.0
12.41,-257.0
12.47,-257.0
12.54,-262.0
12.6,-283.0
12.66,-247.0
12.73,-257.0
12.79,-268.0
12.85,-244.0
12.92,-248.0
12.98,-230.0
13.04,-228.0
13.1,-223.0
13.17,-236.0
13.23,-233.0
13.29,-219.0
13.36,-198.0
13.42,-220.0
13.48,-224.0
13.55,-224.0
13.61,-234.0
13.67,-208.0
13.73,-212.0
13.8,-207.0
13.86,-200.0
13.92,-205.0
13.99,-211.0
14.05,-207.0
14.11,-184.0
14.18,-188.0
14.24,-203.0
14.3,-187.0
14.36,-197.0
14.43,-198.0
14.49,-206.0
14.55,-183.0
14.62,-181.0
14.68,-200.0
14.74,-218.0
14.81,-223.0
14.87,-207.0
14.93,-205.0
14.99,-223.0
15.06,-215.0
15.12,-186.0
15.18,-178.0
15.25,-168.0
15.31,-181.0
15.37,-191.0
15.44,-199.0
15.5,-191.0
15.56,-181.0
15.62,-198.0
15.69,-190.0
15.75,-200.0
15.81,-185.0
15.88,-183.0
15.94,-173.0
16.0,-187.0
16.07,-191.0
16.13,-185.0
16.19,-193.0
16.25,-199.0
16.32,-205.0
16.38,-198.0
16.44,-212.0
16.51,-221.0
16.57,-219.0
16.63,-222.0
16.7,-197.0
16.76,-205.0
16.82,-200.0
16.88,-190.0
16.95,-187.0
17.01,-168.0
17.07,-198.0
17.14,-212.0
17.2,-221.0
17.26,-217.0
17.33,-240.0
17.39,-221.0
17.45,-201.0
17.51,-220.0
17.58,-212.0
17.64,-213.0
17.7,-213.0
17.77,-200.0
17.83,-206.0
17.89,-211.0
17.96,-199.0
18.02,-196.0
18.08,-191.0
18.14,-194.0
18.21,-201.0
18.27,-210.0
18.33,-230.0
18.4,-240.0
18.46,-215.0
18.52,-198.0
18.59,-205.0
18.65,-197.0
18.71,-195.0
18.77,-217.0
18.84,-204.0
18.9,-206.0
18.96,-226.0
19.03,-210.0
19.09,-199.0
19.15,-215.0
19.22,-208.0
19.28,-190.0
19.34,-192.0
19.4,-184.0
19.47,-200.0
19.53,-209.0
19.59,-188.0
19.66,-200.0
19.72,-173.0
19.78,-195.0
19.84,-201.0
19.91,-178.0
19.97,-189.0
20.03,-219.0
20.1,-204.0
20.16,-187.0
20.22,-193.0
20.29,-183.0
20.35,-176.0
20.41,-180.0
20.47,-203.0
20.54,-187.0
20.6,-187.0
20.66,-195.0
20.73,-193.0
20.79,-206.0
20.85,-209.0
20.92,-223.0
20.98,-216.0
21.04,-199.0
21.1,-205.0
21.17,-201.0
21.23,-212.0
21.29,-182.0
21.36,-189.0
21.42,-185.0
21.48,-168.0
21.55,-177.0
21.61,-179.0
21.67,-189.0
21.73,-198.0
21.8,-197.0
21.86,-199.0
21.92,-226.0
21.99,-217.0
22.05,-222.0
22.11,-205.0
22.18,-212.0
22.24,-229.0
22.3,-215.0
22.36,-213.0
22.43,-206.0
22.49,-223.0
22.55,-221.0
22.62,-260.0
22.68,-220.0
22.74,-222.0
22.81,-232.0
22.87,-222.0
22.93,-223.0
22.99,-227.0
23.06,-240.0
23.12,-240.0
23.18,-259.0
23.25,-233.0
23.31,-233.0
23.37,-236.0
23.44,-240.0
23.5,-235.0
23.56,-224.0
23.62,-240.0
23.69,-237.0
23.75,-258.0
23.81,-253.0
23.88,-253.0
23.94,-244.0
24.0,-228.0
24.07,-220.0
24.13,-240.0
24.19,-233.0
24.25,-242.0
24.32,-222.0
24.38,-222.0
24.44,-221.0
24.51,-242.0
24.57,-260.0
24.63,-267.0
24.7,-255.0
24.76,-243.0
24.82,-249.0
24.88,-228.0
24.95,-218.0
25.01,-216.0
25.07,-236.0
25.14,-234.0
25.2,-218.0
25.26,-223.0
25.33,-233.0
25.39,-223.0
25.45,-211.0
25.51,-223.0
25.58,-237.0
25.64,-213.0
25.7,-228.0
25.77,-241.0
25.83,-234.0
25.89,-226.0
25.96,-223.0
26.02,-237.0
26.08,-214.0
26.14,-219.0
26.21,-201.0
26.27,-207.0
26.33,-206.0
26.4,-211.0
26.46,-235.0
26.52,-234.0
26.59,-223.0
26.65,-222.0
26.71,-223.0
26.77,-226.0
26.84,-208.0
26.9,-228.0
26.96,-237.0
27.03,-243.0
27.09,-227.0
27.15,-235.0
27.22,-245.0
27.28,-223.0
27.34,-225.0
27.4,-227.0
27.47,-232.0
27.53,-208.0
27.59,-222.0
27.66,-206.0
27.72,-209.0
27.78,-217.0
27.85,-195.0
27.91,-214.0
27.97,-218.0
28.03,-204.0
28.1,-206.0
28.16,-208.0
28.22,-213.0
28.29,-212.0
28.35,-196.0
28.41,-188.0
28.48,-187.0
28.54,-193.0
28.6,-199.0
28.66,-190.0
28.73,-201.0
28.79,-192.0
28.85,-194.0
28.92,-197.0
28.98,-192.0
29.04,-218.0
29.11,-224.0
29.17,-202.0
29.23,-216.0
29.29,-208.0
29.36,-207.0
29.42,-211.0
29.48,-198.0
29.55,-195.0
29.61,-199.0
29.67,-199.0
29.74,-183.0
29.8,-199.0
29.86,-196.0
29.92,-186.0
29.99,-190.0
30.05,-193.0
30.11,-175.0
30.18,-173.0
30.24,-201.0
30.3,-181.0
30.37,-195.0
30.43,-187.0
30.49,-206.0
30.55,-202.0
30.62,-189.0
30.68,-171.0
30.74,-173.0
30.81,-169.0
30.87,-166.0
30.93,-136.0
31.0,-139.0
31.06,-142.0
31.12,-134.0
31.18,-126.0
31.25,-122.0
31.31,-126.0
31.37,-126.0
31.44,-131.0
31.5,-132.0
31.56,-134.0
31.63,-137.0
31.69,-143.0
31.75,-147.0
31.81,-135.0
31.88,-145.0
31.94,-146.0
32.0,-163.0
32.07,-136.0
32.13,-139.0
32.19,-133.0
32.26,-126.0
32.32,-140.0
32.38,-141.0
32.44,-137.0
32.51,-131.0
32.57,-127.0
32.63,-128.0
32.7,-124.0
32.76,-116.0
32.82,-133.0
32.89,-128.0
32.95,-133.0
33.01,-157.0
33.07,-124.0
33.14,-145.0
33.2,-140.0
33.26,-128.0
33.33,-108.0
33.39,-109.0
33.45,-118.0
33.52,-103.0
33.58,-130.0
33.64,-130.0
33.7,-132.0
33.77,-148.0
33.83,-136.0
33.89,-120.0
33.96,-132.0
34.02,-119.0
34.08,-116.0
34.15,-126.0
34.21,-114.0
34.27,-121.0
34.33,-97.0
34.4,-113.0
34.46,-109.0
34.52,-113.0
34.59,-144.0
34.65,-133.0
34.71,-135.0
34.78,-131.0
34.84,-123.0
34.9,-121.0
34.96,-105.0
35.03,-110.0
35.09,-102.0
35.15,-91.0
35.22,-101.0
35.28,-86.0
35.34,-94.0
35.41,-78.0
35.47,-76.0
35.53,-70.0
35.59,-66.0
35.66,-45.0
35.72,-52.0
35.78,-53.0
35.85,-66.0
35.91,-69.0
35.97,-65.0
36.04,-85.0
36.1,-81.0
36.16,-90.0
36.22,-77.0
36.29,-81.0
36.35,-89.0
36.41,-62.0
36.48,-68.0
36.54,-67.0
36.6,-55.0
36.67,-57.0
36.73,-46.0
36.79,-50.0
36.85,-47.0
36.92,-39.0
36.98,-46.0
37.04,-49.0
37.11,-42.0
37.17,-42.0
37.23,-32.0
37.3,-59.0
37.36,-43.0
37.42,-34.0
37.48,-45.0
37.55,-43.0
37.61,-47.0
37.67,-32.0
37.74,-52.0
37.8,-49.0
37.86,-42.0
37.93,-21.0
37.99,-22.0
38.05,-19.0
38.12,-40.0
38.18,-47.0
38.24,-21.0
38.3,-24.0
38.37,-13.0
38.43,-9.0
38.49,-17.0
38.56,-30.0
38.62,-60.0
38.68,-54.0
38.75,-43.0
38.81,-54.0
38.87,-77.0
38.93,-45.0
39.0,-54.0
39.06,-50.0
39.12,-60.0
39.19,-37.0
39.25,-28.0
39.31,-36.0
39.38,-8.0
39.44,-44.0
39.5,-29.0
39.56,-38.0
39.63,-24.0
39.69,-34.0
39.75,-23.0
39.82,-15.0
39.88,-27.0
39.94,-24.0
40.01,2.0
40.07,-21.0
40.13,-24.0
40.19,-37.0
40.26,-49.0
40.32,-27.0
40.38,-38.0
40.45,-32.0
40.51,-48.0
40.57,-60.0
40.64,-67.0
40.7,-63.0
40.76,-71.0
40.82,-71.0
40.89,-80.0
40.95,-94.0
41.01,-93.0
41.08,-67.0
41.14,-82.0
41.2,-70.0
41.27,-79.0
41.33,-100.0
41.39,-82.0
41.45,-95.0
41.52,-80.0
41.58,-77.0
41.64,-70.0
41.71,-80.0
41.77,-84.0
41.83,-86.0
41.9,-96.0
41.96,-88.0
42.02,-87.0
42.08,-86.0
42.15,-86.0
42.21,-89.0
42.27,-87.0
42.34,-95.0
42.4,-89.0
42.46,-83.0
42.53,-70.0
42.59,-78.0
42.65,-93.0
42.71,-74.0
42.78,-77.0
42.84,-77.0
42.9,-84.0
42.97,-92.0
43.03,-83.0
43.09,-87.0
43.16,-97.0
43.22,-96.0
43.28,-95.0
43.34,-99.0
43.41,-104.0
43.47,-101.0
43.53,-93.0
43.6,-98.0
43.66,-107.0
43.72,-124.0
43.79,-125.0
43.85,-107.0
43.91,-121.0
43.97,-129.0
44.04,-115.0
44.1,-123.0
44.16,-131.0
44.23,-146.0
44.29,-125.0
44.35,-134.0
44.42,-128.0
44.48,-109.0
44.54,-123.0
44.6,-146.0
44.67,-133.0
44.73,-125.0
44.79,-132.0
44.86,-136.0
44.92,-131.0
44.98,-133.0
45.05,-104.0
45.11,-114.0
45.17,-109.0
45.23,-88.0
45.3,-108.0
45.36,-119.0
45.42,-107.0
45.49,-105.0
45.55,-92.0
45.61,-96.0
45.68,-104.0
45.74,-111.0
45.8,-117.0
45.86,-133.0
45.93,-125.0
45.99,-128.0
46.05,-126.0
46.12,-132.0
46.18,-124.0
46.24,-115.0
46.31,-128.0
46.37,-119.0
46.43,-129.0
46.49,-126.0
46.56,-130.0
46.62,-114.0
46.68,-131.0
46.75,-139.0
46.81,-129.0
46.87,-126.0
46.94,-121.0
47.0,-130.0
47.06,-121.0
47.12,-129.0
47.19,-135.0
47.25,-145.0
47.31,-122.0
47.38,-111.0
47.44,-122.0
47.5,-117.0
47.57,-126.0
47.63,-102.0
47.69,-110.0
47.75,-112.0
47.82,-110.0
47.88,-93.0
47.94,-96.0
48.01,-124.0
48.07,-117.0
48.13,-107.0
48.2,-75.0
48.26,-99.0
48.32,-106.0
48.38,-77.0
48.45,-73.0
48.51,-49.0
48.57,-63.0
48.64,-66.0
48.7,-51.0
48.76,-53.0
48.83,-46.0
48.89,-61.0
48.95,-49.0
49.01,-44.0
49.08,-53.0
49.14,-71.0
49.2,-72.0
49.27,-78.0
49.33,-84.0
49.39,-78.0
49.46,-70.0
49.52,-62.0
49.58,-61.0
49.64,-74.0
49.71,-54.0
49.77,-46.0
49.83,-55.0
49.9,-68.0
49.96,-54.0
50.02,-39.0
50.09,-58.0
50.15,-62.0
50.21,-73.0
50.27,-75.0
50.34,-51.0
50.4,-46.0
50.46,-64.0
50.53,-71.0
50.59,-64.0
50.65,-45.0
50.72,-40.0
50.78,-42.0
50.84,-48.0
50.9,-34.0
50.97,-34.0
51.03,-33.0
51.09,-50.0
51.16,-52.0
51.22,-33.0
51.28,-21.0
51.35,-19.0
51.41,-28.0
51.47,-33.0
51.53,-37.0
51.6,-25.0
51.66,-27.0
51.72,-19.0
51.79,-25.0
51.85,-36.0
51.91,-37.0
51.98,-43.0
52.04,-43.0
52.1,-44.0
52.16,-46.0
52.23,-45.0
52.29,-59.0
52.35,-42.0
52.42,-44.0
52.48,-35.0
52.54,-47.0
52.61,-38.0
52.67,-34.0
52.73,-37.0
52.79,-36.0
52.86,-12.0
52.92,-4.0
52.98,-23.0
53.05,-31.0
53.11,-27.0
53.17,-17.0
53.24,-26.0
53.3,-26.0
53.36,-15.0
53.42,-27.0
53.49,-12.0
53.55,20.0
53.61,-2.0
53.68,-23.0
53.74,-23.0
53.8,-25.0
53.87,-48.0
53.93,-41.0
53.99,-41.0
54.05,-23.0
54.12,-31.0
54.18,-23.0
54.24,-20.0
54.31,-24.0
54.37,-18.0
54.43,-23.0
54.5,-31.0
54.56,-18.0
54.62,-24.0
54.68,-25.0
54.75,-48.0
54.81,-45.0
54.87,-24.0
54.94,-27.0
55.0,-21.0
55.06,-18.0
55.13,-36.0
55.19,-44.0
55.25,-43.0
55.31,-55.0
55.38,-36.0
55.44,-26.0
55.5,-49.0
55.57,-40.0
55.63,-57.0
55.69,-39.0
55.76,-43.0
55.82,-19.0
55.88,-20.0
55.94,-28.0
56.01,-14.0
56.07,-43.0
56.13,-51.0
56.2,-46.0
56.26,-37.0
56.32,-26.0
56.39,-56.0
56.45,-36.0
56.51,-18.0
56.57,-29.0
56.64,-20.0
56.7,-35.0
56.76,-3.0
56.83,8.0
56.89,-6.0
56.95,-8.0
57.02,10.0
57.08,-9.0
57.14,-9.0
57.2,-14.0
57.27,-14.0
57.33,-1.0
57.39,-31.0
57.46,-27.0
57.52,-37.0
57.58,-35.0
57.65,-22.0
57.71,-34.0
57.77,-39.0
57.83,-38.0
57.9,-43.0
57.96,-23.0
58.02,-43.0
58.09,-45.0
58.15,-59.0
58.21,-50.0
58.28,-51.0
58.34,-37.0
58.4,-30.0
58.46,-34.0
58.53,-42.0
58.59,-48.0
58.65,-60.0
58.72,-56.0
58.78,-59.0
58.84,-42.0
58.91,-30.0
58.97,-40.0
59.03,-29.0
59.09,-70.0
59.16,-67.0
59.22,-45.0
59.28,-57.0
59.35,-61.0
59.41,-40.0
59.47,-62.0
59.54,-55.0
59.6,-45.0
59.66,-65.0
59.72,-49.0
59.79,-45.0
59.85,-48.0
59.91,-72.0
59.98,-90.0
60.04,-58.0
60.1,-76.0
60.17,-65.0
60.23,-66.0
60.29,-66.0
60.35,-65.0
60.42,-63.0
60.48,-70.0
60.54,-88.0
60.61,-84.0
60.67,-83.0
60.73,-102.0
60.8,-74.0
60.86,-56.0
60.92,-71.0
60.98,-60.0
61.05,-73.0
61.11,-77.0
61.17,-91.0
61.24,-72.0
61.3,-91.0
61.36,-113.0
61.43,-75.0
61.49,-89.0
61.55,-82.0
61.61,-72.0
61.68,-63.0
61.74,-74.0
61.8,-62.0
61.87,-62.0
61.93,-64.0
61.99,-73.0
62.06,-64.0
62.12,-66.0
62.18,-77.0
62.24,-52.0
62.31,-59.0
62.37,-52.0
62.43,-63.0
62.5,-70.0
62.56,-45.0
62.62,-55.0
62.69,-75.0
62.75,-76.0
62.81,-69.0
62.87,-79.0
62.94,-62.0
63.0,-56.0
63.06,-49.0
63.13,-46.0
63.19,-45.0
63.25,-57.0
63.32,-56.0
63.38,-41.0
63.44,-47.0
63.5,-58.0
63.57,-48.0
63.63,-31.0
63.69,-41.0
63.76,-24.0
63.82,-32.0
63.88,-28.0
63.95,-10.0
64.01,-5.0
64.07,-21.0
64.13,-36.0
64.2,-26.0
64.26,-28.0
64.32,-36.0
64.39,-22.0
64.45,-14.0
64.51,-17.0
64.58,-12.0
64.64,-23.0
64.7,-20.0
64.76,-32.0
64.83,-14.0
64.89,-7.0
64.95,-4.0
65.02,-1.0
65.08,6.0
65.14,20.0
65.21,28.0
65.27,12.0
65.33,6.0
65.39,1.0
65.46,10.0
65.52,33.0
65.58,27.0
65.65,54.0
65.71,34.0
65.77,27.0
65.84,45.0
65.9,34.0
65.96,28.0
66.02,50.0
66.09,50.0
66.15,63.0
66.21,46.0
66.28,41.0
66.34,20.0
66.4,16.0
66.47,22.0
66.53,20.0
66.59,-6.0
66.65,2.0
66.72,-11.0
66.78,3.0
66.84,4.0
66.91,-15.0
66.97,3.0
67.03,-7.0
67.1,-1.0
67.16,7.0
67.22,13.0
67.28,6.0
67.35,28.0
67.41,15.0
67.47,12.0
67.54,12.0
67.6,12.0
67.66,-1.0
67.73,-5.0
67.79,12.0
67.85,9.0
67.91,23.0
67.98,14.0
68.04,8.0
68.1,22.0
68.17,21.0
68.23,29.0
68.29,18.0
68.36,29.0
68.42,34.0
68.48,21.0
68.54,25.0
68.61,21.0
68.67,26.0
68.73,22.0
68.8,14.0
68.86,18.0
68.92,20.0
68.99,19.0
69.05,18.0
69.11,33.0
69.17,19.0
69.24,38.0
69.3,14.0
69.36,7.0
69.43,31.0
69.49,24.0
69.55,23.0
69.62,21.0
69.68,9.0
69.74,4.0
69.8,4.0
69.87,-16.0
69.93,-4.0
69.99,6.0
70.06,2.0
70.12,-8.0
70.18,9.0
70.25,19.0
70.31,11.0
70.37,15.0
70.43,17.0
70.5,13.0
70.56,-3.0
70.62,-3.0
70.69,-28.0
70.75,-20.0
70.81,-24.0
70.88,-21.0
70.94,-18.0
71.0,-24.0
71.06,-29.0
71.13,-30.0
71.19,-25.0
71.25,-5.0
71.32,-11.0
71.38,5.0
71.44,-2.0
71.51,14.0
71.57,4.0
71.63,-5.0
71.69,-14.0
71.76,-4.0
71.82,-6.0
71.88,-25.0
71.95,-28.0
72.01,-41.0
72.07,-25.0
72.14,-25.0
72.2,-34.0
72.26,-21.0
72.32,-42.0
72.39,-37.0
72.45,-18.0
72.51,-22.0
72.58,-22.0
72.64,-26.0
72.7,-25.0
72.77,-11.0
72.83,-37.0
72.89,-31.0
72.95,-27.0
73.02,-24.0
73.08,-30.0
73.14,-29.0
73.21,-45.0
73.27,-33.0
73.33,-29.0
73.4,-33.0
73.46,-15.0
73.52,-19.0
73.58,0.0
73.65,-2.0
73.71,-28.0
73.77,-26.0
73.84,-44.0
73.9,-59.0
73.96,-40.0
74.03,-51.0
74.09,-65.0
74.15,-48.0
74.21,-67.0
74.28,-56.0
74.34,-60.0
74.4,-85.0
74.47,-49.0
74.53,-67.0
74.59,-70.0
74.66,-60.0
74.72,-72.0
74.78,-47.0
74.84,-62.0
74.91,-63.0
74.97,-45.0
75.03,-49.0
75.1,-54.0
75.16,-49.0
75.22,-39.0
75.29,-43.0
75.35,-59.0
75.41,-71.0
75.47,-77.0
75.54,-75.0
75.6,-83.0
75.66,-73.0
75.73,-55.0
75.79,-74.0
75.85,-65.0
75.92,-44.0
75.98,-52.0
76.04,-47.0
76.1,-31.0
76.17,-22.0
76.23,-20.0
76.29,-29.0
76.36,-47.0
76.42,-35.0
76.48,-31.0
76.55,-36.0
76.61,-38.0
76.67,-51.0
76.73,-34.0
76.8,-31.0
76.86,-34.0
76.92,-49.0
76.99,-41.0
77.05,-39.0
77.11,-41.0
77.18,-43.0
77.24,-46.0
77.3,-69.0
77.36,-90.0
77.43,-81.0
77.49,-101.0
77.55,-97.0
77.62,-78.0
77.68,-85.0
77.74,-77.0
77.81,-90.0
77.87,-101.0
77.93,-87.0
77.99,-103.0
78.06,-91.0
78.12,-104.0
78.18,-106.0
78.25,-110.0
78.31,-127.0
78.37,-117.0
78.44,-111.0
78.5,-110.0
78.56,-100.0
78.62,-117.0
78.69,-105.0
78.75,-91.0
78.81,-104.0
78.88,-111.0
78.94,-117.0
79.0,-112.0
79.07,-111.0
79.13,-97.0
79.19,-86.0
79.25,-97.0
79.32,-100.0
79.38,-113.0
79.44,-97.0
79.51,-104.0
79.57,-111.0
79.63,-109.0
79.7,-100.0
79.76,-73.0
79.82,-59.0
79.88,-63.0
79.95,-60.0
80.01,-52.0
80.07,-54.0
80.14,-68.0
80.2,-62.0
80.26,-37.0
80.33,-45.0
80.39,-37.0
80.45,-22.0
80.51,-10.0
80.58,-21.0
80.64,-34.0
80.7,-17.0
80.77,-14.0
80.83,-18.0
80.89,-16.0
80.96,-2.0
81.02,-9.0
81.08,0.0
81.14,8.0
81.21,6.0
81.27,-9.0
81.33,1.0
81.4,-18.0
81.46,-12.0
81.52,-9.0
81.59,-2.0
81.65,20.0
81.71,4.0
81.77,19.0
81.84,33.0
81.9,22.0
81.96,4.0
82.03,18.0
82.09,5.0
82.15,20.0
82.22,27.0
82.28,9.0
82.34,12.0
82.4,16.0
82.47,12.0
82.53,0.0
82.59,10.0
82.66,15.0
82.72,12.0
82.78,0.0
82.85,-6.0
82.91,15.0
82.97,33.0
83.03,45.0
83.1,40.0
83.16,47.0
83.22,40.0
83.29,42.0
83.35,30.0
83.41,12.0
83.48,30.0
83.54,41.0
83.6,45.0
83.66,39.0
83.73,33.0
83.79,34.0
83.85,39.0
83.92,44.0
83.98,28.0
84.04,38.0
84.11,51.0
84.17,58.0
84.23,43.0
84.29,38.0
84.36,57.0
84.42,51.0
84.48,34.0
84.55,28.0
84.61,40.0
84.67,36.0
84.74,45.0
84.8,34.0
84.86,34.0
84.92,43.0
84.99,46.0
85.05,63.0
85.11,67.0
85.18,59.0
85.24,67.0
85.3,67.0
85.37,59.0
85.43,71.0
85.49,69.0
85.55,66.0
85.62,80.0
85.68,69.0
85.74,67.0
85.81,57.0
85.87,63.0
85.93,68.0
86.0,67.0
86.06,71.0
86.12,65.0
86.18,81.0
86.25,77.0
86.31,84.0
86.37,83.0
86.44,90.0
86.5,92.0
86.56,80.0
86.63,93.0
86.69,97.0
86.75,109.0
86.81,86.0
86.88,98.0
86.94,95.0
87.0,88.0
87.07,100.0
87.13,99.0
87.19,110.0
87.26,94.0
87.32,99.0
87.38,103.0
87.44,98.0
87.51,97.0
87.57,81.0
87.63,74.0
87.7,81.0
87.76,90.0
87.82,84.0
87.89,98.0
87.95,108.0
88.01,94.0
88.07,92.0
88.14,99.0
88.2,100.0
88.26,69.0
88.33,93.0
88.39,111.0
88.45,92.0
88.52,92.0
88.58,97.0
88.64,98.0
88.7,88.0
88.77,84.0
88.83,83.0
88.89,95.0
88.96,95.0
89.02,102.0
89.08,119.0
89.15,97.0
89.21,73.0
89.27,64.0
89.33,92.0
89.4,119.0
89.46,106.0
89.52,100.0
89.59,115.0
89.65,98.0
89.71,110.0
89.78,112.0
89.84,103.0
89.9,100.0
89.96,89.0
90.03,81.0
90.09,80.0
90.15,95.0
90.22,89.0
90.28,104.0
90.34,99.0
90.41,110.0
90.47,92.0
90.53,106.0
90.59,105.0
90.66,83.0
90.72,105.0
90.78,100.0
90.85,116.0
90.91,117.0
90.97,106.0
91.04,103.0
91.1,105.0
91.16,108.0
91.22,111.0
91.29,125.0
91.35,111.0
91.41,114.0
91.48,120.0
91.54,112.0
91.6,117.0
91.67,114.0
91.73,107.0
91.79,103.0
91.85,92.0
91.92,95.0
91.98,99.0
92.04,129.0
92.11,117.0
92.17,113.0
92.23,105.0
92.3,97.0
92.36,85.0
92.42,96.0
92.48,119.0
92.55,107.0
92.61,96.0
92.67,98.0
92.74,114.0
92.8,131.0
92.86,145.0
92.93,126.0
92.99,128.0
93.05,106.0
93.11,76.0
93.18,111.0
93.24,81.0
93.3,91.0
93.37,100.0
93.43,85.0
93.49,98.0
93.56,85.0
93.62,64.0
93.68,79.0
93.74,76.0
93.81,92.0
93.87,66.0
93.93,48.0
94.0,42.0
94.06,70.0
94.12,59.0
94.19,64.0
94.25,65.0
94.31,69.0
94.37,74.0
94.44,57.0
94.5,36.0
94.56,44.0
94.63,80.0
94.69,73.0
94.75,62.0
94.82,74.0
94.88,55.0
94.94,90.0
95.0,77.0
95.07,78.0
95.13,82.0
95.19,58.0
95.26,50.0
95.32,52.0
95.38,64.0
95.45,58.0
95.51,63.0
95.57,48.0
95.63,57.0
95.7,78.0
95.76,62.0
95.82,64.0
95.89,58.0
95.95,59.0
96.01,59.0
96.08,53.0
96.14,62.0
96.2,53.0
96.26,56.0
96.33,37.0
96.39,33.0
96.45,42.0
96.52,41.0
96.58,36.0
96.64,21.0
96.71,28.0
96.77,37.0
96.83,39.0
96.89,55.0
96.96,45.0
97.02,52.0
97.08,44.0
97.15,55.0
97.21,27.0
97.27,33.0
97.34,40.0
97.4,30.0
97.46,28.0
97.52,37.0
97.59,35.0
97.65,10.0
97.71,17.0
97.78,14.0
97.84,15.0
97.9,22.0
97.97,18.0
98.03,15.0
98.09,20.0
98.15,29.0
98.22,36.0
98.28,42.0
98.34,55.0
98.41,58.0
98.47,64.0
98.53,61.0
98.6,62.0
98.66,35.0
98.72,29.0
98.78,39.0
98.85,27.0
98.91,15.0
98.97,16.0
99.04,11.0
99.1,15.0
99.16,21.0
99.23,16.0
99.29,33.0
99.35,55.0
99.41,44.0
99.48,35.0
99.54,40.0
99.6,40.0
99.67,31.0
99.73,31.0
99.79,27.0
99.86,41.0
99.92,48.0
99.98,31.0
100.04,30.0
100.11,22.0
100.17,26.0
100.23,24.0
100.3,32.0
100.36,12.0
100.42,12.0
100.49,11.0
100.55,-3.0
100.61,-2.0
100.67,4.0
100.74,26.0
100.8,17.0
100.86,-1.0
100.93,-8.0
100.99,-5.0
101.05,-22.0
101.12,-20.0
101.18,-5.0
101.24,-15.0
101.3,-19.0
101.37,-8.0
101.43,-19.0
101.49,-8.0
101.56,-5.0
101.62,-15.0
101.68,0.0
101.75,-12.0
101.81,-1.0
101.87,-22.0
101.93,-17.0
102.0,11.0
102.06,14.0
102.12,19.0
102.19,0.0
102.25,5.0
102.31,-3.0
102.38,-16.0
102.44,-19.0
102.5,-2.0
102.56,-7.0
102.63,-4.0
102.69,-3.0
102.75,1.0
102.82,5.0
102.88,21.0
102.94,2.0
103.01,22.0
103.07,41.0
103.13,23.0
103.19,25.0
103.26,27.0
103.32,15.0
103.38,21.0
103.45,16.0
103.51,-2.0
103.57,11.0
103.64,8.0
103.7,7.0
103.76,28.0
103.82,3.0
103.89,1.0
103.95,-3.0
104.01,4.0
104.08,9.0
104.14,18.0
104.2,33.0
104.27,21.0
104.33,8.0
104.39,19.0
104.45,24.0
104.52,19.0
104.58,12.0
104.64,5.0
104.71,26.0
104.77,33.0
104.83,28.0
104.9,34.0
104.96,22.0
105.02,18.0
105.08,43.0
105.15,26.0
105.21,35.0
105.27,22.0
105.34,44.0
105.4,46.0
105.46,35.0
105.53,57.0
105.59,42.0
105.65,57.0
105.71,57.0
105.78,51.0
105.84,77.0
105.9,73.0
105.97,62.0
106.03,66.0
106.09,65.0
106.16,68.0
106.22,72.0
106.28,76.0
106.34,79.0
106.41,79.0
106.47,68.0
106.53,65.0
106.6,62.0
106.66,73.0
106.72,34.0
106.79,55.0
106.85,55.0
106.91,66.0
106.97,69.0
107.04,45.0
107.1,67.0
107.16,73.0
107.23,63.0
107.29,58.0
107.35,64.0
107.42,54.0
107.48,45.0
107.54,51.0
107.6,60.0
107.67,69.0
107.73,54.0
107.79,69.0
107.86,49.0
107.92,41.0
107.98,44.0
108.05,41.0
108.11,39.0
108.17,60.0
108.23,70.0
108.3,58.0
108.36,60.0
108.42,55.0
108.49,68.0
108.55,58.0
108.61,62.0
108.68,65.0
108.74,44.0
108.8,55.0
108.86,25.0
108.93,26.0
108.99,70.0
109.05,59.0
109.12,69.0
109.18,74.0
109.24,68.0
109.31,55.0
109.37,53.0
109.43,71.0
109.49,68.0
109.56,82.0
109.62,71.0
109.68,74.0
109.75,65.0
109.81,62.0
109.87,78.0
109.94,55.0
110.0,67.0
110.06,67.0
110.12,77.0
110.19,57.0
110.25,62.0
110.31,82.0
110.38,76.0
110.44,90.0
110.5,94.0
110.57,66.0
110.63,40.0
110.69,65.0
110.75,99.0
110.82,77.0
110.88,79.0
110.94,69.0
111.01,65.0
111.07,70.0
111.13,52.0
111.2,41.0
111.26,35.0
111.32,29.0
111.38,38.0
111.45,51.0
111.51,47.0
111.57,44.0
111.64,66.0
111.7,70.0
111.76,60.0
111.83,48.0
111.89,67.0
111.95,56.0
112.01,68.0
112.08,69.0
112.14,52.0
112.2,47.0
112.27,47.0
112.33,55.0
112.39,42.0
112.46,66.0
112.52,57.0
112.58,43.0
112.64,44.0
112.71,60.0
112.77,62.0
112.83,49.0
112.9,39.0
112.96,47.0
113.02,39.0
113.09,35.0
113.15,26.0
113.21,21.0
113.27,31.0
113.34,35.0
113.4,18.0
113.46,41.0
113.53,37.0
113.59,26.0
113.65,22.0
113.72,27.0
113.78,14.0
113.84,32.0
113.9,21.0
113.97,12.0
114.03,-2.0
114.09,11.0
114.16,31.0
114.22,-5.0
114.28,35.0
114.35,17.0
114.41,13.0
114.47,35.0
114.53,21.0
114.6,60.0
114.66,40.0
114.72,38.0
114.79,30.0
114.85,31.0
114.91,46.0
114.98,17.0
115.04,32.0
115.1,16.0
115.16,6.0
115.23,33.0
115.29,21.0
115.35,26.0
115.42,6.0
115.48,-1.0
115.54,19.0
115.61,35.0
115.67,41.0
115.73,36.0
115.79,50.0
115.86,52.0
115.92,37.0
115.98,38.0
116.05,46.0
116.11,27.0
116.17,28.0
116.24,24.0
116.3,33.0
116.36,30.0
116.42,44.0
116.49,50.0
116.55,49.0
116.61,43.0
116.68,50.0
116.74,55.0
116.8,42.0
116.87,50.0
116.93,53.0
116.99,55.0
117.05,33.0
117.12,39.0
117.18,63.0
117.24,47.0
117.31,49.0
117.37,46.0
117.43,49.0
117.5,40.0
117.56,33.0
117.62,39.0
117.68,55.0
117.75,45.0
117.81,18.0
117.87,33.0
117.94,45.0
118.0,39.0
118.06,24.0
118.13,30.0
118.19,32.0
118.25,27.0
118.31,47.0
118.38,33.0
118.44,35.0
118.5,43.0
118.57,50.0
118.63,32.0
118.69,38.0
118.76,40.0
118.82,30.0
118.88,39.0
118.94,37.0
119.01,24.0
119.07,31.0
119.13,48.0
119.2,43.0
119.26,54.0
119.32,66.0
119.39,64.0
119.45,70.0
119.51,75.0
119.57,50.0
119.64,60.0
119.7,76.0
119.76,69.0
119.83,69.0
119.89,71.0
119.95,64.0
120.02,85.0
120.08,67.0
120.14,82.0
120.2,75.0
120.27,41.0
120.33,60.0
120.39,44.0
120.46,72.0
120.52,53.0
120.58,65.0
120.65,90.0
120.71,54.0
120.77,66.0
120.83,63.0
120.9,83.0
120.96,78.0
121.02,76.0
121.09,85.0
121.15,73.0
121.21,64.0
121.28,69.0
121.34,73.0
121.4,86.0
121.46,91.0
121.53,91.0
121.59,66.0
121.65,74.0
121.72,68.0
121.78,88.0
121.84,92.0
121.91,72.0
121.97,85.0
122.03,94.0
122.09,95.0
122.16,71.0
122.22,60.0
122.28,61.0
122.35,54.0
122.41,71.0
122.47,72.0
122.54,67.0
122.6,62.0
122.66,66.0
122.72,59.0
122.79,67.0
122.85,69.0
122.91,75.0
122.98,79.0
123.04,85.0
123.1,69.0
123.17,85.0
123.23,69.0
123.29,82.0
123.35,67.0
123.42,36.0
123.48,30.0
123.54,38.0
123.61,14.0
123.67,38.0
123.73,28.0
123.8,19.0
123.86,24.0
123.92,18.0
123.98,16.0
124.05,-3.0
124.11,-6.0
124.17,1.0
124.24,11.0
124.3,10.0
124.36,14.0
124.43,7.0
124.49,1.0
124.55,15.0
124.61,28.0
124.68,27.0
124.74,30.0
124.8,11.0
124.87,18.0
124.93,14.0
124.99,16.0
125.06,21.0
125.12,2.0
125.18,14.0
125.24,15.0
125.31,4.0
125.37,3.0
125.43,17.0
125.5,26.0
125.56,10.0
125.62,17.0
125.69,23.0
125.75,-4.0
125.81,-5.0
125.87,-7.0
125.94,-9.0
126.0,-20.0
126.06,-2.0
126.13,-3.0
126.19,-16.0
126.25,-4.0
126.32,-7.0
126.38,4.0
126.44,-12.0
126.5,-6.0
126.57,-8.0
126.63,1.0
126.69,-20.0
126.76,-15.0
126.82,-6.0
126.88,-12.0
126.95,-17.0
127.01,-2.0
127.07,-19.0
127.13,-15.0
127.2,-11.0
127.26,-10.0
127.32,-13.0
127.39,-19.0
127.45,-13.0
127.51,-23.0
127.58,-37.0
127.64,-37.0
127.7,-21.0
127.76,-47.0
127.83,-43.0
127.89,-45.0
127.95,-43.0
128.02,-35.0
128.08,-29.0
128.14,-30.0
128.21,-38.0
128.27,-2.0
128.33,-25.0
128.39,-18.0
128.46,-9.0
128.52,-18.0
128.58,-10.0
128.65,-10.0
128.71,-15.0
128.77,0.0
128.84,25.0
128.9,8.0
128.96,4.0
129.02,4.0
129.09,3.0
129.15,-12.0
129.21,-9.0
129.28,-1.0
129.34,-5.0
129.4,-5.0
129.47,5.0
129.53,2.0
129.59,-1.0
129.65,-11.0
129.72,-2.0
129.78,1.0
129.84,-18.0
129.91,-1.0
129.97,-6.0
130.03,22.0
130.1,10.0
130.16,10.0
130.22,-2.0
130.28,20.0
130.35,16.0
130.41,6.0
130.47,17.0
130.54,15.0
130.6,24.0
130.66,12.0
130.73,-6.0
130.79,11.0
130.85,10.0
130.91,10.0
130.98,18.0
131.04,16.0
131.1,16.0
131.17,3.0
131.23,19.0
131.29,20.0
131.36,19.0
131.42,22.0
131.48,1.0
131.54,-4.0
131.61,11.0
131.67,4.0
131.73,27.0
131.8,26.0
131.86,37.0
131.92,45.0
131.99,33.0
132.05,42.0
132.11,37.0
132.17,53.0
132.24,54.0
132.3,64.0
132.36,54.0
132.43,56.0
132.49,60.0
132.55,81.0
132.62,67.0
132.68,61.0
132.74,69.0
132.8,65.0
132.87,60.0
132.93,55.0
132.99,64.0
133.06,56.0
133.12,30.0
133.18,34.0
133.25,26.0
133.31,25.0
133.37,34.0
133.43,36.0
133.5,45.0
133.56,45.0
133.62,15.0
133.69,20.0
133.75,42.0
133.81,46.0
133.88,56.0
133.94,89.0
134.0,67.0
134.06,73.0
134.13,77.0
134.19,59.0
134.25,51.0
134.32,41.0
134.38,43.0
134.44,49.0
134.51,63.0
134.57,54.0
134.63,58.0
134.69,35.0
134.76,31.0
134.82,30.0
134.88,31.0
134.95,38.0
135.01,38.0
135.07,24.0
135.14,32.0
135.2,25.0
135.26,18.0
135.32,23.0
135.39,25.0
135.45,44.0
135.51,33.0
135.58,22.0
135.64,25.0
135.7,34.0
135.77,36.0
135.83,58.0
135.89,51.0
135.95,51.0
136.02,53.0
136.08,48.0
136.14,46.0
136.21,48.0
136.27,37.0
136.33,29.0
136.4,51.0
136.46,54.0
136.52,76.0
136.58,68.0
136.65,67.0
136.71,68.0
136.77,59.0
136.84,59.0
136.9,59.0
136.96,68.0
137.03,83.0
137.09,75.0
137.15,74.0
137.21,77.0
137.28,61.0
137.34,70.0
137.4,73.0
137.47,51.0
137.53,44.0
137.59,37.0
137.66,68.0
137.72,69.0
137.78,79.0
137.84,80.0
137.91,79.0
137.97,82.0
138.03,102.0
138.1,102.0
138.16,95.0
138.22,96.0
138.29,96.0
138.35,120.0
138.41,96.0
138.47,100.0
138.54,96.0
138.6,103.0
138.66,100.0
138.73,101.0
138.79,95.0
138.85,89.0
138.92,74.0
138.98,87.0
139.04,75.0
139.1,74.0
139.17,96.0
139.23,79.0
139.29,98.0
139.36,103.0
139.42,85.0
139.48,81.0
139.55,68.0
139.61,63.0
139.67,51.0
139.73,57.0
139.8,74.0
139.86,53.0
139.92,55.0
139.99,67.0
140.05,63.0
140.11,44.0
140.18,36.0
140.24,38.0
140.3,42.0
140.36,37.0
140.43,54.0
140.49,52.0
140.55,77.0
140.62,67.0
140.68,78.0
140.74,81.0
140.81,78.0
140.87,83.0
140.93,77.0
140.99,85.0
141.06,72.0
141.12,77.0
141.18,84.0
141.25,85.0
141.31,76.0
141.37,79.0
141.44,80.0
141.5,89.0
141.56,95.0
141.62,93.0
141.69,70.0
141.75,78.0
141.81,94.0
141.88,73.0
141.94,74.0
142.0,75.0
142.07,60.0
142.13,70.0
142.19,69.0
142.25,59.0
142.32,49.0
142.38,47.0
142.44,99.0
142.51,85.0
142.57,87.0
142.63,72.0
142.7,88.0
142.76,89.0
142.82,103.0
142.88,100.0
142.95,115.0
143.01,99.0
143.07,110.0
143.14,107.0
143.2,89.0
143.26,93.0
143.33,113.0
143.39,123.0
143.45,99.0
143.51,110.0
143.58,106.0
143.64,101.0
143.7,103.0
143.77,100.0
143.83,125.0
143.89,133.0
143.96,125.0
144.02,124.0
144.08,103.0
144.14,122.0
144.21,129.0
144.27,136.0
144.33,129.0
144.4,98.0
144.46,134.0
144.52,130.0
144.59,112.0
144.65,128.0
144.71,119.0
144.77,95.0
144.84,111.0
144.9,117.0
144.96,119.0
145.03,118.0
145.09,118.0
145.15,96.0
145.22,89.0
145.28,111.0
145.34,104.0
145.4,92.0
145.47,88.0
145.53,98.0
145.59,88.0
145.66,84.0
145.72,74.0
145.78,64.0
145.85,68.0
145.91,71.0
145.97,68.0
146.03,94.0
146.1,90.0
146.16,81.0
146.22,72.0
146.29,87.0
146.35,80.0
146.41,67.0
146.47,68.0
146.54,79.0
146.6,80.0
146.66,73.0
146.73,64.0
146.79,74.0
146.85,89.0
146.92,67.0
146.98,80.0
147.04,63.0
147.1,83.0
147.17,102.0
147.23,110.0
147.29,90.0
147.36,95.0
147.42,111.0
147.48,103.0
147.55,92.0
147.61,104.0
147.67,106.0
147.73,125.0
147.8,142.0
147.86,144.0
147.92,123.0
147.99,115.0
148.05,130.0
148.11,127.0
148.18,134.0
148.24,125.0
148.3,128.0
148.36,123.0
148.43,112.0
148.49,129.0
148.55,125.0
148.62,127.0
148.68,123.0
148.74,130.0
148.81,130.0
148.87,118.0
148.93,100.0
148.99,118.0
149.06,88.0
149.12,73.0
149.18,82.0
149.25,67.0
149.31,72.0
149.37,83.0
149.44,82.0
149.5,85.0
149.56,81.0
149.62,75.0
149.69,71.0
149.75,65.0
149.81,78.0
149.88,73.0
149.94,60.0
150.0,82.0
150.07,71.0
150.13,64.0
150.19,85.0
150.25,70.0
150.32,79.0
150.38,67.0
150.44,74.0
150.51,74.0
150.57,62.0
150.63,62.0
150.7,58.0
150.76,46.0
150.82,46.0
150.88,52.0
150.95,54.0
151.01,58.0
151.07,57.0
151.14,33.0
151.2,40.0
151.26,56.0
151.33,59.0
151.39,29.0
151.45,17.0
151.51,19.0
151.58,42.0
151.64,47.0
151.7,35.0
151.77,51.0
151.83,35.0
151.89,55.0
151.96,57.0
152.02,42.0
152.08,70.0
152.14,65.0
152.21,74.0
152.27,71.0
152.33,91.0
152.4,72.0
152.46,74.0
152.52,65.0
152.59,53.0
152.65,37.0
152.71,33.0
152.77,48.0
152.84,47.0
152.9,51.0
152.96,41.0
153.03,38.0
153.09,48.0
153.15,54.0
153.22,44.0
153.28,65.0
153.34,57.0
153.4,59.0
153.47,65.0
153.53,88.0
153.59,87.0
153.66,79.0
153.72,81.0
153.78,94.0
153.85,75.0
153.91,83.0
153.97,94.0
154.03,109.0
154.1,99.0
154.16,89.0
154.22,81.0
154.29,89.0
154.35,84.0
154.41,63.0
154.48,61.0
154.54,64.0
154.6,56.0
154.66,56.0
154.73,88.0
154.79,83.0
154.85,84.0
154.92,86.0
154.98,79.0
155.04,84.0
155.11,87.0
155.17,85.0
155.23,67.0
155.29,88.0
155.36,85.0
155.42,68.0
155.48,70.0
155.55,85.0
155.61,72.0
155.67,66.0
155.74,52.0
155.8,60.0
155.86,56.0
155.92,54.0
155.99,33.0
156.05,30.0
156.11,24.0
156.18,24.0
156.24,25.0
156.3,5.0
156.37,29.0
156.43,41.0
156.49,56.0
156.55,24.0
156.62,19.0
156.68,36.0
156.74,41.0
156.81,64.0
156.87,45.0
156.93,57.0
157.0,43.0
157.06,36.0
157.12,32.0
157.18,13.0
157.25,19.0
157.31,16.0
157.37,40.0
157.44,25.0
157.5,29.0
157.56,26.0
157.63,39.0
157.69,28.0
157.75,28.0
157.81,35.0
157.88,33.0
157.94,26.0
158.0,25.0
158.07,38.0
158.13,45.0
158.19,54.0
158.26,54.0
158.32,15.0
158.38,39.0
158.44,40.0
158.51,28.0
158.57,37.0
158.63,30.0
158.7,25.0
158.76,37.0
158.82,40.0
158.89,23.0
158.95,11.0
159.01,28.0
159.07,21.0
159.14,4.0
159.2,11.0
159.26,33.0
159.33,29.0
159.39,21.0
159.45,38.0
159.52,20.0
159.58,41.0
159.64,42.0
159.7,52.0
159.77,41.0
159.83,40.0
159.89,43.0
159.96,41.0
160.02,44.0
160.08,21.0
160.15,37.0
160.21,21.0
160.27,8.0
160.33,20.0
160.4,33.0
160.46,18.0
160.52,32.0
160.59,24.0
160.65,31.0
160.71,25.0
160.78,25.0
160.84,31.0
160.9,18.0
160.96,21.0
161.03,24.0
161.09,8.0
161.15,-5.0
161.22,13.0
161.28,-12.0
161.34,-3.0
161.41,-2.0
161.47,-3.0
161.53,-1.0
161.59,8.0
161.66,-5.0
161.72,-23.0
161.78,-24.0
161.85,-7.0
161.91,-8.0
161.97,-10.0
162.04,9.0
162.1,14.0
162.16,-3.0
162.22,10.0
162.29,-3.0
162.35,-1.0
162.41,-2.0
162.48,21.0
162.54,8.0
162.6,9.0
162.67,34.0
162.73,15.0
162.79,25.0
162.85,25.0
162.92,34.0
162.98,35.0
163.04,26.0
163.11,45.0
163.17,39.0
163.23,37.0
163.3,22.0
163.36,26.0
163.42,38.0
163.48,41.0
163.55,54.0
163.61,61.0
163.67,54.0
163.74,45.0
163.8,44.0
163.86,49.0
163.93,53.0
163.99,39.0
164.05,44.0
164.11,34.0
164.18,52.0
164.24,74.0
164.3,78.0
164.37,64.0
164.43,66.0
164.49,49.0
164.56,61.0
164.62,60.0
164.68,65.0
164.74,44.0
164.81,74.0
164.87,69.0
164.93,72.0
165.0,74.0
165.06,78.0
165.12,77.0
165.19,67.0
165.25,76.0
165.31,67.0
165.37,67.0
165.44,64.0
165.5,73.0
165.56,86.0
165.63,70.0
165.69,56.0
165.75,73.0
165.82,88.0
165.88,78.0
165.94,79.0
166.0,84.0
166.07,87.0
166.13,91.0
166.19,98.0
166.26,94.0
166.32,77.0
166.38,78.0
166.45,77.0
166.51,63.0
166.57,83.0
166.63,57.0
166.7,65.0
166.76,68.0
166.82,66.0
166.89,94.0
166.95,59.0
167.01,68.0
167.08,61.0
167.14,81.0
167.2,58.0
167.26,52.0
167.33,69.0
167.39,54.0
167.45,70.0
167.52,69.0
167.58,62.0
167.64,58.0
167.71,60.0
167.77,45.0
167.83,52.0
167.89,58.0
167.96,50.0
168.02,52.0
168.08,45.0
168.15,55.0
168.21,29.0
168.27,32.0
168.34,57.0
168.4,56.0
168.46,60.0
168.52,32.0
168.59,28.0
168.65,37.0
168.71,26.0
168.78,21.0
168.84,37.0
168.9,49.0
168.97,44.0
169.03,50.0
169.09,68.0
169.15,52.0
169.22,51.0
169.28,38.0
169.34,31.0
169.41,45.0
169.47,50.0
169.53,64.0
169.6,69.0
169.66,82.0
169.72,73.0
169.78,58.0
169.85,65.0
169.91,82.0
169.97,72.0
170.04,88.0
170.1,106.0
170.16,95.0
170.23,111.0
170.29,133.0
170.35,125.0
170.41,122.0
170.48,119.0
170.54,144.0
170.6,140.0
170.67,132.0
170.73,128.0
170.79,130.0
170.86,139.0
170.92,139.0
170.98,158.0
171.04,147.0
171.11,155.0
171.17,119.0
171.23,121.0
171.3,128.0
171.36,125.0
171.42,111.0
171.49,128.0
171.55,137.0
171.61,116.0
171.67,129.0
171.74,135.0
171.8,144.0
171.86,114.0
171.93,149.0
171.99,142.0
172.05,143.0
172.12,144.0
172.18,140.0
172.24,154.0
172.3,147.0
172.37,133.0
172.43,133.0
172.49,113.0
172.56,141.0
172.62,136.0
172.68,132.0
172.75,139.0
172.81,141.0
172.87,111.0
172.93,130.0
173.0,132.0
173.06,118.0
173.12,118.0
173.19,120.0
173.25,109.0
173.31,114.0
173.38,130.0
173.44,118.0
173.5,129.0
173.56,116.0
173.63,110.0
173.69,105.0
173.75,108.0
173.82,109.0
173.88,95.0
173.94,81.0
174.01,75.0
174.07,116.0
174.13,104.0
174.19,104.0
174.26,116.0
174.32,92.0
174.38,93.0
174.45,93.0
174.51,82.0
174.57,94.0
174.64,80.0
174.7,67.0
174.76,61.0
174.82,47.0
174.89,59.0
174.95,38.0
175.01,29.0
175.08,43.0
175.14,31.0
175.2,41.0
175.27,34.0
175.33,38.0
175.39,47.0
175.45,52.0
175.52,54.0
175.58,57.0
175.64,49.0
175.71,31.0
175.77,35.0
175.83,45.0
175.9,47.0
175.96,41.0
176.02,33.0
176.08,23.0
176.15,55.0
176.21,45.0
176.27,47.0
176.34,27.0
176.4,17.0
176.46,7.0
176.53,21.0
176.59,37.0
176.65,15.0
176.71,29.0
176.78,12.0
176.84,7.0
176.9,-1.0
176.97,13.0
177.03,0.0
177.09,8.0
177.16,16.0
177.22,19.0
177.28,29.0
177.34,47.0
177.41,47.0
177.47,53.0
177.53,49.0
177.6,35.0
177.66,39.0
177.72,25.0
177.79,42.0
177.85,33.0
177.91,13.0
177.97,15.0
178.04,3.0
178.1,7.0
178.16,22.0
178.23,31.0
178.29,29.0
178.35,33.0
178.42,42.0
178.48,43.0
178.54,32.0
178.6,44.0
178.67,9.0
178.73,25.0
178.79,32.0
178.86,27.0
178.92,22.0
178.98,21.0
179.05,14.0
179.11,29.0
179.17,44.0
179.23,30.0
179.3,33.0
179.36,29.0
179.42,47.0
179.49,60.0
179.55,42.0
179.61,66.0
179.68,41.0
179.74,25.0
179.8,23.0
179.86,6.0
179.93,18.0
179.99,33.0
180.05,36.0
180.12,54.0
180.18,34.0
180.24,33.0
180.31,33.0
180.37,44.0
180.43,52.0
180.49,41.0
180.56,58.0
180.62,46.0
180.68,51.0
180.75,67.0
180.81,62.0
180.87,52.0
180.94,38.0
181.0,47.0
181.06,48.0
181.12,23.0
181.19,39.0
181.25,52.0
181.31,55.0
181.38,62.0
181.44,51.0
181.5,47.0
181.57,39.0
181.63,55.0
181.69,42.0
181.75,34.0
181.82,37.0
181.88,55.0
181.94,69.0
182.01,38.0
182.07,50.0
182.13,56.0
182.2,53.0
182.26,43.0
182.32,69.0
182.38,46.0
182.45,45.0
182.51,38.0
182.57,40.0
182.64,38.0
182.7,19.0
182.76,20.0
182.83,43.0
182.89,45.0
182.95,37.0
183.01,44.0
183.08,27.0
183.14,32.0
183.2,26.0
183.27,41.0
183.33,41.0
183.39,35.0
183.46,13.0
183.52,5.0
183.58,33.0
183.64,30.0
183.71,20.0
183.77,25.0
183.83,19.0
183.9,21.0
183.96,22.0
184.02,37.0
184.09,27.0
184.15,18.0
184.21,4.0
184.27,-5.0
184.34,37.0
184.4,37.0
184.46,22.0
184.53,29.0
184.59,27.0
184.65,25.0
184.72,11.0
184.78,18.0
184.84,36.0
184.9,53.0
184.97,39.0
185.03,54.0
185.09,49.0
185.16,48.0
185.22,42.0
185.28,43.0
185.35,49.0
185.41,43.0
185.47,36.0
185.53,39.0
185.6,44.0
185.66,51.0
185.72,60.0
185.79,47.0
185.85,43.0
185.91,36.0
185.98,45.0
186.04,67.0
186.1,62.0
186.16,62.0
186.23,54.0
186.29,73.0
186.35,63.0
186.42,41.0
186.48,40.0
186.54,36.0
186.61,59.0
186.67,66.0
186.73,52.0
186.79,42.0
186.86,51.0
186.92,55.0
186.98,59.0
187.05,64.0
187.11,36.0
187.17,51.0
187.24,63.0
187.3,61.0
187.36,65.0
187.42,44.0
187.49,55.0
187.55,55.0
187.61,38.0
187.68,42.0
187.74,55.0
187.8,42.0
187.87,44.0
187.93,51.0
187.99,70.0
188.05,81.0
188.12,54.0
188.18,55.0
188.24,42.0
188.31,56.0
188.37,64.0
188.43,67.0
188.5,81.0
188.56,62.0
188.62,71.0
188.68,67.0
188.75,75.0
188.81,86.0
188.87,54.0
188.94,75.0
189.0,62.0
189.06,78.0
189.13,88.0
189.19,84.0
189.25,91.0
189.31,103.0
189.38,79.0
189.44,98.0
189.5,93.0
189.57,80.0
189.63,80.0
189.69,88.0
189.76,86.0
189.82,86.0
189.88,84.0
189.94,76.0
190.01,65.0
190.07,58.0
190.13,74.0
190.2,75.0
190.26,77.0
190.32,58.0
190.39,51.0
190.45,69.0
190.51,58.0
190.57,65.0
190.64,61.0
190.7,34.0
190.76,33.0
190.83,35.0
190.89,36.0
190.95,46.0
191.02,28.0
191.08,41.0
191.14,49.0
191.2,55.0
191.27,56.0
191.33,44.0
191.39,48.0
191.46,68.0
191.52,54.0
191.58,44.0
191.65,75.0
191.71,62.0
191.77,73.0
191.83,55.0
191.9,51.0
191.96,54.0
192.02,58.0
192.09,47.0
192.15,36.0
192.21,57.0
192.28,29.0
192.34,34.0
192.4,39.0
192.46,27.0
192.53,24.0
192.59,44.0
192.65,44.0
192.72,43.0
192.78,52.0
192.84,40.0
192.91,65.0
192.97,44.0
193.03,34.0
193.09,56.0
193.16,46.0
193.22,57.0
193.28,59.0
193.35,75.0
193.41,60.0
193.47,41.0
193.54,47.0
193.6,40.0
193.66,50.0
193.72,52.0
193.79,61.0
193.85,39.0
193.91,44.0
193.98,56.0
194.04,72.0
194.1,95.0
194.17,93.0
194.23,47.0
194.29,55.0
194.35,73.0
194.42,73.0
194.48,70.0
194.54,66.0
194.61,77.0
194.67,63.0
194.73,46.0
194.8,69.0
194.86,58.0
194.92,58.0
194.98,53.0
195.05,72.0
195.11,67.0
195.17,73.0
195.24,75.0
195.3,87.0
195.36,70.0
195.43,68.0
195.49,64.0
195.55,62.0
195.61,92.0
195.68,85.0
195.74,84.0
195.8,87.0
195.87,106.0
195.93,96.0
195.99,77.0
196.06,77.0
196.12,58.0
196.18,60.0
196.24,72.0
196.31,51.0
196.37,58.0
196.43,67.0
196.5,93.0
196.56,84.0
196.62,72.0
196.69,80.0
196.75,95.0
196.81,80.0
196.87,74.0
196.94,85.0
197.0,78.0
197.06,108.0
197.13,84.0
197.19,76.0
197.25,80.0
197.32,71.0
197.38,77.0
197.44,85.0
197.5,76.0
197.57,85.0
197.63,84.0
197.69,73.0
197.76,88.0
197.82,75.0
197.88,87.0
197.95,94.0
198.01,79.0
198.07,100.0
198.13,97.0
198.2,92.0
198.26,98.0
198.32,100.0
198.39,92.0
198.45,74.0
198.51,85.0
198.58,100.0
198.64,100.0
198.7,90.0
198.76,98.0
198.83,106.0
198.89,115.0
198.95,95.0
199.02,89.0
199.08,91.0
199.14,85.0
199.21,61.0
199.27,91.0
199.33,86.0
199.39,80.0
199.46,92.0
199.52,92.0
199.58,82.0
199.65,94.0
199.71,100.0
199.77,98.0
199.84,117.0
199.9,111.0
199.96,94.0
200.02,91.0
200.09,89.0
200.15,121.0
200.21,126.0
200.28,114.0
200.34,117.0
200.4,116.0
200.47,117.0
200.53,123.0
200.59,111.0
200.65,111.0
200.72,105.0
200.78,100.0
200.84,122.0
200.91,100.0
200.97,102.0
201.03,106.0
201.1,113.0
201.16,125.0
201.22,117.0
201.28,113.0
201.35,102.0
201.41,94.0
201.47,87.0
201.54,93.0
201.6,106.0
201.66,90.0
201.73,80.0
201.79,108.0
201.85,89.0
201.91,92.0
201.98,71.0
202.04,79.0
202.1,81.0
202.17,75.0
202.23,83.0
202.29,96.0
202.36,85.0
202.42,73.0
202.48,78.0
202.54,100.0
202.61,100.0
202.67,103.0
202.73,95.0
202.8,94.0
202.86,122.0
202.92,114.0
202.99,103.0
203.05,104.0
203.11,126.0
203.17,129.0
203.24,112.0
203.3,116.0
203.36,110.0
203.43,140.0
203.49,130.0
203.55,127.0
203.62,138.0
203.68,149.0
203.74,152.0
203.8,141.0
203.87,154.0
203.93,133.0
203.99,158.0
204.06,150.0
204.12,140.0
204.18,124.0
204.25,118.0
204.31,128.0
204.37,110.0
204.43,136.0
204.5,123.0
204.56,128.0
204.62,135.0
204.69,146.0
204.75,151.0
204.81,155.0
204.88,124.0
204.94,131.0
205.0,129.0
205.06,140.0
205.13,142.0
205.19,127.0
205.25,120.0
205.32,109.0
205.38,110.0
205.44,111.0
205.51,105.0
205.57,90.0
205.63,137.0
205.69,116.0
205.76,96.0
205.82,117.0
205.88,135.0
205.95,127.0
206.01,127.0
206.07,131.0
206.14,131.0
206.2,118.0
206.26,113.0
206.32,122.0
206.39,113.0
206.45,125.0
206.51,119.0
206.58,108.0
206.64,104.0
206.7,102.0
206.77,98.0
206.83,102.0
206.89,80.0
206.95,89.0
207.02,94.0
207.08,106.0
207.14,114.0
207.21,121.0
207.27,119.0
207.33,144.0
207.4,130.0
207.46,123.0
207.52,107.0
207.58,114.0
207.65,120.0
207.71,119.0
207.77,102.0
207.84,108.0
207.9,113.0
207.96,87.0
208.03,82.0
208.09,80.0
208.15,75.0
208.21,64.0
208.28,62.0
208.34,87.0
208.4,75.0
208.47,64.0
208.53,62.0
208.59,67.0
208.66,58.0
208.72,60.0
208.78,42.0
208.84,57.0
208.91,36.0
208.97,22.0
209.03,39.0
209.1,44.0
209.16,33.0
209.22,26.0
209.29,40.0
209.35,33.0
209.41,23.0
209.47,29.0
209.54,44.0
209.6,36.0
209.66,44.0
209.73,60.0
209.79,54.0
209.85,57.0
209.92,31.0
209.98,45.0
210.04,52.0
210.1,37.0
210.17,40.0
210.23,25.0
210.29,16.0
210.36,30.0
210.42,32.0
210.48,24.0
210.55,25.0
210.61,41.0
210.67,33.0
210.73,24.0
210.8,25.0
210.86,51.0
210.92,15.0
210.99,27.0
211.05,49.0
211.11,51.0
211.18,39.0
211.24,33.0
211.3,18.0
211.36,39.0
211.43,86.0
211.49,56.0
211.55,31.0
211.62,44.0
211.68,24.0
211.74,38.0
211.81,30.0
211.87,40.0
211.93,34.0
211.99,34.0
212.06,29.0
212.12,37.0
212.18,36.0
212.25,37.0
212.31,49.0
212.37,44.0
212.44,45.0
212.5,47.0
212.56,58.0
212.62,50.0
212.69,57.0
212.75,41.0
212.81,42.0
212.88,28.0
212.94,30.0
213.0,34.0
213.07,26.0
213.13,31.0
213.19,14.0
213.25,38.0
213.32,22.0
213.38,44.0
213.44,25.0
213.51,40.0
213.57,45.0
213.63,59.0
213.7,62.0
213.76,59.0
213.82,73.0
213.88,66.0
213.95,83.0
214.01,72.0
214.07,78.0
214.14,72.0
214.2,80.0
214.26,81.0
214.33,80.0
214.39,88.0
214.45,94.0
214.51,81.0
214.58,62.0
214.64,82.0
214.7,59.0
214.77,76.0
214.83,87.0
214.89,89.0
214.96,79.0
215.02,80.0
215.08,87.0
215.14,87.0
215.21,86.0
215.27,97.0
215.33,60.0
215.4,83.0
215.46,80.0
215.52,66.0
215.59,64.0
215.65,80.0
215.71,59.0
215.77,48.0
215.84,54.0
215.9,58.0
215.96,51.0
216.03,58.0
216.09,58.0
216.15,62.0
216.22,66.0
216.28,43.0
216.34,34.0
216.4,37.0
216.47,39.0
216.53,38.0
216.59,21.0
216.66,18.0
216.72,24.0
216.78,33.0
216.85,48.0
216.91,54.0
216.97,41.0
217.03,30.0
217.1,38.0
217.16,3.0
217.22,10.0
217.29,12.0
217.35,23.0
217.41,17.0
217.48,17.0
217.54,17.0
217.6,-8.0
217.66,23.0
217.73,24.0
217.79,9.0
217.85,26.0
217.92,28.0
217.98,31.0
218.04,35.0
218.11,38.0
218.17,39.0
218.23,14.0
218.29,33.0
218.36,42.0
218.42,26.0
218.48,36.0
218.55,17.0
218.61,44.0
218.67,34.0
218.74,11.0
218.8,-2.0
218.86,1.0
218.92,21.0
218.99,23.0
219.05,24.0
219.11,24.0
219.18,24.0
219.24,20.0
219.3,11.0
219.37,13.0
219.43,32.0
219.49,38.0
219.55,38.0
219.62,34.0
219.68,53.0
219.74,43.0
219.81,52.0
219.87,35.0
219.93,40.0
220.0,42.0
220.06,46.0
220.12,47.0
220.18,41.0
220.25,56.0
220.31,32.0
220.37,42.0
220.44,50.0
220.5,69.0
220.56,63.0
220.63,69.0
220.69,55.0
220.75,46.0
220.81,57.0
220.88,46.0
220.94,58.0
221.0,75.0
221.07,69.0
221.13,63.0
221.19,61.0
221.26,60.0
221.32,64.0
221.38,69.0
221.44,71.0
221.51,61.0
221.57,69.0
221.63,95.0
221.7,79.0
221.76,89.0
221.82,73.0
221.89,83.0
221.95,118.0
222.01,112.0
222.07,90.0
222.14,94.0
222.2,89.0
222.26,100.0
222.33,101.0
222.39,92.0
222.45,104.0
222.52,87.0
222.58,93.0
222.64,94.0
222.7,91.0
222.77,83.0
222.83,74.0
222.89,92.0
222.96,83.0
223.02,103.0
223.08,95.0
223.15,84.0
223.21,70.0
223.27,51.0
223.33,88.0
223.4,92.0
223.46,81.0
223.52,95.0
223.59,100.0
223.65,86.0
223.71,79.0
223.78,97.0
223.84,98.0
223.9,96.0
223.96,74.0
224.03,88.0
224.09,67.0
224.15,68.0
224.22,73.0
224.28,65.0
224.34,65.0
224.41,61.0
224.47,84.0
224.53,68.0
224.59,73.0
224.66,68.0
224.72,72.0
224.78,50.0
224.85,39.0
224.91,50.0
224.97,51.0
225.04,53.0
225.1,56.0
225.16,65.0
225.22,48.0
225.29,31.0
225.35,32.0
225.41,38.0
225.48,33.0
225.54,46.0
225.6,53.0
225.67,40.0
225.73,51.0
225.79,40.0
225.85,32.0
225.92,29.0
225.98,39.0
226.04,53.0
226.11,55.0
226.17,46.0
226.23,67.0
226.3,66.0
226.36,68.0
226.42,75.0
226.48,78.0
226.55,68.0
226.61,82.0
226.67,79.0
226.74,75.0
226.8,57.0
226.86,69.0
226.93,70.0
226.99,73.0
227.05,51.0
227.11,61.0
227.18,71.0
227.24,63.0
227.3,65.0
227.37,56.0
227.43,56.0
227.49,72.0
227.56,65.0
227.62,40.0
227.68,41.0
227.74,46.0
227.81,40.0
227.87,27.0
227.93,26.0
228.0,38.0
228.06,58.0
228.12,43.0
228.19,37.0
228.25,49.0
228.31,39.0
228.37,38.0
228.44,45.0
228.5,35.0
228.56,49.0
228.63,46.0
228.69,51.0
228.75,54.0
228.82,50.0
228.88,56.0
228.94,65.0
229.0,76.0
229.07,53.0
229.13,59.0
229.19,64.0
229.26,61.0
229.32,68.0
229.38,64.0
229.45,68.0
229.51,58.0
229.57,64.0
229.63,78.0
229.7,76.0
229.76,56.0
229.82,63.0
229.89,72.0
229.95,81.0
230.01,81.0
230.08,83.0
230.14,76.0
230.2,68.0
230.26,48.0
230.33,55.0
230.39,83.0
230.45,57.0
230.52,61.0
230.58,62.0
230.64,69.0
230.71,69.0
230.77,62.0
230.83,76.0
230.89,76.0
230.96,86.0
231.02,64.0
231.08,74.0
231.15,68.0
231.21,84.0
231.27,104.0
231.34,84.0
231.4,94.0
231.46,95.0
231.52,86.0
231.59,92.0
231.65,79.0
231.71,70.0
231.78,87.0
231.84,92.0
231.9,79.0
231.97,82.0
232.03,67.0
232.09,73.0
232.15,84.0
232.22,72.0
232.28,61.0
232.34,65.0
232.41,73.0
232.47,74.0
232.53,64.0
232.6,64.0
232.66,54.0
232.72,54.0
232.78,49.0
232.85,75.0
232.91,54.0
232.97,39.0
233.04,25.0
233.1,30.0
233.16,39.0
233.23,53.0
233.29,58.0
233.35,41.0
233.41,32.0
233.48,41.0
233.54,47.0
233.6,29.0
233.67,43.0
233.73,52.0
233.79,44.0
233.86,45.0
233.92,39.0
233.98,35.0
234.04,37.0
234.11,41.0
234.17,30.0
234.23,38.0
234.3,51.0
234.36,24.0
234.42,40.0
234.49,41.0
234.55,7.0
234.61,15.0
234.67,13.0
234.74,4.0
234.8,23.0
234.86,3.0
234.93,0.0
234.99,25.0
235.05,4.0
235.12,-2.0
235.18,-4.0
235.24,-4.0
235.3,-7.0
235.37,-16.0
235.43,-19.0
235.49,-6.0
235.56,-13.0
235.62,-24.0
235.68,-21.0
235.75,-8.0
235.81,-3.0
235.87,-13.0
235.93,-10.0
236.0,2.0
236.06,12.0
236.12,-6.0
236.19,-6.0
236.25,14.0
236.31,26.0
236.38,22.0
236.44,39.0
236.5,45.0
236.56,55.0
236.63,34.0
236.69,43.0
236.75,60.0
236.82,52.0
236.88,54.0
236.94,52.0
237.01,43.0
237.07,47.0
237.13,71.0
237.19,64.0
237.26,50.0
237.32,67.0
237.38,71.0
237.45,77.0
237.51,92.0
237.57,72.0
237.64,89.0
237.7,94.0
237.76,98.0
237.82,105.0
237.89,84.0
237.95,89.0
238.01,101.0
238.08,87.0
238.14,77.0
238.2,97.0
238.27,91.0
238.33,106.0
238.39,83.0
238.45,110.0
238.52,109.0
238.58,96.0
238.64,96.0
238.71,91.0
238.77,82.0
238.83,65.0
238.9,80.0
238.96,64.0
239.02,72.0
239.08,79.0
239.15,78.0
239.21,93.0
239.27,85.0
239.34,79.0
239.4,70.0
239.46,58.0
239.53,64.0
239.59,77.0
239.65,81.0
239.71,77.0
239.78,80.0
239.84,82.0
239.9,89.0
239.97,90.0
240.03,82.0
240.09,86.0
240.16,83.0
240.22,75.0
240.28,69.0
240.34,75.0
240.41,73.0
240.47,76.0
240.53,79.0
240.6,69.0
240.66,61.0
240.72,61.0
240.79,41.0
240.85,58.0
240.91,79.0
240.97,39.0
241.04,48.0
241.1,58.0
241.16,45.0
241.23,56.0
241.29,46.0
241.35,59.0
241.42,46.0
241.48,58.0
241.54,41.0
241.6,39.0
241.67,43.0
241.73,37.0
241.79,37.0
241.86,19.0
241.92,5.0
241.98,13.0
242.05,20.0
242.11,15.0
242.17,16.0
242.23,-18.0
242.3,-8.0
242.36,0.0
242.42,16.0
242.49,11.0
242.55,12.0
242.61,36.0
242.68,17.0
242.74,40.0
242.8,10.0
242.86,16.0
242.93,21.0
242.99,15.0
243.05,26.0
243.12,42.0
243.18,37.0
243.24,31.0
243.31,49.0
243.37,27.0
243.43,56.0
243.49,36.0
243.56,22.0
243.62,35.0
243.68,46.0
243.75,40.0
243.81,35.0
243.87,24.0
243.94,4.0
244.0,7.0
244.06,39.0
244.12,48.0
244.19,33.0
244.25,23.0
244.31,32.0
244.38,16.0
244.44,10.0
244.5,12.0
244.57,9.0
244.63,7.0
244.69,14.0
244.75,-6.0
244.82,0.0
244.88,29.0
244.94,26.0
245.01,21.0
245.07,29.0
245.13,20.0
245.2,34.0
245.26,9.0
245.32,8.0
245.38,22.0
245.45,-6.0
245.51,10.0
245.57,1.0
245.64,16.0
245.7,28.0
245.76,47.0
245.83,42.0
245.89,27.0
245.95,18.0
246.01,16.0
246.08,47.0
246.14,40.0
246.2,52.0
246.27,40.0
246.33,53.0
246.39,62.0
246.46,59.0
246.52,54.0
246.58,52.0
246.64,69.0
246.71,55.0
246.77,63.0
246.83,72.0
246.9,76.0
246.96,76.0
247.02,93.0
247.09,94.0
247.15,80.0
247.21,69.0
247.27,75.0
247.34,73.0
247.4,67.0
247.46,83.0
247.53,69.0
247.59,68.0
247.65,91.0
247.72,91.0
247.78,88.0
247.84,88.0
247.9,81.0
247.97,95.0
248.03,88.0
248.09,81.0
248.16,78.0
248.22,88.0
248.28,118.0
248.35,108.0
248.41,120.0
248.47,86.0
248.53,103.0
248.6,95.0
248.66,101.0
248.72,110.0
248.79,110.0
248.85,99.0
248.91,105.0
248.98,95.0
249.04,96.0
249.1,89.0
249.16,66.0
249.23,93.0
249.29,103.0
249.35,100.0
249.42,110.0
249.48,93.0
249.54,109.0
249.61,102.0
249.67,102.0
249.73,75.0
249.79,80.0
249.86,101.0
249.92,113.0
249.98,102.0
250.05,95.0
250.11,85.0
250.17,91.0
250.24,80.0
250.3,91.0
250.36,89.0
250.42,69.0
250.49,65.0
250.55,70.0
250.61,65.0
250.68,57.0
250.74,88.0
250.8,75.0
250.87,93.0
250.93,92.0
250.99,106.0
251.05,83.0
251.12,78.0
251.18,78.0
251.24,74.0
251.31,91.0
251.37,76.0
251.43,97.0
251.5,88.0
251.56,91.0
251.62,68.0
251.68,67.0
251.75,76.0
251.81,81.0
251.87,74.0
251.94,87.0
252.0,64.0
252.06,69.0
252.13,58.0
252.19,92.0
252.25,99.0
252.31,102.0
252.38,102.0
252.44,76.0
252.5,81.0
252.57,74.0
252.63,67.0
252.69,86.0
252.76,77.0
252.82,91.0
252.88,82.0
252.94,56.0
253.01,58.0
253.07,54.0
253.13,64.0
253.2,69.0
253.26,68.0
253.32,56.0
253.39,76.0
253.45,76.0
253.51,69.0
253.57,77.0
253.64,94.0
253.7,95.0
253.76,93.0
253.83,80.0
253.89,89.0
253.95,78.0
254.02,89.0
254.08,92.0
254.14,91.0
254.2,105.0
254.27,136.0
254.33,140.0
254.39,133.0
254.46,138.0
254.52,161.0
254.58,139.0
254.65,149.0
254.71,169.0
254.77,139.0
254.83,169.0
254.9,149.0
254.96,135.0
255.02,146.0
255.09,134.0
255.15,150.0
255.21,151.0
255.28,143.0
255.34,152.0
255.4,153.0
255.46,139.0
255.53,134.0
255.59,124.0
255.65,134.0
255.72,133.0
255.78,136.0
255.84,144.0
255.91,140.0
255.97,140.0
256.03,146.0
256.09,138.0
256.16,130.0
256.22,142.0
256.28,137.0
256.35,158.0
256.41,171.0
256.47,151.0
256.54,153.0
256.6,133.0
256.66,136.0
256.72,143.0
256.79,131.0
256.85,131.0
256.91,120.0
256.98,128.0
257.04,136.0
257.1,114.0
257.17,125.0
257.23,131.0
257.29,126.0
257.35,121.0
257.42,118.0
257.48,120.0
257.54,99.0
257.61,101.0
257.67,90.0
257.73,72.0
257.8,97.0
257.86,89.0
257.92,87.0
257.98,86.0
258.05,80.0
258.11,97.0
258.17,97.0
258.24,113.0
258.3,95.0
258.36,102.0
258.43,109.0
258.49,118.0
258.55,109.0
258.61,95.0
258.68,102.0
258.74,122.0
258.8,125.0
258.87,103.0
258.93,115.0
258.99,115.0
259.06,84.0
259.12,94.0
259.18,114.0
259.24,79.0
259.31,86.0
259.37,103.0
259.43,100.0
259.5,97.0
259.56,91.0
259.62,69.0
259.69,54.0
259.75,49.0
259.81,64.0
259.87,62.0
259.94,42.0
260.0,40.0
260.06,44.0
260.13,66.0
260.19,59.0
260.25,31.0
260.32,43.0
260.38,50.0
260.44,36.0
260.5,14.0
260.57,10.0
260.63,-1.0
260.69,5.0
260.76,9.0
260.82,16.0
260.88,17.0
260.95,6.0
261.01,-4.0
261.07,5.0
261.13,24.0
261.2,35.0
261.26,10.0
261.32,4.0
261.39,31.0
261.45,49.0
261.51,31.0
261.58,35.0
261.64,35.0
261.7,29.0
261.76,42.0
261.83,50.0
261.89,35.0
261.95,23.0
262.02,42.0
262.08,26.0
262.14,23.0
262.21,18.0
262.27,12.0
262.33,24.0
262.39,26.0
262.46,16.0
262.52,13.0
262.58,20.0
262.65,28.0
262.71,20.0
262.77,31.0
262.84,44.0
262.9,52.0
262.96,51.0
263.02,51.0
263.09,56.0
263.15,59.0
263.21,44.0
263.28,42.0
263.34,42.0
263.4,62.0
263.47,57.0
263.53,75.0
263.59,69.0
263.65,47.0
263.72,56.0
263.78,38.0
263.84,48.0
263.91,48.0
263.97,46.0
264.03,38.0
264.1,31.0
264.16,53.0
264.22,37.0
264.28,41.0
264.35,51.0
264.41,53.0
264.47,38.0
264.54,23.0
264.6,35.0
264.66,31.0
264.73,9.0
264.79,34.0
264.85,27.0
264.91,29.0
264.98,40.0
265.04,17.0
265.1,22.0
265.17,40.0
265.23,56.0
265.29,29.0
265.36,24.0
265.42,32.0
265.48,46.0
265.54,45.0
265.61,70.0
265.67,53.0
265.73,53.0
265.8,53.0
265.86,42.0
265.92,56.0
265.99,58.0
266.05,57.0
266.11,43.0
266.17,41.0
266.24,37.0
266.3,60.0
266.36,44.0
266.43,49.0
266.49,80.0
266.55,57.0
266.62,59.0
266.68,52.0
266.74,42.0
266.8,59.0
266.87,48.0
266.93,57.0
266.99,37.0
267.06,34.0
267.12,28.0
267.18,22.0
267.25,38.0
267.31,18.0
267.37,39.0
267.43,38.0
267.5,34.0
267.56,16.0
267.62,22.0
267.69,8.0
267.75,-4.0
267.81,16.0
267.88,3.0
267.94,16.0
268.0,10.0
268.06,2.0
268.13,4.0
268.19,14.0
268.25,3.0
268.32,-8.0
268.38,-4.0
268.44,-13.0
268.51,-6.0
268.57,-7.0
268.63,-4.0
268.69,-8.0
268.76,-5.0
268.82,14.0
268.88,4.0
268.95,0.0
269.01,0.0
269.07,7.0
269.14,46.0
269.2,6.0
269.26,0.0
269.32,7.0
269.39,7.0
269.45,3.0
269.51,-2.0
269.58,3.0
269.64,-9.0
269.7,19.0
269.77,22.0
269.83,12.0
269.89,-3.0
269.95,1.0
270.02,8.0
270.08,3.0
270.14,30.0
270.21,38.0
270.27,29.0
270.33,56.0
270.4,65.0
270.46,39.0
270.52,47.0
270.58,72.0
270.65,62.0
270.71,76.0
270.77,60.0
270.84,77.0
270.9,60.0
270.96,65.0
271.03,75.0
271.09,63.0
271.15,70.0
271.21,82.0
271.28,73.0
271.34,73.0
271.4,77.0
271.47,83.0
271.53,111.0
271.59,108.0
271.66,118.0
271.72,120.0
271.78,102.0
271.84,96.0
271.91,115.0
271.97,113.0
272.03,117.0
272.1,107.0
272.16,118.0
272.22,123.0
272.29,108.0
272.35,108.0
272.41,102.0
272.47,87.0
272.54,99.0
272.6,126.0
272.66,106.0
272.73,115.0
272.79,103.0
272.85,91.0
272.92,104.0
272.98,102.0
273.04,92.0
273.1,90.0
273.17,93.0
273.23,88.0
273.29,100.0
273.36,106.0
273.42,120.0
273.48,147.0
273.55,129.0
273.61,140.0
273.67,151.0
273.73,148.0
273.8,118.0
273.86,117.0
273.92,130.0
273.99,128.0
274.05,140.0
274.11,125.0
274.18,115.0
274.24,127.0
274.3,129.0
274.36,126.0
274.43,155.0
274.49,147.0
274.55,163.0
274.62,151.0
274.68,133.0
274.74,129.0
274.81,120.0
274.87,131.0
274.93,144.0
274.99,132.0
275.06,143.0
275.12,139.0
275.18,135.0
275.25,126.0
275.31,116.0
275.37,111.0
275.44,129.0
275.5,126.0
275.56,117.0
275.62,112.0
275.69,107.0
275.75,107.0
275.81,104.0
275.88,113.0
275.94,119.0
276.0,95.0
276.07,118.0
276.13,121.0
276.19,114.0
276.25,120.0
276.32,104.0
276.38,108.0
276.44,117.0
276.51,115.0
276.57,114.0
276.63,103.0
276.7,94.0
276.76,103.0
276.82,97.0
276.88,92.0
276.95,80.0
277.01,73.0
277.07,68.0
277.14,77.0
277.2,96.0
277.26,67.0
277.33,87.0
277.39,67.0
277.45,70.0
277.51,66.0
277.58,71.0
277.64,56.0
277.7,53.0
277.77,87.0
277.83,58.0
277.89,71.0
277.96,80.0
278.02,74.0
278.08,86.0
278.14,75.0
278.21,85.0
278.27,62.0
278.33,85.0
278.4,81.0
278.46,76.0
278.52,81.0
278.59,63.0
278.65,82.0
278.71,89.0
278.77,86.0
278.84,85.0
278.9,79.0
278.96,87.0
279.03,83.0
279.09,74.0
279.15,79.0
279.22,89.0
279.28,97.0
279.34,85.0
279.4,79.0
279.47,73.0
279.53,71.0
279.59,75.0
279.66,90.0
279.72,92.0
279.78,97.0
279.85,104.0
279.91,103.0
279.97,109.0
280.03,86.0
280.1,84.0
280.16,85.0
280.22,110.0
280.29,106.0
280.35,108.0
280.41,115.0
280.48,131.0
280.54,115.0
280.6,108.0
280.66,127.0
280.73,109.0
280.79,108.0
280.85,104.0
280.92,105.0
280.98,111.0
281.04,104.0
281.11,101.0
281.17,133.0
281.23,106.0
281.29,130.0
281.36,134.0
281.42,114.0
281.48,113.0
281.55,106.0
281.61,111.0
281.67,124.0
281.74,127.0
281.8,123.0
281.86,114.0
281.92,104.0
281.99,100.0
282.05,105.0
282.11,130.0
282.18,126.0
282.24,135.0
282.3,123.0
282.37,122.0
282.43,127.0
282.49,110.0
282.55,126.0
282.62,128.0
282.68,117.0
282.74,121.0
282.81,112.0
282.87,125.0
282.93,100.0
283.0,96.0
283.06,111.0
283.12,119.0
283.18,108.0
283.25,120.0
283.31,91.0
283.37,108.0
283.44,97.0
283.5,90.0
283.56,87.0
283.63,68.0
283.69,85.0
283.75,87.0
283.81,80.0
283.88,75.0
283.94,80.0
284.0,96.0
284.07,77.0
284.13,72.0
284.19,68.0
284.26,71.0
284.32,76.0
284.38,78.0
284.44,71.0
284.51,72.0
284.57,57.0
284.63,61.0
284.7,59.0
284.76,74.0
284.82,62.0
284.89,45.0
284.95,44.0
285.01,47.0
285.07,38.0
285.14,31.0
285.2,35.0
285.26,28.0
285.33,23.0
285.39,37.0
285.45,31.0
285.52,24.0
285.58,24.0
285.64,6.0
285.7,2.0
285.77,2.0
285.83,11.0
285.89,10.0
285.96,3.0
286.02,-6.0
286.08,17.0
286.15,5.0
286.21,-6.0
286.27,11.0
286.33,24.0
286.4,32.0
286.46,39.0
286.52,27.0
286.59,33.0
286.65,22.0
286.71,19.0
286.78,29.0
286.84,14.0
286.9,22.0
286.96,21.0
287.03,18.0
287.09,16.0
287.15,19.0
287.22,32.0
287.28,12.0
287.34,16.0
287.41,23.0
287.47,40.0
287.53,22.0
287.59,34.0
287.66,36.0
287.72,40.0
287.78,39.0
287.85,32.0
287.91,30.0
287.97,44.0
288.04,49.0
288.1,53.0
288.16,71.0
288.22,64.0
288.29,57.0
288.35,72.0
288.41,54.0
288.48,86.0
288.54,79.0
288.6,85.0
288.67,74.0
288.73,72.0
288.79,85.0
288.85,93.0
288.92,81.0
288.98,82.0
289.04,73.0
289.11,77.0
289.17,68.0
289.23,65.0
289.3,62.0
289.36,44.0
289.42,57.0
289.48,48.0
289.55,40.0
289.61,36.0
289.67,52.0
289.74,69.0
289.8,58.0
289.86,54.0
289.93,57.0
289.99,50.0
290.05,68.0
290.11,57.0
290.18,63.0
290.24,72.0
290.3,51.0
290.37,62.0
290.43,51.0
290.49,69.0
290.56,56.0
290.62,48.0
290.68,70.0
290.74,70.0
290.81,60.0
290.87,85.0
290.93,89.0
291.0,87.0
291.06,106.0
291.12,92.0
291.19,84.0
291.25,71.0
291.31,79.0
291.37,90.0
291.44,77.0
291.5,71.0
291.56,80.0
291.63,104.0
291.69,89.0
291.75,68.0
291.82,74.0
291.88,66.0
291.94,77.0
292.0,82.0
292.07,81.0
292.13,64.0
292.19,68.0
292.26,71.0
292.32,73.0
292.38,70.0
292.45,57.0
292.51,60.0
292.57,64.0
292.63,51.0
292.7,41.0
292.76,72.0
292.82,52.0
292.89,22.0
292.95,38.0
293.01,34.0
293.08,24.0
293.14,11.0
293.2,25.0
293.26,57.0
293.33,42.0
293.39,38.0
293.45,37.0
293.52,58.0
293.58,57.0
293.64,58.0
293.71,49.0
293.77,33.0
293.83,40.0
293.89,31.0
293.96,34.0
294.02,35.0
294.08,39.0
294.15,46.0
294.21,29.0
294.27,29.0
294.34,32.0
294.4,30.0
294.46,22.0
294.52,25.0
294.59,34.0
294.65,29.0
294.71,55.0
294.78,52.0
294.84,39.0
294.9,31.0
294.97,33.0
295.03,29.0
295.09,39.0
295.15,21.0
295.22,13.0
295.28,20.0
295.34,24.0
295.41,54.0
295.47,53.0
295.53,23.0
295.6,20.0
295.66,38.0
295.72,33.0
295.78,39.0
295.85,33.0
295.91,51.0
295.97,44.0
296.04,21.0
296.1,35.0
296.16,24.0
296.23,51.0
296.29,39.0
296.35,25.0
296.41,34.0
296.48,40.0
296.54,30.0
296.6,27.0
296.67,32.0
296.73,18.0
296.79,36.0
296.86,25.0
296.92,21.0
296.98,33.0
297.04,14.0
297.11,-4.0
297.17,13.0
297.23,12.0
297.3,0.0
297.36,24.0
297.42,36.0
297.49,47.0
297.55,41.0
297.61,41.0
297.67,24.0
297.74,47.0
297.8,36.0
297.86,36.0
297.93,46.0
297.99,29.0
298.05,42.0
298.12,27.0
298.18,36.0
298.24,45.0
298.3,40.0
298.37,43.0
298.43,43.0
298.49,25.0
298.56,30.0
298.62,36.0
298.68,39.0
298.75,31.0
298.81,32.0
298.87,21.0
298.93,15.0
299.0,22.0
299.06,39.0
299.12,43.0
299.19,33.0
299.25,28.0
299.31,38.0
299.38,49.0
299.44,36.0
299.5,36.0
299.56,31.0
299.63,47.0
299.69,45.0
299.75,22.0
299.82,27.0
299.88,46.0
299.94,26.0
300.01,19.0
300.07,16.0
300.13,32.0
300.19,10.0
300.26,1.0
300.32,8.0
300.38,-30.0
300.45,-5.0
300.51,5.0
300.57,11.0
300.64,5.0
300.7,1.0
300.76,7.0
300.82,-17.0
300.89,-10.0
300.95,-11.0
301.01,-17.0
301.08,-12.0
301.14,9.0
301.2,1.0
301.27,-13.0
301.33,-11.0
301.39,8.0
301.45,-22.0
301.52,-3.0
301.58,3.0
301.64,-16.0
301.71,-28.0
301.77,-22.0
301.83,-4.0
301.9,-11.0
301.96,-10.0
302.02,-17.0
302.08,-7.0
302.15,-10.0
302.21,-17.0
302.27,-1.0
302.34,-8.0
302.4,5.0
302.46,-6.0
302.53,-11.0
302.59,-3.0
302.65,-8.0
302.71,9.0
302.78,20.0
302.84,-7.0
302.9,-28.0
302.97,-29.0
303.03,-23.0
303.09,-20.0
303.16,-27.0
303.22,-16.0
303.28,-1.0
303.34,-17.0
303.41,-4.0
303.47,11.0
303.53,3.0
303.6,9.0
303.66,10.0
303.72,13.0
303.79,33.0
303.85,28.0
303.91,28.0
303.97,41.0
304.04,19.0
304.1,40.0
304.16,45.0
304.23,41.0
304.29,35.0
304.35,30.0
304.42,44.0
304.48,50.0
304.54,40.0
304.6,31.0
304.67,29.0
304.73,51.0
304.79,61.0
304.86,74.0
304.92,59.0
304.98,59.0
305.05,59.0
305.11,78.0
305.17,89.0
305.23,99.0
305.3,91.0
305.36,117.0
305.42,106.0
305.49,96.0
305.55,111.0
305.61,98.0
305.68,94.0
305.74,90.0
305.8,99.0
305.86,83.0
305.93,88.0
305.99,110.0
306.05,107.0
306.12,109.0
306.18,120.0
306.24,123.0
306.31,118.0
306.37,132.0
306.43,143.0
306.49,133.0
306.56,134.0
306.62,110.0
306.68,130.0
306.75,143.0
306.81,136.0
306.87,121.0
306.94,125.0
307.0,138.0
307.06,128.0
307.12,139.0
307.19,123.0
307.25,162.0
307.31,149.0
307.38,168.0
307.44,159.0
307.5,116.0
307.57,141.0
307.63,140.0
307.69,147.0
307.75,146.0
307.82,148.0
307.88,147.0
307.94,150.0
308.01,150.0
308.07,168.0
308.13,156.0
308.2,152.0
308.26,155.0
308.32,151.0
308.38,171.0
308.45,181.0
308.51,159.0
308.57,160.0
308.64,160.0
308.7,151.0
308.76,156.0
308.83,155.0
308.89,158.0
308.95,128.0
309.01,138.0
309.08,140.0
309.14,132.0
309.2,130.0
309.27,140.0
309.33,140.0
309.39,123.0
309.46,105.0
309.52,127.0
309.58,130.0
309.64,139.0
309.71,132.0
309.77,120.0
309.83,135.0
309.9,147.0
309.96,129.0
310.02,131.0
310.09,112.0
310.15,122.0
310.21,138.0
310.27,117.0
310.34,126.0
310.4,124.0
310.46,136.0
310.53,149.0
310.59,139.0
310.65,139.0
310.72,128.0
310.78,111.0
310.84,129.0
310.9,118.0
310.97,141.0
311.03,117.0
311.09,100.0
311.16,105.0
311.22,96.0
311.28,116.0
311.35,96.0
311.41,88.0
311.47,72.0
311.53,81.0
311.6,81.0
311.66,73.0
311.72,85.0
311.79,93.0
311.85,94.0
311.91,96.0
311.98,80.0
312.04,91.0
312.1,92.0
312.16,84.0
312.23,81.0
312.29,85.0
312.35,92.0
312.42,84.0
312.48,76.0
312.54,104.0
312.61,92.0
312.67,91.0
312.73,84.0
312.79,59.0
312.86,59.0
312.92,80.0
312.98,56.0
313.05,58.0
313.11,79.0
313.17,79.0
313.24,78.0
313.3,86.0
313.36,97.0
313.42,85.0
313.49,105.0
313.55,83.0
313.61,82.0
313.68,88.0
313.74,88.0
313.8,97.0
313.87,95.0
313.93,99.0
313.99,102.0
314.05,107.0
314.12,95.0
314.18,88.0
314.24,95.0
314.31,92.0
314.37,85.0
314.43,85.0
314.5,99.0
314.56,87.0
314.62,76.0
314.68,97.0
314.75,91.0
314.81,86.0
314.87,92.0
314.94,110.0
315.0,94.0
315.06,96.0
315.13,112.0
315.19,86.0
315.25,78.0
315.31,80.0
315.38,105.0
315.44,97.0
315.5,99.0
315.57,95.0
315.63,101.0
315.69,99.0
315.76,87.0
315.82,84.0
315.88,108.0
315.94,93.0
316.01,83.0
316.07,80.0
316.13,72.0
316.2,72.0
316.26,87.0
316.32,89.0
316.39,96.0
316.45,81.0
316.51,58.0
316.57,69.0
316.64,69.0
316.7,80.0
316.76,85.0
316.83,66.0
316.89,67.0
316.95,78.0
317.02,88.0
317.08,84.0
317.14,88.0
317.2,70.0
317.27,64.0
317.33,64.0
317.39,50.0
317.46,61.0
317.52,59.0
317.58,39.0
317.65,53.0
317.71,52.0
317.77,38.0
317.83,44.0
317.9,51.0
317.96,54.0
318.02,33.0
318.09,26.0
318.15,30.0
318.21,44.0
318.28,52.0
318.34,41.0
318.4,24.0
318.46,35.0
318.53,19.0
318.59,21.0
318.65,21.0
318.72,36.0
318.78,26.0
318.84,16.0
318.91,11.0
318.97,5.0
319.03,8.0
319.09,-13.0
319.16,0.0
319.22,-8.0
319.28,-2.0
319.35,-5.0
319.41,9.0
319.47,42.0
319.54,26.0
319.6,23.0
319.66,29.0
319.72,8.0
319.79,20.0
319.85,16.0
319.91,0.0
319.98,8.0
320.04,-28.0
320.1,-12.0
320.17,-10.0
320.23,-12.0
320.29,2.0
320.35,-8.0
320.42,3.0
320.48,9.0
320.54,-4.0
320.61,22.0
320.67,15.0
320.73,5.0
320.8,16.0
320.86,23.0
320.92,30.0
320.98,31.0
321.05,25.0
321.11,34.0
321.17,31.0
321.24,49.0
321.3,56.0
321.36,36.0
321.43,52.0
321.49,36.0
321.55,52.0
321.61,36.0
321.68,41.0
321.74,39.0
321.8,49.0
321.87,66.0
321.93,78.0
321.99,74.0
322.06,45.0
322.12,56.0
322.18,49.0
322.24,41.0
322.31,67.0
322.37,62.0
322.43,66.0
322.5,93.0
322.56,88.0
322.62,75.0
322.69,76.0
322.75,94.0
322.81,91.0
322.87,75.0
322.94,68.0
323.0,62.0
323.06,86.0
323.13,93.0
323.19,93.0
323.25,91.0
323.32,92.0
323.38,103.0
323.44,101.0
323.5,107.0
323.57,95.0
323.63,107.0
323.69,114.0
323.76,114.0
323.82,82.0
323.88,88.0
323.95,111.0
324.01,123.0
324.07,122.0
324.13,106.0
324.2,122.0
324.26,121.0
324.32,118.0
324.39,125.0
324.45,116.0
324.51,101.0
324.58,106.0
324.64,95.0
324.7,89.0
324.76,85.0
324.83,84.0
324.89,106.0
324.95,85.0
325.02,104.0
325.08,97.0
325.14,96.0
325.21,92.0
325.27,88.0
325.33,95.0
325.39,77.0
325.46,82.0
325.52,89.0
325.58,83.0
325.65,79.0
325.71,82.0
325.77,70.0
325.84,61.0
325.9,70.0
325.96,70.0
326.02,80.0
326.09,78.0
326.15,82.0
326.21,92.0
326.28,92.0
326.34,74.0
326.4,85.0
326.47,83.0
326.53,78.0
326.59,77.0
326.65,79.0
326.72,88.0
326.78,88.0
326.84,89.0
326.91,69.0
326.97,71.0
327.03,85.0
327.1,67.0
327.16,76.0
327.22,78.0
327.28,78.0
327.35,58.0
327.41,51.0
327.47,53.0
327.54,49.0
327.6,60.0
327.66,62.0
327.73,65.0
327.79,47.0
327.85,60.0
327.91,56.0
327.98,61.0
328.04,43.0
328.1,29.0
328.17,59.0
328.23,42.0
328.29,60.0
328.36,80.0
328.42,62.0
328.48,66.0
328.54,49.0
328.61,52.0
328.67,58.0
328.73,69.0
328.8,67.0
328.86,52.0
328.92,53.0
328.99,78.0
329.05,68.0
329.11,67.0
329.17,72.0
329.24,65.0
329.3,72.0
329.36,67.0
329.43,75.0
329.49,91.0
329.55,77.0
329.62,85.0
329.68,86.0
329.74,87.0
329.8,98.0
329.87,114.0
329.93,113.0
329.99,100.0
330.06,87.0
330.12,106.0
330.18,113.0
330.25,111.0
330.31,89.0
330.37,108.0
330.43,112.0
330.5,118.0
330.56,118.0
330.62,115.0
330.69,116.0
330.75,136.0
330.81,139.0
330.88,132.0
330.94,135.0
331.0,127.0
331.06,135.0
331.13,134.0
331.19,133.0
331.25,124.0
331.32,114.0
331.38,107.0
331.44,112.0
331.51,121.0
331.57,117.0
331.63,114.0
331.69,102.0
331.76,98.0
331.82,121.0
331.88,113.0
331.95,122.0
332.01,116.0
332.07,126.0
332.14,132.0
332.2,159.0
332.26,133.0
332.32,141.0
332.39,152.0
332.45,143.0
332.51,134.0
332.58,146.0
332.64,142.0
332.7,122.0
332.77,129.0
332.83,122.0
332.89,136.0
332.95,140.0
333.02,128.0
333.08,122.0
333.14,125.0
333.21,134.0
333.27,144.0
333.33,135.0
333.4,140.0
333.46,146.0
333.52,137.0
333.58,154.0
333.65,140.0
333.71,134.0
333.77,137.0
333.84,110.0
333.9,125.0
333.96,119.0
334.03,131.0
334.09,126.0
334.15,103.0
334.21,140.0
334.28,149.0
334.34,144.0
334.4,137.0
334.47,141.0
334.53,130.0
334.59,130.0
334.66,127.0
334.72,114.0
334.78,125.0
334.84,125.0
334.91,114.0
334.97,99.0
335.03,117.0
335.1,104.0
335.16,121.0
335.22,126.0
335.29,108.0
335.35,98.0
335.41,92.0
335.47,92.0
335.54,84.0
335.6,64.0
335.66,70.0
335.73,84.0
335.79,71.0
335.85,59.0
335.92,56.0
335.98,42.0
336.04,45.0
336.1,55.0
336.17,49.0
336.23,69.0
336.29,82.0
336.36,74.0
336.42,54.0
336.48,55.0
336.55,76.0
336.61,69.0
336.67,59.0
336.73,71.0
336.8,58.0
336.86,71.0
336.92,81.0
336.99,55.0
337.05,73.0
337.11,65.0
337.18,50.0
337.24,65.0
337.3,45.0
337.36,57.0
337.43,53.0
337.49,53.0
337.55,59.0
337.62,55.0
337.68,55.0
337.74,70.0
337.81,68.0
337.87,63.0
337.93,77.0
337.99,78.0
338.06,58.0
338.12,66.0
338.18,56.0
338.25,66.0
338.31,89.0
338.37,82.0
338.44,78.0
338.5,81.0
338.56,76.0
338.62,72.0
338.69,86.0
338.75,109.0
338.81,115.0
338.88,104.0
338.94,100.0
339.0,97.0
339.07,89.0
339.13,107.0
339.19,95.0
339.25,100.0
339.32,89.0
339.38,89.0
339.44,89.0
339.51,89.0
339.57,100.0
339.63,105.0
339.7,125.0
339.76,108.0
339.82,95.0
339.88,114.0
339.95,120.0
340.01,122.0
340.07,118.0
340.14,103.0
340.2,114.0
340.26,108.0
340.33,89.0
340.39,88.0
340.45,104.0
340.51,98.0
340.58,89.0
340.64,106.0
340.7,99.0
340.77,87.0
340.83,104.0
340.89,124.0
340.96,138.0
341.02,131.0
341.08,127.0
341.14,131.0
341.21,128.0
341.27,129.0
341.33,115.0
341.4,122.0
341.46,130.0
341.52,129.0
341.59,105.0
341.65,115.0
341.71,112.0
341.77,105.0
341.84,100.0
341.9,101.0
341.96,109.0
342.03,93.0
342.09,81.0
342.15,86.0
342.22,82.0
342.28,90.0
342.34,102.0
342.4,93.0
342.47,71.0
342.53,79.0
342.59,97.0
342.66,75.0
342.72,66.0
342.78,73.0
342.85,77.0
342.91,91.0
342.97,94.0
343.03,82.0
343.1,83.0
343.16,74.0
343.22,78.0
343.29,83.0
343.35,92.0
343.41,104.0
343.48,73.0
343.54,70.0
343.6,62.0
343.66,68.0
343.73,54.0
343.79,58.0
343.85,48.0
343.92,48.0
343.98,63.0
344.04,70.0
344.11,44.0
344.17,49.0
344.23,46.0
344.29,43.0
344.36,56.0
344.42,49.0
344.48,59.0
344.55,64.0
344.61,55.0
344.67,77.0
344.74,73.0
344.8,42.0
344.86,58.0
344.92,75.0
344.99,53.0
345.05,66.0
345.11,61.0
345.18,56.0
345.24,46.0
345.3,60.0
345.37,63.0
345.43,69.0
345.49,74.0
345.55,55.0
345.62,45.0
345.68,33.0
345.74,60.0
345.81,44.0
345.87,24.0
345.93,30.0
346.0,19.0
346.06,30.0
346.12,58.0
346.18,55.0
346.25,63.0
346.31,63.0
346.37,33.0
346.44,29.0
346.5,31.0
346.56,38.0
346.63,39.0
346.69,33.0
346.75,36.0
346.81,52.0
346.88,29.0
346.94,7.0
347.0,42.0
347.07,44.0
347.13,36.0
347.19,34.0
347.26,27.0
347.32,26.0
347.38,33.0
347.44,31.0
347.51,46.0
347.57,59.0
347.63,49.0
347.7,39.0
347.76,58.0
347.82,71.0
347.89,76.0
347.95,76.0
348.01,68.0
348.07,79.0
348.14,67.0
348.2,71.0
348.26,91.0
348.33,84.0
348.39,81.0
348.45,89.0
348.52,96.0
348.58,78.0
348.64,88.0
348.7,98.0
348.77,93.0
348.83,98.0
348.89,100.0
348.96,90.0
349.02,106.0
349.08,107.0
349.15,89.0
349.21,89.0
349.27,86.0
349.33,86.0
349.4,96.0
349.46,92.0
349.52,88.0
349.59,83.0
349.65,93.0
349.71,97.0
349.78,71.0
349.84,64.0
349.9,77.0
349.96,64.0
350.03,59.0
350.09,75.0
350.15,59.0
350.22,75.0
350.28,64.0
350.34,63.0
350.41,69.0
350.47,72.0
350.53,63.0
350.59,72.0
350.66,69.0
350.72,50.0
350.78,50.0
350.85,52.0
350.91,61.0
350.97,69.0
351.04,59.0
351.1,81.0
351.16,72.0
351.22,50.0
351.29,62.0
351.35,51.0
351.41,68.0
351.48,44.0
351.54,78.0
351.6,66.0
351.67,71.0
351.73,52.0
351.79,48.0
351.85,71.0
351.92,54.0
351.98,50.0
352.04,52.0
352.11,45.0
352.17,41.0
352.23,30.0
352.3,46.0
352.36,45.0
352.42,38.0
352.48,31.0
352.55,37.0
352.61,27.0
352.67,34.0
352.74,41.0
352.8,28.0
352.86,36.0
352.93,63.0
352.99,37.0
353.05,60.0
353.11,43.0
353.18,60.0
353.24,47.0
353.3,30.0
353.37,45.0
353.43,30.0
353.49,19.0
353.56,33.0
353.62,38.0
353.68,55.0
353.74,44.0
353.81,34.0
353.87,53.0
353.93,48.0
354.0,61.0
354.06,67.0
354.12,49.0
354.19,48.0
354.25,52.0
354.31,36.0
354.37,47.0
354.44,48.0
354.5,40.0
354.56,41.0
354.63,37.0
354.69,37.0
354.75,65.0
354.82,57.0
354.88,80.0
354.94,73.0
355.0,79.0
355.07,75.0
355.13,68.0
355.19,82.0
355.26,85.0
355.32,84.0
355.38,96.0
355.45,111.0
355.51,96.0
355.57,124.0
355.63,127.0
355.7,122.0
355.76,89.0
355.82,100.0
355.89,118.0
355.95,114.0
356.01,105.0
356.08,99.0
356.14,111.0
356.2,125.0
356.26,131.0
356.33,112.0
356.39,100.0
356.45,114.0
356.52,111.0
356.58,114.0
356.64,98.0
356.71,113.0
356.77,119.0
356.83,110.0
356.89,115.0
356.96,113.0
357.02,107.0
357.08,105.0
357.15,104.0
357.21,107.0
357.27,98.0
357.34,111.0
357.4,133.0
357.46,134.0
357.52,113.0
357.59,122.0
357.65,114.0
357.71,118.0
357.78,114.0
357.84,123.0
357.9,125.0
357.97,146.0
358.03,147.0
358.09,157.0
358.15,147.0
358.22,156.0
358.28,153.0
358.34,151.0
358.41,143.0
358.47,138.0
358.53,126.0
358.6,134.0
358.66,143.0
358.72,135.0
358.78,145.0
358.85,157.0
358.91,170.0
358.97,177.0
359.04,158.0
359.1,152.0
359.16,136.0
359.23,143.0
359.29,141.0
359.35,118.0
359.41,128.0
359.48,130.0
359.54,133.0
359.6,132.0
359.67,117.0
359.73,127.0
359.79,135.0
359.86,117.0
359.92,123.0
359.98,119.0
360.04,129.0
360.11,130.0
360.17,122.0
360.23,129.0
360.3,121.0
360.36,108.0
360.42,137.0
360.49,122.0
360.55,91.0
360.61,108.0
360.67,99.0
360.74,86.0
360.8,83.0
360.86,64.0
360.93,78.0
360.99,64.0
361.05,52.0
361.12,72.0
361.18,77.0
361.24,79.0
361.3,69.0
361.37,67.0
361.43,62.0
361.49,84.0
361.56,62.0
361.62,44.0
361.68,67.0
361.75,72.0
361.81,60.0
361.87,80.0
361.93,56.0
362.0,58.0
362.06,55.0
362.12,50.0
362.19,59.0
362.25,74.0
362.31,59.0
362.38,45.0
362.44,56.0
362.5,46.0
362.56,58.0
362.63,48.0
362.69,28.0
362.75,37.0
362.82,45.0
362.88,61.0
362.94,34.0
363.01,32.0
363.07,43.0
363.13,24.0
363.19,15.0
363.26,15.0
363.32,29.0
363.38,14.0
363.45,20.0
363.51,45.0
363.57,27.0
363.64,7.0
363.7,17.0
363.76,20.0
363.82,47.0
363.89,32.0
363.95,29.0
364.01,36.0
364.08,35.0
364.14,34.0
364.2,37.0
364.27,21.0
364.33,49.0
364.39,34.0
364.45,39.0
364.52,65.0
364.58,58.0
364.64,76.0
364.71,79.0
364.77,53.0
364.83,78.0
364.9,73.0
364.96,90.0
365.02,82.0
365.08,84.0
365.15,76.0
365.21,93.0
365.27,112.0
365.34,95.0
365.4,83.0
365.46,82.0
365.53,69.0
365.59,80.0
365.65,86.0
365.71,82.0
365.78,94.0
365.84,122.0
365.9,116.0
365.97,103.0
366.03,93.0
366.09,99.0
366.16,103.0
366.22,86.0
366.28,97.0
366.34,87.0
366.41,78.0
366.47,104.0
366.53,98.0
366.6,92.0
366.66,96.0
366.72,98.0
366.79,110.0
366.85,95.0
366.91,78.0
366.97,86.0
367.04,73.0
367.1,94.0
367.16,83.0
367.23,95.0
367.29,94.0
367.35,84.0
367.42,78.0
367.48,55.0
367.54,64.0
367.6,73.0
367.67,84.0
367.73,84.0
367.79,53.0
367.86,72.0
367.92,67.0
367.98,77.0
368.05,78.0
368.11,64.0
368.17,46.0
368.23,60.0
368.3,56.0
368.36,67.0
368.42,67.0
368.49,49.0
368.55,40.0
368.61,45.0
368.68,48.0
368.74,34.0
368.8,19.0
368.86,20.0
368.93,42.0
368.99,33.0
369.05,21.0
369.12,45.0
369.18,43.0
369.24,33.0
369.31,46.0
369.37,44.0
369.43,63.0
369.49,62.0
369.56,53.0
369.62,62.0
369.68,59.0
369.75,57.0
369.81,82.0
369.87,73.0
369.94,69.0
370.0,83.0
370.06,77.0
370.12,61.0
370.19,78.0
370.25,90.0
370.31,90.0
370.38,80.0
370.44,71.0
370.5,73.0
370.57,76.0
370.63,84.0
370.69,71.0
370.75,85.0
370.82,86.0
370.88,78.0
370.94,94.0
371.01,88.0
371.07,85.0
371.13,60.0
371.2,44.0
371.26,52.0
371.32,53.0
371.38,75.0
371.45,58.0
371.51,77.0
371.57,66.0
371.64,75.0
371.7,96.0
371.76,91.0
371.83,111.0
371.89,111.0
371.95,97.0
372.01,87.0
372.08,83.0
372.14,67.0
372.2,74.0
372.27,85.0
372.33,100.0
372.39,102.0
372.46,86.0
372.52,104.0
372.58,96.0
372.64,122.0
372.71,113.0
372.77,103.0
372.83,119.0
372.9,97.0
372.96,109.0
373.02,137.0
373.09,133.0
373.15,127.0
373.21,115.0
373.27,129.0
373.34,134.0
373.4,142.0
373.46,120.0
373.53,140.0
373.59,147.0
373.65,133.0
373.72,149.0
373.78,137.0
373.84,146.0
373.9,124.0
373.97,164.0
374.03,161.0
374.09,151.0
374.16,161.0
374.22,161.0
374.28,149.0
374.35,142.0
374.41,139.0
374.47,160.0
374.53,151.0
374.6,141.0
374.66,145.0
374.72,155.0
374.79,174.0
374.85,163.0
374.91,169.0
374.98,162.0
375.04,166.0
375.1,173.0
375.16,182.0
375.23,180.0
375.29,185.0
375.35,168.0
375.42,174.0
375.48,171.0
375.54,171.0
375.61,165.0
375.67,150.0
375.73,171.0
375.79,181.0
375.86,148.0
375.92,155.0
375.98,151.0
376.05,115.0
376.11,133.0
376.17,140.0
376.24,133.0
376.3,116.0
376.36,122.0
376.42,120.0
376.49,129.0
376.55,129.0
376.61,134.0
376.68,136.0
376.74,129.0
376.8,121.0
376.87,111.0
376.93,129.0
376.99,128.0
377.05,119.0
377.12,107.0
377.18,114.0
377.24,108.0
377.31,108.0
377.37,101.0
377.43,84.0
377.5,74.0
377.56,53.0
377.62,63.0
377.68,84.0
377.75,92.0
377.81,77.0
377.87,77.0
377.94,72.0
378.0,89.0
378.06,77.0
378.13,87.0
378.19,88.0
378.25,70.0
378.31,49.0
378.38,47.0
378.44,60.0
378.5,62.0
378.57,53.0
378.63,59.0
378.69,49.0
378.76,74.0
378.82,67.0
378.88,67.0
378.94,69.0
379.01,65.0
379.07,43.0
379.13,33.0
379.2,45.0
379.26,41.0
379.32,40.0
379.39,30.0
379.45,38.0
379.51,53.0
379.57,41.0
379.64,41.0
379.7,40.0
379.76,42.0
379.83,36.0
379.89,37.0
379.95,48.0
380.02,59.0
380.08,60.0
380.14,61.0
380.2,59.0
380.27,67.0
380.33,61.0
380.39,67.0
380.46,68.0
380.52,69.0
380.58,82.0
380.65,64.0
380.71,82.0
380.77,77.0
380.83,69.0
380.9,71.0
380.96,74.0
381.02,80.0
381.09,88.0
381.15,99.0
381.21,79.0
381.28,95.0
381.34,104.0
381.4,115.0
381.46,92.0
381.53,88.0
381.59,88.0
381.65,84.0
381.72,83.0
381.78,92.0
381.84,97.0
381.91,99.0
381.97,81.0
382.03,93.0
382.09,85.0
382.16,102.0
382.22,96.0
382.28,89.0
382.35,115.0
382.41,109.0
382.47,111.0
382.54,119.0
382.6,126.0
382.66,129.0
382.72,123.0
382.79,124.0
382.85,146.0
382.91,129.0
382.98,107.0
383.04,121.0
383.1,111.0
383.17,107.0
383.23,111.0
383.29,102.0
383.35,106.0
383.42,108.0
383.48,113.0
383.54,118.0
383.61,113.0
383.67,108.0
383.73,108.0
383.8,91.0
383.86,85.0
383.92,93.0
383.98,82.0
384.05,68.0
384.11,64.0
384.17,73.0
384.24,62.0
384.3,72.0
384.36,80.0
384.43,80.0
384.49,73.0
384.55,71.0
384.61,89.0
384.68,103.0
384.74,96.0
384.8,101.0
384.87,101.0
384.93,88.0
384.99,96.0
385.06,106.0
385.12,98.0
385.18,87.0
385.24,106.0
385.31,89.0
385.37,107.0
385.43,102.0
385.5,83.0
385.56,75.0
385.62,75.0
385.69,75.0
385.75,63.0
385.81,65.0
385.87,60.0
385.94,46.0
386.0,41.0
386.06,44.0
386.13,54.0
386.19,44.0
386.25,38.0
386.32,43.0
386.38,53.0
386.44,53.0
386.5,67.0
386.57,70.0
386.63,37.0
386.69,41.0
386.76,55.0
386.82,59.0
386.88,52.0
386.95,36.0
387.01,38.0
387.07,59.0
387.13,58.0
387.2,41.0
387.26,32.0
387.32,38.0
387.39,28.0
387.45,34.0
387.51,26.0
387.58,30.0
387.64,39.0
387.7,41.0
387.76,45.0
387.83,38.0
387.89,52.0
387.95,68.0
388.02,60.0
388.08,59.0
388.14,49.0
388.21,58.0
388.27,72.0
388.33,51.0
388.39,44.0
388.46,44.0
388.52,82.0
388.58,77.0
388.65,44.0
388.71,70.0
388.77,45.0
388.84,61.0
388.9,55.0
388.96,58.0
389.02,62.0
389.09,63.0
389.15,61.0
389.21,55.0
389.28,53.0
389.34,53.0
389.4,70.0
389.47,56.0
389.53,50.0
389.59,55.0
389.65,70.0
389.72,81.0
389.78,55.0
389.84,58.0
389.91,69.0
389.97,64.0
390.03,59.0
390.1,69.0
390.16,69.0
390.22,69.0
390.28,77.0
390.35,66.0
390.41,49.0
390.47,68.0
390.54,65.0
390.6,51.0
390.66,42.0
390.73,77.0
390.79,83.0
390.85,85.0
390.91,79.0
390.98,79.0
391.04,108.0
391.1,94.0
391.17,79.0
391.23,100.0
391.29,112.0
391.36,99.0
391.42,110.0
391.48,104.0
391.54,97.0
391.61,135.0
391.67,140.0
391.73,122.0
391.8,128.0
391.86,129.0
391.92,120.0
391.99,144.0
392.05,132.0
392.11,117.0
392.17,130.0
392.24,136.0
392.3,122.0
392.36,125.0
392.43,121.0
392.49,129.0
392.55,119.0
392.62,124.0
392.68,137.0
392.74,130.0
392.8,126.0
392.87,107.0
392.93,103.0
392.99,138.0
393.06,128.0
393.12,107.0
393.18,122.0
393.25,114.0
393.31,121.0
393.37,132.0
393.43,140.0
393.5,146.0
393.56,120.0
393.62,111.0
393.69,124.0
393.75,153.0
393.81,119.0
393.88,123.0
393.94,134.0
394.0,124.0
394.06,113.0
394.13,114.0
394.19,113.0
394.25,131.0
394.32,122.0
394.38,121.0
394.44,109.0
394.51,105.0
394.57,107.0
394.63,94.0
394.69,116.0
394.76,100.0
394.82,89.0
394.88,62.0
394.95,55.0
395.01,45.0
395.07,61.0
395.14,61.0
395.2,53.0
395.26,72.0
395.32,70.0
395.39,75.0
395.45,74.0
395.51,59.0
395.58,83.0
395.64,77.0
395.7,64.0
395.77,68.0
395.83,60.0
395.89,85.0
395.95,79.0
396.02,81.0
396.08,77.0
396.14,63.0
396.21,88.0
396.27,87.0
396.33,77.0
396.4,74.0
396.46,74.0
396.52,56.0
396.58,59.0
396.65,62.0
396.71,75.0
396.77,69.0
396.84,55.0
396.9,83.0
396.96,69.0
397.03,81.0
397.09,69.0
397.15,69.0
397.21,59.0
397.28,69.0
397.34,64.0
397.4,53.0
397.47,59.0
397.53,50.0
397.59,55.0
397.66,64.0
397.72,76.0
397.78,93.0
397.84,61.0
397.91,58.0
397.97,56.0
398.03,61.0
398.1,69.0
398.16,75.0
398.22,78.0
398.29,82.0
398.35,107.0
398.41,92.0
398.47,80.0
398.54,74.0
398.6,63.0
398.66,88.0
398.73,76.0
398.79,80.0
398.85,75.0
398.92,85.0
398.98,73.0
399.04,81.0
399.1,86.0
399.17,83.0
399.23,95.0
399.29,100.0
399.36,108.0
399.42,122.0
399.48,101.0
399.55,102.0
399.61,107.0
399.67,136.0
399.73,141.0
399.8,134.0
399.86,122.0
399.92,131.0
399.99,127.0
400.05,129.0
400.11,126.0
400.18,132.0
400.24,126.0
400.3,118.0
400.36,137.0
400.43,143.0
400.49,119.0
400.55,112.0
400.62,120.0
400.68,107.0
400.74,89.0
400.81,94.0
400.87,100.0
400.93,72.0
400.99,95.0
401.06,89.0
401.12,100.0
401.18,100.0
401.25,95.0
401.31,99.0
401.37,83.0
401.44,110.0
401.5,92.0
401.56,82.0
401.62,110.0
401.69,107.0
401.75,97.0
401.81,82.0
401.88,83.0
401.94,84.0
402.0,85.0
402.07,86.0
402.13,104.0
402.19,88.0
402.25,59.0
402.32,77.0
402.38,76.0
402.44,57.0
402.51,67.0
402.57,75.0
402.63,75.0
402.7,56.0
402.76,74.0
402.82,66.0
402.88,45.0
402.95,38.0
403.01,41.0
403.07,27.0
403.14,39.0
403.2,47.0
403.26,43.0
403.33,45.0
403.39,48.0
403.45,39.0
403.51,-3.0
403.58,5.0
403.64,15.0
403.7,11.0
403.77,-16.0
403.83,-14.0
403.89,-1.0
403.96,1.0
404.02,-29.0
404.08,1.0
404.14,1.0
404.21,3.0
404.27,9.0
404.33,-5.0
404.4,-3.0
404.46,-7.0
404.52,2.0
404.59,-9.0
404.65,-9.0
404.71,7.0
404.77,-8.0
404.84,-6.0
404.9,-5.0
404.96,8.0
405.03,-19.0
405.09,-16.0
405.15,-22.0
405.22,-26.0
405.28,-25.0
405.34,-17.0
405.4,-4.0
405.47,6.0
405.53,-12.0
405.59,2.0
405.66,17.0
405.72,36.0
405.78,22.0
405.85,14.0
405.91,27.0
405.97,25.0
406.03,25.0
406.1,23.0
406.16,47.0
406.22,42.0
406.29,9.0
406.35,20.0
406.41,25.0
406.48,11.0
406.54,34.0
406.6,33.0
406.66,31.0
406.73,37.0
406.79,45.0
406.85,53.0
406.92,30.0
406.98,45.0
407.04,45.0
407.11,34.0
407.17,57.0
407.23,69.0
407.29,61.0
407.36,59.0
407.42,72.0
407.48,89.0
407.55,61.0
407.61,87.0
407.67,84.0
407.74,91.0
407.8,97.0
407.86,86.0
407.92,89.0
407.99,93.0
408.05,89.0
408.11,90.0
408.18,77.0
408.24,88.0
408.3,71.0
408.37,80.0
408.43,86.0
408.49,80.0
408.55,89.0
408.62,76.0
408.68,46.0
408.74,60.0
408.81,60.0
408.87,51.0
408.93,56.0
409.0,54.0
409.06,63.0
409.12,68.0
409.18,74.0
409.25,86.0
409.31,88.0
409.37,84.0
409.44,93.0
409.5,87.0
409.56,66.0
409.63,88.0
409.69,77.0
409.75,74.0
409.81,77.0
409.88,80.0
409.94,62.0
410.0,90.0
410.07,107.0
410.13,88.0
410.19,108.0
410.26,101.0
410.32,102.0
410.38,94.0
410.44,87.0
410.51,87.0
410.57,82.0
410.63,76.0
410.7,83.0
410.76,69.0
410.82,82.0
410.89,82.0
410.95,94.0
411.01,97.0
411.07,100.0
411.14,80.0
411.2,82.0
411.26,108.0
411.33,82.0
411.39,103.0
411.45,109.0
411.52,104.0
411.58,107.0
411.64,108.0
411.7,97.0
411.77,90.0
411.83,115.0
411.89,105.0
411.96,101.0
412.02,104.0
412.08,106.0
412.15,108.0
412.21,107.0
412.27,101.0
412.33,102.0
412.4,78.0
412.46,81.0
412.52,85.0
412.59,90.0
412.65,74.0
412.71,94.0
412.78,93.0
412.84,91.0
412.9,92.0
412.96,88.0
413.03,84.0
413.09,79.0
413.15,82.0
413.22,72.0
413.28,76.0
413.34,76.0
413.41,80.0
413.47,74.0
413.53,68.0
413.59,83.0
413.66,97.0
413.72,91.0
413.78,69.0
413.85,62.0
413.91,65.0
413.97,82.0
414.04,59.0
414.1,71.0
414.16,78.0
414.22,77.0
414.29,104.0
414.35,88.0
414.41,97.0
414.48,109.0
414.54,97.0
414.6,139.0
414.67,152.0
414.73,146.0
414.79,160.0
414.85,155.0
414.92,157.0
414.98,158.0
415.04,152.0
415.11,156.0
415.17,160.0
415.23,173.0
415.3,181.0
415.36,174.0
415.42,178.0
415.48,173.0
415.55,154.0
415.61,164.0
415.67,163.0
415.74,163.0
415.8,182.0
415.86,176.0
415.93,182.0
415.99,178.0
416.05,155.0
416.11,163.0
416.18,160.0
416.24,149.0
416.3,158.0
416.37,154.0
416.43,163.0
416.49,163.0
416.56,158.0
416.62,156.0
416.68,156.0
416.74,151.0
416.81,174.0
416.87,167.0
416.93,150.0
417.0,149.0
417.06,181.0
417.12,170.0
417.19,161.0
417.25,181.0
417.31,178.0
417.37,189.0
417.44,195.0
417.5,181.0
417.56,171.0
417.63,169.0
417.69,176.0
417.75,172.0
417.82,142.0
417.88,160.0
417.94,170.0
418.0,170.0
418.07,171.0
418.13,186.0
418.19,179.0
418.26,177.0
418.32,184.0
418.38,156.0
418.45,157.0
418.51,155.0
418.57,162.0
418.63,171.0
418.7,164.0
418.76,152.0
418.82,139.0
418.89,149.0
418.95,140.0
419.01,165.0
419.08,154.0
419.14,166.0
419.2,133.0
419.26,140.0
419.33,152.0
419.39,156.0
419.45,136.0
419.52,132.0
419.58,140.0
419.64,132.0
419.71,145.0
419.77,137.0
419.83,133.0
419.89,130.0
419.96,110.0
420.02,134.0
420.08,126.0
420.15,122.0
420.21,126.0
420.27,105.0
420.34,126.0
420.4,130.0
420.46,127.0
420.52,101.0
420.59,99.0
420.65,104.0
420.71,110.0
420.78,96.0
420.84,83.0
420.9,99.0
420.97,87.0
421.03,79.0
421.09,93.0
421.15,85.0
421.22,85.0
421.28,77.0
421.34,93.0
421.41,82.0
421.47,84.0
421.53,86.0
421.6,95.0
421.66,93.0
421.72,112.0
421.78,102.0
421.85,108.0
421.91,114.0
421.97,98.0
422.04,88.0
422.1,111.0
422.16,104.0
422.23,93.0
422.29,115.0
422.35,112.0
422.41,110.0
422.48,90.0
422.54,107.0
422.6,108.0
422.67,86.0
422.73,68.0
422.79,72.0
422.86,77.0
422.92,61.0
422.98,82.0
423.04,87.0
423.11,81.0
423.17,86.0
423.23,86.0
423.3,96.0
423.36,88.0
423.42,93.0
423.49,82.0
423.55,67.0
423.61,80.0
423.67,63.0
423.74,74.0
423.8,86.0
423.86,80.0
423.93,110.0
423.99,111.0
424.05,99.0
424.12,107.0
424.18,83.0
424.24,90.0
424.3,88.0
424.37,108.0
424.43,84.0
424.49,101.0
424.56,127.0
424.62,110.0
424.68,101.0
424.75,96.0
424.81,105.0
424.87,105.0
424.93,97.0
425.0,99.0
425.06,112.0
425.12,100.0
425.19,111.0
425.25,122.0
425.31,115.0
425.38,116.0
425.44,86.0
425.5,101.0
425.56,114.0
425.63,108.0
425.69,99.0
425.75,85.0
425.82,103.0
425.88,104.0
425.94,122.0
426.01,106.0
426.07,100.0
426.13,110.0
426.19,120.0
426.26,111.0
426.32,124.0
426.38,132.0
426.45,128.0
426.51,127.0
426.57,157.0
426.64,132.0
426.7,106.0
426.76,124.0
426.82,137.0
426.89,115.0
426.95,114.0
427.01,118.0
427.08,123.0
427.14,119.0
427.2,108.0
427.27,131.0
427.33,126.0
427.39,133.0
427.45,116.0
427.52,120.0
427.58,114.0
427.64,115.0
427.71,132.0
427.77,102.0
427.83,113.0
427.9,105.0
427.96,109.0
428.02,111.0
428.08,108.0
428.15,102.0
428.21,103.0
428.27,101.0
428.34,76.0
428.4,63.0
428.46,46.0
428.53,46.0
428.59,50.0
428.65,48.0
428.71,58.0
428.78,33.0
428.84,53.0
428.9,56.0
428.97,42.0
429.03,61.0
429.09,57.0
429.16,55.0
429.22,43.0
429.28,58.0
429.34,53.0
429.41,47.0
429.47,44.0
429.53,32.0
429.6,25.0
429.66,24.0
429.72,27.0
429.79,19.0
429.85,36.0
429.91,13.0
429.97,36.0
430.04,49.0
430.1,51.0
430.16,54.0
430.23,52.0
430.29,66.0
430.35,75.0
430.42,64.0
430.48,49.0
430.54,50.0
430.6,53.0
430.67,53.0
430.73,49.0
430.79,49.0
430.86,55.0
430.92,51.0
430.98,35.0
431.05,57.0
431.11,60.0
431.17,64.0
431.23,52.0
431.3,64.0
431.36,34.0
431.42,50.0
431.49,64.0
431.55,44.0
431.61,60.0
431.68,64.0
431.74,60.0
431.8,83.0
431.86,64.0
431.93,82.0
431.99,105.0
432.05,69.0
432.12,66.0
432.18,75.0
432.24,69.0
432.31,75.0
432.37,63.0
432.43,91.0
432.49,91.0
432.56,83.0
432.62,80.0
432.68,75.0
432.75,92.0
432.81,91.0
432.87,98.0
432.94,105.0
433.0,95.0
433.06,96.0
433.12,90.0
433.19,81.0
433.25,85.0
433.31,75.0
433.38,67.0
433.44,72.0
433.5,81.0
433.57,75.0
433.63,90.0
433.69,82.0
433.75,77.0
433.82,79.0
433.88,86.0
433.94,71.0
434.01,64.0
434.07,58.0
434.13,55.0
434.2,53.0
434.26,53.0
434.32,66.0
434.38,48.0
434.45,54.0
434.51,53.0
434.57,69.0
434.64,82.0
434.7,82.0
434.76,72.0
434.83,76.0
434.89,86.0
434.95,61.0
435.01,80.0
435.08,96.0
435.14,79.0
435.2,101.0
435.27,109.0
435.33,110.0
435.39,105.0
435.46,108.0
435.52,100.0
435.58,106.0
435.64,100.0
435.71,82.0
435.77,88.0
435.83,67.0
435.9,65.0
435.96,78.0
436.02,75.0
436.09,84.0
436.15,82.0
436.21,89.0
436.27,68.0
436.34,90.0
436.4,106.0
436.46,102.0
436.53,93.0
436.59,79.0
436.65,92.0
436.72,80.0
436.78,94.0
436.84,96.0
436.9,114.0
436.97,108.0
437.03,104.0
437.09,96.0
437.16,97.0
437.22,102.0
437.28,94.0
437.35,89.0
437.41,95.0
437.47,109.0
437.53,107.0
437.6,116.0
437.66,107.0
437.72,118.0
437.79,131.0
437.85,109.0
437.91,92.0
437.98,110.0
438.04,119.0
438.1,108.0
438.16,111.0
438.23,113.0
438.29,116.0
438.35,105.0
438.42,98.0
438.48,92.0
438.54,110.0
438.61,93.0
438.67,104.0
438.73,90.0
438.79,119.0
438.86,108.0
438.92,92.0
438.98,78.0
439.05,75.0
439.11,85.0
439.17,93.0
439.24,101.0
439.3,94.0
439.36,80.0
439.42,106.0
439.49,85.0
439.55,90.0
439.61,89.0
439.68,91.0
439.74,89.0
439.8,91.0
439.87,80.0
439.93,64.0
439.99,84.0
440.05,100.0
440.12,78.0
440.18,81.0
440.24,85.0
440.31,75.0
440.37,83.0
440.43,60.0
440.5,71.0
440.56,82.0
440.62,81.0
440.68,82.0
440.75,71.0
440.81,77.0
440.87,99.0
440.94,104.0
441.0,89.0
441.06,96.0
441.13,92.0
441.19,108.0
441.25,101.0
441.31,85.0
441.38,98.0
441.44,105.0
441.5,104.0
441.57,102.0
441.63,100.0
441.69,93.0
441.76,91.0
441.82,101.0
441.88,107.0
441.94,108.0
442.01,124.0
442.07,130.0
442.13,124.0
442.2,139.0
442.26,149.0
442.32,132.0
442.39,144.0
442.45,126.0
442.51,146.0
442.57,136.0
442.64,133.0
442.7,141.0
442.76,147.0
442.83,137.0
442.89,129.0
442.95,134.0
443.02,122.0
443.08,123.0
443.14,140.0
443.2,134.0
443.27,138.0
443.33,133.0
443.39,131.0
443.46,140.0
443.52,128.0
443.58,128.0
443.65,127.0
443.71,122.0
443.77,128.0
443.83,120.0
443.9,131.0
443.96,149.0
444.02,152.0
444.09,146.0
444.15,148.0
444.21,145.0
444.28,122.0
444.34,134.0
444.4,141.0
444.46,127.0
444.53,147.0
444.59,134.0
444.65,146.0
444.72,133.0
444.78,132.0
444.84,113.0
444.91,127.0
444.97,113.0
445.03,101.0
445.09,95.0
445.16,81.0
445.22,94.0
445.28,113.0
445.35,103.0
445.41,84.0
445.47,94.0
445.54,101.0
445.6,79.0
445.66,72.0
445.72,95.0
445.79,89.0
445.85,108.0
445.91,99.0
445.98,85.0
446.04,85.0
446.1,83.0
446.17,77.0
446.23,93.0
446.29,77.0
446.35,83.0
446.42,76.0
446.48,59.0
446.54,63.0
446.61,82.0
446.67,63.0
446.73,57.0
446.8,46.0
446.86,46.0
446.92,66.0
446.98,44.0
447.05,47.0
447.11,27.0
447.17,63.0
447.24,78.0
447.3,82.0
447.36,69.0
447.43,84.0
447.49,78.0
447.55,81.0
447.61,72.0
447.68,71.0
447.74,72.0
447.8,90.0
447.87,73.0
447.93,71.0
447.99,82.0
448.06,68.0
448.12,83.0
448.18,81.0
448.24,95.0
448.31,83.0
448.37,56.0
448.43,80.0
448.5,84.0
448.56,54.0
448.62,64.0
448.69,72.0
448.75,64.0
448.81,67.0
448.87,67.0
448.94,90.0
449.0,71.0
449.06,69.0
449.13,83.0
449.19,81.0
449.25,63.0
449.32,53.0
449.38,72.0
449.44,80.0
449.5,82.0
449.57,72.0
449.63,86.0
449.69,94.0
449.76,83.0
449.82,82.0
449.88,101.0
449.95,79.0
450.01,86.0
450.07,94.0
450.13,93.0
450.2,95.0
450.26,101.0
450.32,86.0
450.39,93.0
450.45,97.0
450.51,98.0
450.58,108.0
450.64,82.0
450.7,80.0
450.76,63.0
450.83,58.0
450.89,66.0
450.95,75.0
451.02,71.0
451.08,72.0
451.14,64.0
451.21,56.0
451.27,76.0
451.33,60.0
451.39,76.0
451.46,79.0
451.52,75.0
451.58,96.0
451.65,101.0
451.71,71.0
451.77,80.0
451.84,75.0
451.9,78.0
451.96,72.0
452.02,56.0
452.09,74.0
452.15,93.0
452.21,103.0
452.28,99.0
452.34,100.0
452.4,104.0
452.47,86.0
452.53,89.0
452.59,101.0
452.65,98.0
452.72,73.0
452.78,75.0
452.84,86.0
452.91,62.0
452.97,71.0
453.03,64.0
453.1,59.0
453.16,60.0
453.22,46.0
453.28,43.0
453.35,68.0
453.41,53.0
453.47,52.0
453.54,55.0
453.6,63.0
453.66,80.0
453.73,74.0
453.79,53.0
453.85,66.0
453.91,49.0
453.98,37.0
454.04,36.0
454.1,24.0
454.17,-7.0
454.23,26.0
454.29,3.0
454.36,-12.0
454.42,-11.0
454.48,0.0
454.54,13.0
454.61,20.0
454.67,21.0
454.73,25.0
454.8,33.0
454.86,25.0
454.92,19.0
454.99,18.0
455.05,18.0
455.11,15.0
455.17,8.0
455.24,6.0
455.3,21.0
455.36,31.0
455.43,17.0
455.49,18.0
455.55,11.0
455.62,-10.0
455.68,-3.0
455.74,-1.0
455.8,-1.0
455.87,0.0
455.93,-19.0
455.99,-8.0
456.06,-10.0
456.12,-8.0
456.18,-6.0
456.25,7.0
456.31,20.0
456.37,22.0
456.43,40.0
456.5,28.0
456.56,6.0
456.62,19.0
456.69,36.0
456.75,31.0
456.81,9.0
456.88,29.0
456.94,46.0
457.0,-1.0
457.06,9.0
457.13,19.0
457.19,6.0
457.25,6.0
457.32,18.0
457.38,18.0
457.44,0.0
457.51,0.0
457.57,9.0
457.63,5.0
457.69,9.0
457.76,19.0
457.82,21.0
457.88,37.0
457.95,17.0
458.01,7.0
458.07,39.0
458.14,23.0
458.2,30.0
458.26,34.0
458.32,31.0
458.39,43.0
458.45,41.0
458.51,52.0
458.58,59.0
458.64,66.0
458.7,74.0
458.77,58.0
458.83,72.0
458.89,63.0
458.95,58.0
459.02,48.0
459.08,40.0
459.14,82.0
459.21,63.0
459.27,55.0
459.33,74.0
459.4,91.0
459.46,89.0
459.52,69.0
459.58,70.0
459.65,64.0
459.71,77.0
459.77,79.0
459.84,96.0
459.9,82.0
459.96,71.0
460.03,79.0
460.09,80.0
460.15,65.0
460.21,91.0
460.28,80.0
460.34,94.0
460.4,93.0
460.47,105.0
460.53,94.0
460.59,97.0
460.66,105.0
460.72,96.0
460.78,112.0
460.84,106.0
460.91,89.0
460.97,104.0
461.03,112.0
461.1,114.0
461.16,108.0
461.22,106.0
461.29,106.0
461.35,99.0
461.41,116.0
461.47,102.0
461.54,101.0
461.6,104.0
461.66,92.0
461.73,113.0
461.79,97.0
461.85,102.0
461.92,113.0
461.98,95.0
462.04,81.0
462.1,78.0
462.17,82.0
462.23,82.0
462.29,77.0
462.36,100.0
462.42,92.0
462.48,104.0
462.55,115.0
462.61,113.0
462.67,102.0
462.73,85.0
462.8,125.0
462.86,132.0
462.92,124.0
462.99,104.0
463.05,95.0
463.11,113.0
463.18,100.0
463.24,85.0
463.3,77.0
463.36,91.0
463.43,100.0
463.49,89.0
463.55,92.0
463.62,95.0
463.68,96.0
463.74,87.0
463.81,86.0
463.87,66.0
463.93,61.0
463.99,88.0
464.06,90.0
464.12,106.0
464.18,95.0
464.25,107.0
464.31,113.0
464.37,99.0
464.44,84.0
464.5,72.0
464.56,76.0
464.62,117.0
464.69,114.0
464.75,117.0
464.81,129.0
464.88,107.0
464.94,114.0
465.0,105.0
465.07,108.0
465.13,106.0
465.19,123.0
465.25,120.0
465.32,99.0
465.38,109.0
465.44,116.0
465.51,113.0
465.57,101.0
465.63,106.0
465.7,103.0
465.76,121.0
465.82,101.0
465.88,109.0
465.95,124.0
466.01,113.0
466.07,104.0
466.14,105.0
466.2,102.0
466.26,101.0
466.33,128.0
466.39,100.0
466.45,99.0
466.51,108.0
466.58,119.0
466.64,107.0
466.7,127.0
466.77,120.0
466.83,108.0
466.89,111.0
466.96,124.0
467.02,108.0
467.08,119.0
467.14,132.0
467.21,128.0
467.27,116.0
467.33,120.0
467.4,110.0
467.46,109.0
467.52,98.0
467.59,88.0
467.65,94.0
467.71,111.0
467.77,127.0
467.84,129.0
467.9,118.0
467.96,130.0
468.03,131.0
468.09,114.0
468.15,129.0
468.22,136.0
468.28,147.0
468.34,136.0
468.4,128.0
468.47,134.0
468.53,106.0
468.59,110.0
468.66,118.0
468.72,104.0
468.78,102.0
468.85,126.0
468.91,122.0
468.97,124.0
469.03,104.0
469.1,110.0
469.16,130.0
469.22,121.0
469.29,110.0
469.35,109.0
469.41,112.0
469.48,136.0
469.54,125.0
469.6,100.0
469.66,103.0
469.73,88.0
469.79,103.0
469.85,104.0
469.92,105.0
469.98,108.0
470.04,104.0
470.11,110.0
470.17,101.0
470.23,83.0
470.29,83.0
470.36,114.0
470.42,102.0
470.48,90.0
470.55,77.0
470.61,89.0
470.67,73.0
470.74,86.0
470.8,84.0
470.86,80.0
470.92,92.0
470.99,105.0
471.05,113.0
471.11,119.0
471.18,118.0
471.24,104.0
471.3,140.0
471.37,134.0
471.43,126.0
471.49,127.0
471.55,113.0
471.62,117.0
471.68,106.0
471.74,127.0
471.81,150.0
471.87,141.0
471.93,127.0
472.0,129.0
472.06,128.0
472.12,128.0
472.18,143.0
472.25,140.0
472.31,140.0
472.37,150.0
472.44,148.0
472.5,152.0
472.56,134.0
472.63,136.0
472.69,152.0
472.75,177.0
472.81,155.0
472.88,140.0
472.94,140.0
473.0,138.0
473.07,148.0
473.13,148.0
473.19,159.0
473.26,169.0
473.32,160.0
473.38,153.0
473.44,159.0
473.51,146.0
473.57,139.0
473.63,152.0
473.7,144.0
473.76,151.0
473.82,149.0
473.89,154.0
473.95,136.0
474.01,147.0
474.07,143.0
474.14,147.0
474.2,147.0
474.26,125.0
474.33,132.0
474.39,124.0
474.45,130.0
474.52,139.0
474.58,122.0
474.64,140.0
474.7,125.0
474.77,129.0
474.83,132.0
474.89,117.0
474.96,133.0
475.02,125.0
475.08,128.0
475.15,122.0
475.21,126.0
475.27,113.0
475.33,111.0
475.4,114.0
475.46,132.0
475.52,131.0
475.59,126.0
475.65,119.0
475.71,132.0
475.78,142.0
475.84,135.0
475.9,150.0
475.96,133.0
476.03,152.0
476.09,138.0
476.15,135.0
476.22,137.0
476.28,135.0
476.34,155.0
476.41,137.0
476.47,122.0
476.53,148.0
476.59,157.0
476.66,158.0
476.72,165.0
476.78,145.0
476.85,136.0
476.91,160.0
476.97,158.0
477.04,170.0
477.1,152.0
477.16,182.0
477.22,180.0
477.29,164.0
477.35,151.0
477.41,175.0
477.48,168.0
477.54,147.0
477.6,153.0
477.67,159.0
477.73,169.0
477.79,183.0
477.85,177.0
477.92,181.0
477.98,160.0
478.04,171.0
478.11,178.0
478.17,170.0
478.23,174.0
478.3,153.0
478.36,148.0
478.42,154.0
478.48,156.0
478.55,165.0
478.61,157.0
478.67,163.0
478.74,155.0
478.8,154.0
478.86,143.0
478.93,146.0
478.99,140.0
479.05,141.0
479.11,138.0
479.18,137.0
479.24,143.0
479.3,132.0
479.37,127.0
479.43,106.0
479.49,108.0
479.56,111.0
479.62,115.0
479.68,109.0
479.74,110.0
479.81,109.0
479.87,106.0
479.93,122.0
480.0,106.0
480.06,115.0
480.12,128.0
480.19,130.0
480.25,121.0
480.31,116.0
480.37,114.0
480.44,110.0
480.5,105.0
480.56,123.0
480.63,119.0
480.69,111.0
480.75,89.0
480.82,92.0
480.88,102.0
480.94,96.0
481.0,96.0
481.07,101.0
481.13,99.0
481.19,103.0
481.26,99.0
481.32,93.0
481.38,92.0
481.45,96.0
481.51,108.0
481.57,112.0
481.63,106.0
481.7,95.0
481.76,93.0
481.82,97.0
481.89,105.0
481.95,104.0
482.01,97.0
482.08,122.0
482.14,118.0
482.2,130.0
482.26,139.0
482.33,142.0
482.39,133.0
482.45,135.0
482.52,112.0
482.58,127.0
482.64,108.0
482.71,107.0
482.77,128.0
482.83,140.0
482.89,122.0
482.96,123.0
483.02,132.0
483.08,138.0
483.15,125.0
483.21,139.0
483.27,132.0
483.34,105.0
483.4,117.0
483.46,123.0
483.52,118.0
483.59,105.0
483.65,108.0
483.71,148.0
483.78,151.0
483.84,146.0
483.9,166.0
483.97,158.0
484.03,148.0
484.09,140.0
484.15,139.0
484.22,124.0
484.28,108.0
484.34,140.0
484.41,128.0
484.47,116.0
484.53,131.0
484.6,117.0
484.66,110.0
484.72,108.0
484.78,119.0
484.85,113.0
484.91,109.0
484.97,131.0
485.04,108.0
485.1,92.0
485.16,107.0
485.23,101.0
485.29,101.0
485.35,113.0
485.41,103.0
485.48,107.0
485.54,106.0
485.6,83.0
485.67,105.0
485.73,99.0
485.79,91.0
485.86,86.0
485.92,88.0
485.98,97.0
486.04,81.0
486.11,90.0
486.17,70.0
486.23,72.0
486.3,73.0
486.36,61.0
486.42,71.0
486.49,66.0
486.55,67.0
486.61,74.0
486.67,66.0
486.74,72.0
486.8,60.0
486.86,72.0
486.93,80.0
486.99,53.0
487.05,61.0
487.12,71.0
487.18,75.0
487.24,75.0
487.3,70.0
487.37,56.0
487.43,64.0
487.49,48.0
487.56,40.0
487.62,52.0
487.68,74.0
487.75,63.0
487.81,61.0
487.87,57.0
487.93,60.0
488.0,46.0
488.06,46.0
488.12,59.0
488.19,59.0
488.25,50.0
488.31,61.0
488.38,82.0
488.44,62.0
488.5,72.0
488.56,73.0
488.63,60.0
488.69,75.0
488.75,89.0
488.82,99.0
488.88,82.0
488.94,83.0
489.01,69.0
489.07,69.0
489.13,80.0
489.19,59.0
489.26,60.0
489.32,72.0
489.38,70.0
489.45,78.0
489.51,75.0
489.57,87.0
489.64,71.0
489.7,53.0
489.76,53.0
489.82,55.0
489.89,59.0
489.95,53.0
490.01,37.0
490.08,30.0
490.14,36.0
490.2,55.0
490.27,48.0
490.33,53.0
490.39,75.0
490.45,71.0
490.52,66.0
490.58,72.0
490.64,64.0
490.71,77.0
490.77,71.0
490.83,70.0
490.9,80.0
490.96,78.0
491.02,73.0
491.08,61.0
491.15,83.0
491.21,71.0
491.27,52.0
491.34,61.0
491.4,61.0
491.46,49.0
491.53,65.0
491.59,73.0
491.65,72.0
491.71,44.0
491.78,63.0
491.84,75.0
491.9,73.0
491.97,72.0
492.03,74.0
492.09,76.0
492.16,98.0
492.22,70.0
492.28,66.0
492.34,67.0
492.41,56.0
492.47,76.0
492.53,69.0
492.6,72.0
492.66,70.0
492.72,86.0
492.79,69.0
492.85,92.0
492.91,89.0
492.97,89.0
493.04,77.0
493.1,62.0
493.16,95.0
493.23,96.0
493.29,108.0
493.35,110.0
493.42,122.0
493.48,123.0
493.54,128.0
493.6,137.0
493.67,144.0
493.73,122.0
493.79,120.0
493.86,139.0
493.92,111.0
493.98,129.0
494.05,126.0
494.11,117.0
494.17,111.0
494.23,96.0
494.3,117.0
494.36,113.0
494.42,111.0
494.49,140.0
494.55,126.0
494.61,118.0
494.68,116.0
494.74,139.0
494.8,119.0
494.86,121.0
494.93,125.0
494.99,121.0
495.05,128.0
495.12,127.0
495.18,126.0
495.24,114.0
495.31,94.0
495.37,121.0
495.43,133.0
495.49,116.0
495.56,116.0
495.62,125.0
495.68,107.0
495.75,91.0
495.81,127.0
495.87,111.0
495.94,120.0
496.0,121.0
496.06,118.0
496.12,96.0
496.19,115.0
496.25,114.0
496.31,97.0
496.38,113.0
496.44,103.0
496.5,102.0
496.57,126.0
496.63,132.0
496.69,116.0
496.75,88.0
496.82,96.0
496.88,110.0
496.94,108.0
497.01,86.0
497.07,81.0
497.13,97.0
497.2,100.0
497.26,115.0
497.32,111.0
497.38,103.0
497.45,125.0
497.51,119.0
497.57,99.0
497.64,77.0
497.7,52.0
497.76,70.0
497.83,104.0
497.89,80.0
497.95,80.0
498.01,110.0
498.08,120.0
498.14,114.0
498.2,88.0
498.27,110.0
498.33,124.0
498.39,128.0
498.46,105.0
498.52,108.0
498.58,109.0
498.64,121.0
498.71,138.0
498.77,109.0
498.83,114.0
498.9,103.0
498.96,117.0
499.02,125.0
499.09,130.0
499.15,131.0
499.21,129.0
499.27,110.0
499.34,119.0
499.4,109.0
499.46,108.0
499.53,132.0
499.59,107.0
499.65,124.0
499.72,125.0
499.78,123.0
499.84,107.0
499.9,118.0
499.97,106.0
500.03,114.0
500.09,111.0
500.16,134.0
500.22,136.0
500.28,119.0
500.35,128.0
500.41,114.0
500.47,137.0
500.53,129.0
500.6,113.0
500.66,95.0
500.72,114.0
500.79,102.0
500.85,108.0
500.91,106.0
500.98,105.0
501.04,130.0
501.1,117.0
501.16,91.0
501.23,99.0
501.29,109.0
501.35,110.0
501.42,95.0
501.48,89.0
501.54,103.0
501.61,92.0
501.67,101.0
501.73,85.0
501.79,80.0
501.86,102.0
501.92,99.0
501.98,81.0
502.05,68.0
502.11,73.0
502.17,65.0
502.24,75.0
502.3,78.0
502.36,73.0
502.42,85.0
502.49,61.0
502.55,72.0
502.61,75.0
502.68,92.0
502.74,80.0
502.8,83.0
502.87,95.0
502.93,94.0
502.99,102.0
503.05,90.0
503.12,80.0
503.18,86.0
503.24,86.0
503.31,83.0
503.37,67.0
503.43,66.0
503.5,53.0
503.56,73.0
503.62,69.0
503.68,67.0
503.75,63.0
503.81,70.0
503.87,68.0
503.94,64.0
504.0,75.0
504.06,71.0
504.13,91.0
504.19,76.0
504.25,79.0
504.31,58.0
504.38,73.0
504.44,92.0
504.5,75.0
504.57,83.0
504.63,73.0
504.69,82.0
504.76,85.0
504.82,77.0
504.88,56.0
504.94,68.0
505.01,91.0
505.07,77.0
505.13,103.0
505.2,76.0
505.26,60.0
505.32,55.0
505.39,41.0
505.45,37.0
505.51,30.0
505.57,41.0
505.64,48.0
505.7,58.0
505.76,50.0
505.83,49.0
505.89,52.0
505.95,35.0
506.02,26.0
506.08,31.0
506.14,35.0
506.2,34.0
506.27,29.0
506.33,25.0
506.39,31.0
506.46,29.0
506.52,25.0
506.58,53.0
506.65,42.0
506.71,13.0
506.77,39.0
506.83,19.0
506.9,34.0
506.96,39.0
507.02,25.0
507.09,22.0
507.15,22.0
507.21,31.0
507.28,25.0
507.34,10.0
507.4,23.0
507.46,13.0
507.53,25.0
507.59,4.0
507.65,14.0
507.72,16.0
507.78,20.0
507.84,22.0
507.91,18.0
507.97,6.0
508.03,14.0
508.09,1.0
508.16,-19.0
508.22,-3.0
508.28,19.0
508.35,10.0
508.41,10.0
508.47,34.0
508.54,12.0
508.6,0.0
508.66,26.0
508.72,6.0
508.79,-18.0
508.85,-7.0
508.91,-17.0
508.98,-26.0
509.04,-36.0
509.1,-23.0
509.17,-20.0
509.23,-27.0
509.29,-8.0
509.35,3.0
509.42,-10.0
509.48,-41.0
509.54,-1.0
509.61,18.0
509.67,15.0
509.73,25.0
509.8,29.0
509.86,24.0
509.92,24.0
509.98,-11.0
510.05,8.0
510.11,-4.0
510.17,-4.0
510.24,13.0
510.3,21.0
510.36,-5.0
510.43,-7.0
510.49,9.0
510.55,19.0
510.61,5.0
510.68,18.0
510.74,32.0
510.8,8.0
510.87,17.0
510.93,15.0
510.99,21.0
511.06,9.0
511.12,15.0
511.18,-2.0
511.24,22.0
511.31,27.0
511.37,29.0
511.43,4.0
511.5,13.0
511.56,22.0
511.62,3.0
511.69,-3.0
511.75,0.0
511.81,-3.0
511.87,13.0
511.94,0.0
512.0,-19.0
512.06,-15.0
512.13,2.0
512.19,-3.0
512.25,-16.0
512.32,5.0
512.38,-21.0
512.44,-47.0
512.5,-6.0
512.57,6.0
512.63,-9.0
512.69,-8.0
512.76,-5.0
512.82,-2.0
512.88,-15.0
512.95,-29.0
513.01,-7.0
513.07,-17.0
513.13,-17.0
513.2,0.0
513.26,8.0
513.32,0.0
513.39,1.0
513.45,8.0
513.51,16.0
513.58,1.0
513.64,-11.0
513.7,-16.0
513.76,-19.0
513.83,-15.0
513.89,-30.0
513.95,-10.0
514.02,-29.0
514.08,-19.0
514.14,-15.0
514.21,-10.0
514.27,8.0
514.33,-4.0
514.39,16.0
514.46,-3.0
514.52,2.0
514.58,-1.0
514.65,21.0
514.71,30.0
514.77,24.0
514.84,35.0
514.9,41.0
514.96,30.0
515.02,22.0
515.09,50.0
515.15,43.0
515.21,43.0
515.28,55.0
515.34,54.0
515.4,52.0
515.47,47.0
515.53,65.0
515.59,61.0
515.65,65.0
515.72,69.0
515.78,76.0
515.84,69.0
515.91,58.0
515.97,76.0
516.03,82.0
516.1,68.0
516.16,59.0
516.22,71.0
516.28,73.0
516.35,84.0
516.41,75.0
516.47,94.0
516.54,90.0
516.6,77.0
516.66,76.0
516.73,84.0
516.79,93.0
516.85,96.0
516.91,101.0
516.98,87.0
517.04,63.0
517.1,64.0
517.17,98.0
517.23,98.0
517.29,82.0
517.36,84.0
517.42,87.0
517.48,81.0
517.54,76.0
517.61,89.0
517.67,91.0
517.73,91.0
517.8,99.0
517.86,114.0
517.92,108.0
517.99,119.0
518.05,105.0
518.11,119.0
518.17,108.0
518.24,112.0
518.3,112.0
518.36,127.0
518.43,124.0
518.49,104.0
518.55,123.0
518.62,118.0
518.68,108.0
518.74,105.0
518.8,117.0
518.87,139.0
518.93,127.0
518.99,127.0
519.06,121.0
519.12,126.0
519.18,135.0
519.25,146.0
519.31,141.0
519.37,121.0
519.43,128.0
519.5,136.0
519.56,150.0
519.62,165.0
519.69,149.0
519.75,150.0
519.81,129.0
519.88,153.0
519.94,157.0
520.0,153.0
520.06,164.0
520.13,149.0
520.19,138.0
520.25,143.0
520.32,139.0
520.38,138.0
520.44,129.0
520.51,121.0
520.57,127.0
520.63,134.0
520.69,130.0
520.76,136.0
520.82,136.0
520.88,148.0
520.95,172.0
521.01,185.0
521.07,149.0
521.14,147.0
521.2,163.0
521.26,140.0
521.32,142.0
521.39,140.0
521.45,146.0
521.51,153.0
521.58,158.0
521.64,176.0
521.7,168.0
521.77,146.0
521.83,145.0
521.89,165.0
521.95,162.0
522.02,163.0
522.08,152.0
522.14,137.0
522.21,149.0
522.27,152.0
522.33,150.0
522.4,142.0
522.46,128.0
522.52,143.0
522.58,143.0
522.65,157.0
522.71,157.0
522.77,145.0
522.84,153.0
522.9,140.0
522.96,147.0
523.03,158.0
523.09,184.0
523.15,175.0
523.21,159.0
523.28,152.0
523.34,168.0
523.4,157.0
523.47,146.0
523.53,154.0
523.59,148.0
523.66,146.0
523.72,165.0
523.78,137.0
523.84,129.0
523.91,135.0
523.97,136.0
524.03,153.0
524.1,124.0
524.16,141.0
524.22,141.0
524.29,129.0
524.35,153.0
524.41,154.0
524.47,159.0
524.54,159.0
524.6,144.0
524.66,156.0
524.73,158.0
524.79,144.0
524.85,151.0
524.92,141.0
524.98,146.0
525.04,153.0
525.1,171.0
525.17,179.0
525.23,143.0
525.29,150.0
525.36,162.0
525.42,168.0
525.48,168.0
525.55,164.0
525.61,184.0
525.67,159.0
525.73,152.0
525.8,157.0
525.86,154.0
525.92,166.0
525.99,161.0
526.05,155.0
526.11,174.0
526.18,158.0
526.24,158.0
526.3,151.0
526.36,153.0
526.43,155.0
526.49,132.0
526.55,134.0
526.62,125.0
526.68,138.0
526.74,140.0
526.81,127.0
526.87,118.0
526.93,140.0
526.99,138.0
527.06,120.0
527.12,119.0
527.18,97.0
527.25,113.0
527.31,131.0
527.37,121.0
527.44,109.0
527.5,115.0
527.56,116.0
527.62,115.0
527.69,127.0
527.75,117.0
527.81,102.0
527.88,113.0
527.94,120.0
528.0,105.0
528.07,105.0
528.13,125.0
528.19,116.0
528.25,142.0
528.32,135.0
528.38,129.0
528.44,145.0
528.51,141.0
528.57,161.0
528.63,141.0
528.7,138.0
528.76,146.0
528.82,133.0
528.88,124.0
528.95,130.0
529.01,131.0
529.07,105.0
529.14,107.0
529.2,95.0
529.26,83.0
529.33,83.0
529.39,75.0
529.45,70.0
529.51,95.0
529.58,74.0
529.64,76.0
529.7,88.0
529.77,82.0
529.83,91.0
529.89,82.0
529.96,81.0
530.02,80.0
530.08,78.0
530.14,76.0
530.21,85.0
530.27,69.0
530.33,86.0
530.4,82.0
530.46,68.0
530.52,89.0
530.59,91.0
530.65,96.0
530.71,73.0
530.77,63.0
530.84,66.0
530.9,65.0
530.96,63.0
531.03,53.0
531.09,68.0
531.15,63.0
531.22,79.0
531.28,77.0
531.34,73.0
531.4,72.0
531.47,56.0
531.53,71.0
531.59,54.0
531.66,72.0
531.72,63.0
531.78,60.0
531.85,71.0
531.91,101.0
531.97,109.0
532.03,66.0
532.1,72.0
532.16,62.0
532.22,56.0
532.29,72.0
532.35,66.0
532.41,82.0
532.48,71.0
532.54,55.0
532.6,57.0
532.66,58.0
532.73,80.0
532.79,95.0
532.85,88.0
532.92,91.0
532.98,87.0
533.04,80.0
533.11,76.0
533.17,58.0
533.23,61.0
533.29,50.0
533.36,52.0
533.42,72.0
533.48,58.0
533.55,57.0
533.61,46.0
533.67,40.0
533.74,65.0
533.8,82.0
533.86,88.0
533.92,68.0
533.99,64.0
534.05,67.0
534.11,69.0
534.18,68.0
534.24,80.0
534.3,55.0
534.37,73.0
534.43,63.0
534.49,51.0
534.55,46.0
534.62,56.0
534.68,74.0
534.74,62.0
534.81,62.0
534.87,80.0
534.93,67.0
535.0,65.0
535.06,76.0
535.12,65.0
535.18,55.0
535.25,68.0
535.31,75.0
535.37,61.0
535.44,75.0
535.5,49.0
535.56,58.0
535.63,79.0
535.69,81.0
535.75,87.0
535.81,78.0
535.88,65.0
535.94,58.0
536.0,79.0
536.07,79.0
536.13,69.0
536.19,65.0
536.26,74.0
536.32,67.0
536.38,80.0
536.44,69.0
536.51,71.0
536.57,66.0
536.63,77.0
536.7,77.0
536.76,79.0
536.82,82.0
536.89,69.0
536.95,66.0
537.01,68.0
537.07,73.0
537.14,74.0
537.2,87.0
537.26,102.0
537.33,84.0
537.39,70.0
537.45,74.0
537.52,99.0
537.58,79.0
537.64,81.0
537.7,80.0
537.77,90.0
537.83,90.0
537.89,80.0
537.96,74.0
538.02,79.0
538.08,79.0
538.15,75.0
538.21,74.0
538.27,76.0
538.33,66.0
538.4,60.0
538.46,82.0
538.52,94.0
538.59,74.0
538.65,94.0
538.71,87.0
538.78,77.0
538.84,82.0
538.9,76.0
538.96,61.0
539.03,73.0
539.09,82.0
539.15,79.0
539.22,109.0
539.28,98.0
539.34,93.0
539.41,99.0
539.47,96.0
539.53,100.0
539.59,91.0
539.66,106.0
539.72,96.0
539.78,98.0
539.85,101.0
539.91,103.0
539.97,102.0
540.04,116.0
540.1,118.0
540.16,129.0
540.22,115.0
540.29,101.0
540.35,109.0
540.41,129.0
540.48,109.0
540.54,113.0
540.6,117.0
540.67,133.0
540.73,127.0
540.79,123.0
540.85,140.0
540.92,124.0
540.98,128.0
541.04,156.0
541.11,158.0
541.17,157.0
541.23,143.0
541.3,135.0
541.36,151.0
541.42,135.0
541.48,142.0
541.55,160.0
541.61,135.0
541.67,138.0
541.74,154.0
541.8,144.0
541.86,133.0
541.93,129.0
541.99,137.0
542.05,156.0
542.11,164.0
542.18,155.0
542.24,148.0
542.3,141.0
542.37,149.0
542.43,155.0
542.49,140.0
542.56,158.0
542.62,168.0
542.68,132.0
542.74,143.0
542.81,145.0
542.87,138.0
542.93,145.0
543.0,140.0
543.06,156.0
543.12,148.0
543.19,126.0
543.25,133.0
543.31,124.0
543.37,125.0
543.44,132.0
543.5,139.0
543.56,129.0
543.63,118.0
543.69,132.0
543.75,134.0
543.82,143.0
543.88,146.0
543.94,149.0
544.0,137.0
544.07,133.0
544.13,142.0
544.19,159.0
544.26,157.0
544.32,149.0
544.38,154.0
544.45,155.0
544.51,164.0
544.57,157.0
544.63,156.0
544.7,151.0
544.76,155.0
544.82,151.0
544.89,161.0
544.95,156.0
545.01,131.0
545.08,146.0
545.14,158.0
545.2,154.0
545.26,164.0
545.33,135.0
545.39,140.0
545.45,138.0
545.52,158.0
545.58,166.0
545.64,155.0
545.71,162.0
545.77,170.0
545.83,165.0
545.89,149.0
545.96,140.0
546.02,153.0
546.08,164.0
546.15,166.0
546.21,146.0
546.27,128.0
546.34,143.0
546.4,126.0
546.46,125.0
546.52,149.0
546.59,153.0
546.65,144.0
546.71,150.0
546.78,156.0
546.84,150.0
546.9,167.0
546.97,176.0
547.03,159.0
547.09,150.0
547.15,160.0
547.22,160.0
547.28,170.0
547.34,160.0
547.41,175.0
547.47,170.0
547.53,177.0
547.6,157.0
547.66,147.0
547.72,160.0
547.78,133.0
547.85,120.0
547.91,126.0
547.97,137.0
548.04,137.0
548.1,134.0
548.16,146.0
548.23,155.0
548.29,147.0
548.35,139.0
548.41,168.0
548.48,161.0
548.54,140.0
548.6,140.0
548.67,148.0
548.73,165.0
548.79,147.0
548.86,145.0
548.92,165.0
548.98,160.0
549.04,151.0
549.11,156.0
549.17,157.0
549.23,139.0
549.3,117.0
549.36,122.0
549.42,131.0
549.49,119.0
549.55,123.0
549.61,130.0
549.67,131.0
549.74,128.0
549.8,142.0
549.86,125.0
549.93,119.0
549.99,137.0
550.05,125.0
550.12,138.0
550.18,104.0
550.24,102.0
550.3,127.0
550.37,135.0
550.43,133.0
550.49,116.0
550.56,124.0
550.62,104.0
550.68,96.0
550.75,118.0
550.81,100.0
550.87,105.0
550.93,98.0
551.0,92.0
551.06,112.0
551.12,115.0
551.19,111.0
551.25,94.0
551.31,101.0
551.38,108.0
551.44,110.0
551.5,116.0
551.56,101.0
551.63,112.0
551.69,117.0
551.75,113.0
551.82,104.0
551.88,84.0
551.94,84.0
552.01,92.0
552.07,106.0
552.13,108.0
552.19,88.0
552.26,108.0
552.32,89.0
552.38,62.0
552.45,69.0
552.51,81.0
552.57,78.0
552.64,68.0
552.7,69.0
552.76,57.0
552.82,47.0
552.89,62.0
552.95,58.0
553.01,59.0
553.08,43.0
553.14,60.0
553.2,65.0
553.27,74.0
553.33,78.0
553.39,94.0
553.45,90.0
553.52,77.0
553.58,65.0
553.64,81.0
553.71,85.0
553.77,76.0
553.83,62.0
553.9,34.0
553.96,38.0
554.02,26.0
554.08,25.0
554.15,21.0
554.21,39.0
554.27,57.0
554.34,59.0
554.4,51.0
554.46,25.0
554.53,30.0
554.59,47.0
554.65,46.0
554.71,43.0
554.78,60.0
554.84,58.0
554.9,49.0
554.97,58.0
555.03,55.0
555.09,61.0
555.16,78.0
555.22,91.0
555.28,93.0
555.34,78.0
555.41,77.0
555.47,75.0
555.53,85.0
555.6,83.0
555.66,75.0
555.72,67.0
555.79,72.0
555.85,85.0
555.91,77.0
555.97,90.0
556.04,86.0
556.1,97.0
556.16,74.0
556.23,58.0
556.29,66.0
556.35,90.0
556.42,69.0
556.48,73.0
556.54,72.0
556.6,63.0
556.67,63.0
556.73,81.0
556.79,66.0
556.86,71.0
556.92,76.0
556.98,87.0
557.05,80.0
557.11,82.0
557.17,79.0
557.23,72.0
557.3,90.0
557.36,58.0
557.42,63.0
557.49,67.0
557.55,68.0
557.61,65.0
557.68,58.0
557.74,77.0
557.8,77.0
557.86,65.0
557.93,76.0
557.99,60.0
558.05,87.0
558.12,55.0
558.18,68.0
558.24,103.0
558.31,84.0
558.37,91.0
558.43,93.0
558.49,90.0
558.56,94.0
558.62,96.0
558.68,90.0
558.75,88.0
558.81,110.0
558.87,97.0
558.94,99.0
559.0,98.0
559.06,76.0
559.12,92.0
559.19,109.0
559.25,90.0
559.31,92.0
559.38,83.0
559.44,98.0
559.5,95.0
559.57,83.0
559.63,78.0
559.69,87.0
559.75,98.0
559.82,80.0
559.88,77.0
559.94,68.0
560.01,70.0
560.07,76.0
560.13,65.0
560.2,71.0
560.26,58.0
560.32,77.0
560.38,93.0
560.45,88.0
560.51,88.0
560.57,97.0
560.64,95.0
560.7,116.0
560.76,109.0
560.83,124.0
560.89,139.0
560.95,120.0
561.01,106.0
561.08,104.0
561.14,105.0
561.2,120.0
561.27,128.0
561.33,125.0
561.39,109.0
561.46,118.0
561.52,125.0
561.58,130.0
561.64,150.0
561.71,149.0
561.77,134.0
561.83,138.0
561.9,140.0
561.96,129.0
562.02,122.0
562.09,116.0
562.15,136.0
562.21,123.0
562.27,121.0
562.34,123.0
562.4,108.0
562.46,128.0
562.53,132.0
562.59,127.0
562.65,120.0
562.72,136.0
562.78,122.0
562.84,86.0
562.9,89.0
562.97,94.0
563.03,98.0
563.09,73.0
563.16,85.0
563.22,72.0
563.28,88.0
563.35,96.0
563.41,94.0
563.47,91.0
563.53,96.0
563.6,110.0
563.66,96.0
563.72,97.0
563.79,98.0
563.85,96.0
563.91,102.0
563.98,116.0
564.04,96.0
564.1,109.0
564.16,107.0
564.23,108.0
564.29,126.0
564.35,146.0
564.42,131.0
564.48,121.0
564.54,109.0
564.61,123.0
564.67,119.0
564.73,99.0
564.79,104.0
564.86,120.0
564.92,120.0
564.98,99.0
565.05,124.0
565.11,133.0
565.17,104.0
565.24,122.0
565.3,132.0
565.36,127.0
565.42,139.0
565.49,135.0
565.55,115.0
565.61,106.0
565.68,140.0
565.74,125.0
565.8,135.0
565.87,136.0
565.93,155.0
565.99,133.0
566.05,130.0
566.12,130.0
566.18,124.0
566.24,114.0
566.31,123.0
566.37,120.0
566.43,105.0
566.5,108.0
566.56,124.0
566.62,125.0
566.68,116.0
566.75,129.0
566.81,118.0
566.87,127.0
566.94,110.0
567.0,113.0
567.06,107.0
567.13,106.0
567.19,118.0
567.25,98.0
567.31,98.0
567.38,89.0
567.44,114.0
567.5,127.0
567.57,101.0
567.63,94.0
567.69,94.0
567.76,69.0
567.82,59.0
567.88,76.0
567.94,98.0
568.01,89.0
568.07,69.0
568.13,66.0
568.2,71.0
568.26,74.0
568.32,48.0
568.39,58.0
568.45,47.0
568.51,37.0
568.57,31.0
568.64,14.0
568.7,27.0
568.76,25.0
568.83,17.0
568.89,34.0
568.95,25.0
569.02,32.0
569.08,36.0
569.14,50.0
569.2,39.0
569.27,32.0
569.33,41.0
569.39,28.0
569.46,26.0
569.52,16.0
569.58,36.0
569.65,33.0
569.71,29.0
569.77,49.0
569.83,51.0
569.9,53.0
569.96,41.0
570.02,41.0
570.09,43.0
570.15,38.0
570.21,28.0
570.28,33.0
570.34,44.0
570.4,58.0
570.46,53.0
570.53,40.0
570.59,36.0
570.65,31.0
570.72,45.0
570.78,52.0
570.84,39.0
570.91,30.0
570.97,31.0
571.03,55.0
571.09,58.0
571.16,60.0
571.22,48.0
571.28,55.0
571.35,68.0
571.41,57.0
571.47,57.0
571.54,61.0
571.6,52.0
571.66,66.0
571.72,54.0
571.79,61.0
571.85,69.0
571.91,54.0
571.98,55.0
572.04,62.0
572.1,59.0
572.17,65.0
572.23,58.0
572.29,54.0
572.35,55.0
572.42,66.0
572.48,90.0
572.54,52.0
572.61,80.0
572.67,75.0
572.73,73.0
572.8,61.0
572.86,56.0
572.92,65.0
572.98,79.0
573.05,82.0
573.11,81.0
573.17,77.0
573.24,103.0
573.3,87.0
573.36,84.0
573.43,89.0
573.49,78.0
573.55,84.0
573.61,93.0
573.68,82.0
573.74,89.0
573.8,71.0
573.87,75.0
573.93,62.0
573.99,61.0
574.06,69.0
574.12,70.0
574.18,51.0
574.24,47.0
574.31,69.0
574.37,71.0
574.43,69.0
574.5,87.0
574.56,85.0
574.62,98.0
574.69,105.0
574.75,89.0
574.81,91.0
574.87,99.0
574.94,102.0
575.0,92.0
575.06,104.0
575.13,88.0
575.19,87.0
575.25,59.0
575.32,69.0
575.38,76.0
575.44,102.0
575.5,76.0
575.57,73.0
575.63,72.0
575.69,87.0
575.76,92.0
575.82,80.0
575.88,48.0
575.95,73.0
576.01,80.0
576.07,80.0
576.13,80.0
576.2,82.0
576.26,106.0
576.32,85.0
576.39,86.0
576.45,99.0
576.51,98.0
576.58,84.0
576.64,87.0
576.7,77.0
576.76,88.0
576.83,84.0
576.89,107.0
576.95,101.0
577.02,93.0
577.08,105.0
577.14,103.0
577.21,96.0
577.27,76.0
577.33,88.0
577.39,99.0
577.46,113.0
577.52,113.0
577.58,114.0
577.65,101.0
577.71,116.0
577.77,120.0
577.84,107.0
577.9,93.0
577.96,96.0
578.02,129.0
578.09,128.0
578.15,151.0
578.21,113.0
578.28,114.0
578.34,123.0
578.4,135.0
578.47,139.0
578.53,137.0
578.59,137.0
578.65,147.0
578.72,150.0
578.78,146.0
578.84,155.0
578.91,156.0
578.97,138.0
579.03,147.0
579.1,159.0
579.16,150.0
579.22,157.0
579.28,155.0
579.35,151.0
579.41,163.0
579.47,152.0
579.54,138.0
579.6,136.0
579.66,152.0
579.73,140.0
579.79,138.0
579.85,142.0
579.91,160.0
579.98,151.0
580.04,162.0
580.1,150.0
580.17,156.0
580.23,162.0
580.29,154.0
580.36,154.0
580.42,145.0
580.48,129.0
580.54,146.0
580.61,170.0
580.67,153.0
580.73,157.0
580.8,164.0
580.86,165.0
580.92,156.0
580.99,133.0
581.05,135.0
581.11,136.0
581.17,149.0
581.24,141.0
581.3,155.0
581.36,167.0
581.43,162.0
581.49,182.0
581.55,177.0
581.62,188.0
581.68,196.0
581.74,195.0
581.8,197.0
581.87,195.0
581.93,190.0
581.99,173.0
582.06,179.0
582.12,211.0
582.18,220.0
582.25,225.0
582.31,205.0
582.37,209.0
582.43,203.0
582.5,199.0
582.56,194.0
582.62,205.0
582.69,213.0
582.75,190.0
582.81,226.0
582.88,210.0
582.94,202.0
583.0,193.0
583.06,194.0
583.13,184.0
583.19,192.0
583.25,197.0
583.32,196.0
583.38,190.0
583.44,193.0
583.51,180.0
583.57,194.0
583.63,198.0
583.69,211.0
583.76,207.0
583.82,211.0
583.88,213.0
583.95,194.0
584.01,182.0
584.07,187.0
584.14,187.0
584.2,197.0
584.26,196.0
584.32,181.0
584.39,165.0
584.45,159.0
584.51,179.0
584.58,169.0
584.64,169.0
584.7,187.0
584.77,175.0
584.83,164.0
584.89,158.0
584.95,171.0
585.02,165.0
585.08,165.0
585.14,146.0
585.21,149.0
585.27,152.0
585.33,159.0
585.4,157.0
585.46,159.0
585.52,162.0
585.58,159.0
585.65,162.0
585.71,171.0
585.77,155.0
585.84,167.0
585.9,151.0
585.96,142.0
586.03,140.0
586.09,145.0
586.15,139.0
586.21,126.0
586.28,130.0
586.34,140.0
586.4,126.0
586.47,114.0
586.53,131.0
586.59,135.0
586.66,126.0
586.72,123.0
586.78,109.0
586.84,129.0
586.91,138.0
586.97,141.0
587.03,137.0
587.1,118.0
587.16,115.0
587.22,97.0
587.29,119.0
587.35,109.0
587.41,110.0
587.47,116.0
587.54,105.0
587.6,111.0
587.66,114.0
587.73,123.0
587.79,98.0
587.85,97.0
587.92,89.0
587.98,85.0
588.04,96.0
588.1,98.0
588.17,105.0
588.23,91.0
588.29,93.0
588.36,96.0
588.42,118.0
588.48,127.0
588.55,114.0
588.61,90.0
588.67,73.0
588.73,88.0
588.8,68.0
588.86,81.0
588.92,90.0
588.99,90.0
589.05,87.0
589.11,76.0
589.18,86.0
589.24,70.0
589.3,84.0
589.36,102.0
589.43,108.0
589.49,99.0
589.55,95.0
589.62,99.0
589.68,125.0
589.74,126.0
589.81,120.0
589.87,88.0
589.93,87.0
589.99,107.0
590.06,102.0
590.12,109.0
590.18,122.0
590.25,87.0
590.31,69.0
590.37,80.0
590.44,83.0
590.5,69.0
590.56,64.0
590.62,49.0
590.69,43.0
590.75,60.0
590.81,58.0
590.88,54.0
590.94,44.0
591.0,53.0
591.07,69.0
591.13,53.0
591.19,77.0
591.25,72.0
591.32,65.0
591.38,68.0
591.44,73.0
591.51,68.0
591.57,72.0
591.63,64.0
591.7,65.0
591.76,44.0
591.82,41.0
591.88,57.0
591.95,58.0
592.01,82.0
592.07,70.0
592.14,52.0
592.2,66.0
592.26,68.0
592.33,70.0
592.39,45.0
592.45,47.0
592.51,47.0
592.58,41.0
592.64,44.0
592.7,51.0
592.77,40.0
592.83,56.0
592.89,46.0
592.96,25.0
593.02,33.0
593.08,27.0
593.14,41.0
593.21,38.0
593.27,32.0
593.33,35.0
593.4,39.0
593.46,40.0
593.52,22.0
593.59,17.0
593.65,21.0
593.71,17.0
593.77,27.0
593.84,25.0
593.9,32.0
593.96,33.0
594.03,43.0
594.09,51.0
594.15,43.0
594.22,41.0
594.28,40.0
594.34,41.0
594.4,36.0
594.47,21.0
594.53,25.0
594.59,28.0
594.66,21.0
594.72,35.0
594.78,39.0
594.85,53.0
594.91,40.0
594.97,43.0
595.03,34.0
595.1,13.0
595.16,31.0
595.22,32.0
595.29,17.0
595.35,34.0
595.41,27.0
595.48,45.0
595.54,52.0
595.6,48.0
595.66,68.0
595.73,69.0
595.79,65.0
595.85,65.0
595.92,70.0
595.98,72.0
596.04,62.0
596.11,85.0
596.17,102.0
596.23,85.0
596.29,96.0
596.36,79.0
596.42,69.0
596.48,56.0
596.55,68.0
596.61,89.0
596.67,65.0
596.74,66.0
596.8,57.0
596.86,91.0
596.92,77.0
596.99,68.0
597.05,74.0
597.11,71.0
597.18,68.0
597.24,64.0
597.3,77.0
597.37,74.0
597.43,66.0
597.49,65.0
597.55,47.0
597.62,73.0
597.68,76.0
597.74,86.0
597.81,101.0
597.87,114.0
597.93,134.0
598.0,105.0
598.06,84.0
598.12,88.0
598.18,124.0
598.25,96.0
598.31,105.0
598.37,107.0
598.44,101.0
598.5,99.0
598.56,108.0
598.63,113.0
598.69,113.0
598.75,122.0
598.81,124.0
598.88,140.0
598.94,137.0
599.0,139.0
599.07,118.0
599.13,108.0
599.19,113.0
599.26,108.0
599.32,125.0
599.38,152.0
599.44,148.0
599.51,143.0
599.57,154.0
599.63,151.0
599.7,163.0
599.76,162.0
599.82,157.0
599.89,135.0
599.95,147.0
600.01,156.0
600.07,137.0
600.14,127.0
600.2,125.0
600.26,140.0
600.33,118.0
600.39,135.0
600.45,142.0
600.52,156.0
600.58,161.0
600.64,146.0
600.7,148.0
600.77,150.0
600.83,154.0
600.89,140.0
600.96,122.0
601.02,135.0
601.08,134.0
601.15,135.0
601.21,145.0
601.27,126.0
601.33,153.0
601.4,137.0
601.46,137.0
601.52,140.0
601.59,134.0
601.65,131.0
601.71,142.0
601.78,152.0
601.84,137.0
601.9,140.0
601.96,149.0
602.03,130.0
602.09,158.0
602.15,146.0
602.22,158.0
602.28,148.0
602.34,136.0
602.41,161.0
602.47,157.0
602.53,153.0
602.59,150.0
602.66,175.0
602.72,175.0
602.78,162.0
602.85,164.0
602.91,184.0
602.97,177.0
603.04,158.0
603.1,156.0
603.16,168.0
603.22,166.0
603.29,158.0
603.35,157.0
603.41,173.0
603.48,159.0
603.54,147.0
603.6,163.0
603.67,152.0
603.73,159.0
603.79,142.0
603.85,167.0
603.92,171.0
603.98,146.0
604.04,162.0
604.11,172.0
604.17,153.0
604.23,180.0
604.3,179.0
604.36,175.0
604.42,193.0
604.48,169.0
604.55,188.0
604.61,174.0
604.67,159.0
604.74,147.0
604.8,147.0
604.86,170.0
604.93,165.0
604.99,152.0
605.05,162.0
605.11,174.0
605.18,149.0
605.24,145.0
605.3,146.0
605.37,148.0
605.43,156.0
605.49,144.0
605.56,160.0
605.62,154.0
605.68,160.0
605.74,146.0
605.81,144.0
605.87,135.0
605.93,144.0
606.0,156.0
606.06,151.0
606.12,136.0
606.19,159.0
606.25,170.0
606.31,154.0
606.37,165.0
606.44,162.0
606.5,161.0
606.56,173.0
606.63,162.0
606.69,149.0
606.75,147.0
606.82,162.0
606.88,153.0
606.94,155.0
607.0,153.0
607.07,135.0
607.13,138.0
607.19,153.0
607.26,138.0
607.32,149.0
607.38,146.0
607.45,141.0
607.51,131.0
607.57,110.0
607.63,124.0
607.7,102.0
607.76,97.0
607.82,106.0
607.89,113.0
607.95,123.0
608.01,104.0
608.08,103.0
608.14,103.0
608.2,122.0
608.26,101.0
608.33,111.0
608.39,107.0
608.45,96.0
608.52,109.0
608.58,86.0
608.64,84.0
608.71,93.0
608.77,94.0
608.83,92.0
608.89,104.0
608.96,99.0
609.02,102.0
609.08,120.0
609.15,109.0
609.21,114.0
609.27,106.0
609.34,99.0
609.4,83.0
609.46,87.0
609.52,78.0
609.59,55.0
609.65,64.0
609.71,69.0
609.78,70.0
609.84,68.0
609.9,49.0
609.97,35.0
610.03,39.0
610.09,49.0
610.15,54.0
610.22,65.0
610.28,62.0
610.34,66.0
610.41,40.0
610.47,57.0
610.53,58.0
610.6,66.0
610.66,61.0
610.72,62.0
610.78,68.0
610.85,43.0
610.91,62.0
610.97,74.0
611.04,51.0
611.1,58.0
611.16,76.0
611.23,74.0
611.29,68.0
611.35,57.0
611.41,71.0
611.48,66.0
611.54,58.0
611.6,84.0
611.67,82.0
611.73,76.0
611.79,84.0
611.86,90.0
611.92,78.0
611.98,61.0
612.04,68.0
612.11,54.0
612.17,65.0
612.23,42.0
612.3,44.0
612.36,79.0
612.42,64.0
612.49,71.0
612.55,60.0
612.61,90.0
612.67,77.0
612.74,54.0
612.8,36.0
612.86,44.0
612.93,60.0
612.99,61.0
613.05,51.0
613.12,62.0
613.18,60.0
613.24,49.0
613.3,55.0
613.37,36.0
613.43,40.0
613.49,43.0
613.56,40.0
613.62,50.0
613.68,25.0
613.75,33.0
613.81,42.0
613.87,40.0
613.93,23.0
614.0,14.0
614.06,20.0
614.12,7.0
614.19,0.0
614.25,6.0
614.31,19.0
614.38,29.0
614.44,18.0
614.5,16.0
614.56,18.0
614.63,24.0
614.69,29.0
614.75,12.0
614.82,6.0
614.88,32.0
614.94,39.0
615.01,22.0
615.07,18.0
615.13,32.0
615.19,40.0
615.26,21.0
615.32,14.0
615.38,34.0
615.45,27.0
615.51,17.0
615.57,-6.0
615.64,5.0
615.7,0.0
615.76,13.0
615.82,51.0
615.89,26.0
615.95,38.0
616.01,46.0
616.08,52.0
616.14,44.0
616.2,50.0
616.27,53.0
616.33,36.0
616.39,49.0
616.45,59.0
616.52,50.0
616.58,24.0
616.64,42.0
616.71,57.0
616.77,37.0
616.83,39.0
616.9,40.0
616.96,17.0
617.02,32.0
617.08,43.0
617.15,64.0
617.21,55.0
617.27,40.0
617.34,62.0
617.4,66.0
617.46,39.0
617.53,30.0
617.59,43.0
617.65,39.0
617.71,72.0
617.78,66.0
617.84,54.0
617.9,56.0
617.97,59.0
618.03,38.0
618.09,62.0
618.16,42.0
618.22,52.0
618.28,35.0
618.34,29.0
618.41,56.0
618.47,39.0
618.53,28.0
618.6,11.0
618.66,25.0
618.72,26.0
618.79,25.0
618.85,41.0
618.91,35.0
618.97,18.0
619.04,33.0
619.1,0.0
619.16,2.0
619.23,20.0
619.29,-1.0
619.35,28.0
619.42,31.0
619.48,18.0
619.54,25.0
619.6,27.0
619.67,32.0
619.73,35.0
619.79,39.0
619.86,64.0
619.92,64.0
619.98,58.0
620.05,61.0
620.11,77.0
620.17,71.0
620.23,83.0
620.3,74.0
620.36,67.0
620.42,87.0
620.49,93.0
620.55,75.0
620.61,70.0
620.68,82.0
620.74,61.0
620.8,81.0
620.86,67.0
620.93,63.0
620.99,63.0
621.05,65.0
621.12,67.0
621.18,57.0
621.24,55.0
621.31,71.0
621.37,85.0
621.43,67.0
621.49,66.0
621.56,58.0
621.62,73.0
621.68,100.0
621.75,98.0
621.81,100.0
621.87,93.0
621.94,102.0
622.0,108.0
622.06,117.0
622.12,112.0
622.19,102.0
622.25,115.0
622.31,116.0
622.38,110.0
622.44,112.0
622.5,142.0
622.57,133.0
622.63,135.0
622.69,150.0
622.75,134.0
622.82,134.0
622.88,127.0
622.94,145.0
623.01,129.0
623.07,162.0
623.13,148.0
623.2,148.0
623.26,163.0
623.32,161.0
623.38,159.0
623.45,149.0
623.51,160.0
623.57,159.0
623.64,170.0
623.7,151.0
623.76,142.0
623.83,174.0
623.89,159.0
623.95,163.0
624.01,143.0
624.08,154.0
624.14,150.0
624.2,154.0
624.27,148.0
624.33,149.0
624.39,152.0
624.46,143.0
624.52,156.0
624.58,150.0
624.64,152.0
624.71,161.0
624.77,183.0
624.83,186.0
624.9,173.0
624.96,161.0
625.02,184.0
625.09,183.0
625.15,173.0
625.21,171.0
625.27,144.0
625.34,150.0
625.4,134.0
625.46,142.0
625.53,141.0
625.59,126.0
625.65,129.0
625.72,141.0
625.78,141.0
625.84,142.0
625.9,135.0
625.97,137.0
626.03,134.0
626.09,148.0
626.16,157.0
626.22,144.0
626.28,146.0
626.35,147.0
626.41,158.0
626.47,156.0
626.53,174.0
626.6,161.0
626.66,157.0
626.72,168.0
626.79,178.0
626.85,165.0
626.91,162.0
626.98,180.0
627.04,175.0
627.1,135.0
627.16,152.0
627.23,153.0
627.29,155.0
627.35,152.0
627.42,165.0
627.48,162.0
627.54,153.0
627.61,157.0
627.67,149.0
627.73,143.0
627.79,137.0
627.86,133.0
627.92,158.0
627.98,141.0
628.05,135.0
628.11,150.0
628.17,145.0
628.24,131.0
628.3,152.0
628.36,140.0
628.42,130.0
628.49,137.0
628.55,124.0
628.61,147.0
628.68,125.0
628.74,143.0
628.8,132.0
628.87,145.0
628.93,149.0
628.99,133.0
629.05,127.0
629.12,130.0
629.18,127.0
629.24,113.0
629.31,110.0
629.37,104.0
629.43,102.0
629.5,85.0
629.56,99.0
629.62,105.0
629.68,97.0
629.75,127.0
629.81,121.0
629.87,119.0
629.94,120.0
630.0,115.0
630.06,146.0
630.13,149.0
630.19,119.0
630.25,121.0
630.31,108.0
630.38,141.0
630.44,145.0
630.5,124.0
630.57,151.0
630.63,137.0
630.69,140.0
630.76,134.0
630.82,140.0
630.88,133.0
630.94,123.0
631.01,113.0
631.07,96.0
631.13,93.0
631.2,104.0
631.26,86.0
631.32,105.0
631.39,108.0
631.45,124.0
631.51,130.0
631.57,141.0
631.64,129.0
631.7,120.0
631.76,118.0
631.83,123.0
631.89,148.0
631.95,149.0
632.02,136.0
632.08,154.0
632.14,146.0
632.2,154.0
632.27,151.0
632.33,123.0
632.39,126.0
632.46,136.0
632.52,149.0
632.58,123.0
632.65,132.0
632.71,148.0
632.77,132.0
632.83,137.0
632.9,145.0
632.96,137.0
633.02,140.0
633.09,128.0
633.15,121.0
633.21,120.0
633.28,132.0
633.34,122.0
633.4,118.0
633.46,123.0
633.53,111.0
633.59,97.0
633.65,104.0
633.72,115.0
633.78,115.0
633.84,118.0
633.91,134.0
633.97,119.0
634.03,103.0
634.09,139.0
634.16,126.0
634.22,119.0
634.28,108.0
634.35,104.0
634.41,126.0
634.47,100.0
634.54,111.0
634.6,100.0
634.66,104.0
634.72,89.0
634.79,82.0
634.85,80.0
634.91,79.0
634.98,81.0
635.04,80.0
635.1,60.0
635.17,73.0
635.23,76.0
635.29,69.0
635.35,76.0
635.42,51.0
635.48,57.0
635.54,44.0
635.61,57.0
635.67,58.0
635.73,67.0
635.8,65.0
635.86,54.0
635.92,56.0
635.98,74.0
636.05,86.0
636.11,65.0
636.17,66.0
636.24,39.0
636.3,60.0
636.36,36.0
636.43,31.0
636.49,21.0
636.55,42.0
636.61,48.0
636.68,33.0
636.74,36.0
636.8,45.0
636.87,37.0
636.93,46.0
636.99,59.0
637.06,28.0
637.12,27.0
637.18,20.0
637.24,20.0
637.31,31.0
637.37,20.0
637.43,34.0
637.5,25.0
637.56,40.0
637.62,33.0
637.69,38.0
637.75,44.0
637.81,43.0
637.87,46.0
637.94,36.0
638.0,41.0
638.06,32.0
638.13,31.0
638.19,21.0
638.25,30.0
638.32,29.0
638.38,34.0
638.44,36.0
638.5,31.0
638.57,25.0
638.63,32.0
638.69,48.0
638.76,48.0
638.82,59.0
638.88,67.0
638.95,70.0
639.01,69.0
639.07,58.0
639.13,66.0
639.2,78.0
639.26,67.0
639.32,67.0
639.39,75.0
639.45,56.0
639.51,59.0
639.58,60.0
639.64,45.0
639.7,43.0
639.76,69.0
639.83,64.0
639.89,60.0
639.95,61.0
640.02,64.0
640.08,70.0
640.14,58.0
640.21,60.0
640.27,70.0
640.33,62.0
640.39,62.0
640.46,77.0
640.52,97.0
640.58,72.0
640.65,69.0
640.71,55.0
640.77,66.0
640.84,83.0
640.9,61.0
640.96,67.0
641.02,67.0
641.09,75.0
641.15,75.0
641.21,82.0
641.28,72.0
641.34,72.0
641.4,88.0
641.47,66.0
641.53,92.0
641.59,90.0
641.65,107.0
641.72,101.0
641.78,98.0
641.84,88.0
641.91,104.0
641.97,97.0
642.03,94.0
642.1,68.0
642.16,91.0
642.22,93.0
642.28,101.0
642.35,99.0
642.41,112.0
642.47,102.0
642.54,90.0
642.6,100.0
642.66,98.0
642.73,99.0
642.79,86.0
642.85,93.0
642.91,93.0
642.98,100.0
643.04,112.0
643.1,127.0
643.17,141.0
643.23,116.0
643.29,94.0
643.36,97.0
643.42,95.0
643.48,96.0
643.54,100.0
643.61,110.0
643.67,118.0
643.73,112.0
643.8,119.0
643.86,121.0
643.92,112.0
643.99,100.0
644.05,105.0
644.11,127.0
644.17,120.0
644.24,118.0
644.3,100.0
644.36,103.0
644.43,113.0
644.49,123.0
644.55,133.0
644.62,129.0
644.68,119.0
644.74,122.0
644.8,120.0
644.87,115.0
644.93,128.0
644.99,126.0
645.06,135.0
645.12,119.0
645.18,131.0
645.25,137.0
645.31,143.0
645.37,145.0
645.43,137.0
645.5,143.0
645.56,146.0
645.62,156.0
645.69,146.0
645.75,137.0
645.81,132.0
645.88,135.0
645.94,101.0
646.0,121.0
646.06,130.0
646.13,137.0
646.19,122.0
646.25,143.0
646.32,141.0
646.38,115.0
646.44,118.0
646.51,116.0
646.57,119.0
646.63,121.0
646.69,101.0
646.76,100.0
646.82,119.0
646.88,103.0
646.95,112.0
647.01,102.0
647.07,106.0
647.14,101.0
647.2,108.0
647.26,124.0
647.32,126.0
647.39,134.0
647.45,128.0
647.51,133.0
647.58,130.0
647.64,119.0
647.7,140.0
647.77,138.0
647.83,155.0
647.89,130.0
647.95,119.0
648.02,120.0
648.08,119.0
648.14,125.0
648.21,128.0
648.27,134.0
648.33,135.0
648.4,141.0
648.46,143.0
648.52,148.0
648.58,150.0
648.65,154.0
648.71,159.0
648.77,162.0
648.84,135.0
648.9,127.0
648.96,144.0
649.03,148.0
649.09,151.0
649.15,144.0
649.21,161.0
649.28,170.0
649.34,169.0
649.4,153.0
649.47,167.0
649.53,183.0
649.59,172.0
649.66,167.0
649.72,150.0
649.78,149.0
649.84,156.0
649.91,140.0
649.97,163.0
650.03,165.0
650.1,152.0
650.16,167.0
650.22,166.0
650.29,155.0
650.35,145.0
650.41,151.0
650.47,178.0
650.54,181.0
650.6,165.0
650.66,170.0
650.73,149.0
650.79,164.0
650.85,165.0
650.92,143.0
650.98,126.0
651.04,129.0
651.1,121.0
651.17,115.0
651.23,122.0
651.29,110.0
651.36,127.0
651.42,122.0
651.48,130.0
651.55,133.0
651.61,114.0
651.67,107.0
651.73,105.0
651.8,112.0
651.86,118.0
651.92,97.0
651.99,110.0
652.05,98.0
652.11,102.0
652.18,111.0
652.24,110.0
652.3,116.0
652.36,119.0
652.43,135.0
652.49,116.0
652.55,121.0
652.62,107.0
652.68,118.0
652.74,112.0
652.81,118.0
652.87,109.0
652.93,128.0
652.99,104.0
653.06,110.0
653.12,126.0
653.18,128.0
653.25,110.0
653.31,114.0
653.37,121.0
653.44,118.0
653.5,117.0
653.56,112.0
653.62,103.0
653.69,119.0
653.75,100.0
653.81,99.0
653.88,97.0
653.94,87.0
654.0,80.0
654.07,101.0
654.13,105.0
654.19,100.0
654.25,95.0
654.32,78.0
654.38,92.0
654.44,69.0
654.51,70.0
654.57,56.0
654.63,64.0
654.7,71.0
654.76,61.0
654.82,60.0
654.88,74.0
654.95,42.0
655.01,38.0
655.07,43.0
655.14,52.0
655.2,27.0
655.26,28.0
655.33,52.0
655.39,23.0
655.45,42.0
655.51,23.0
655.58,-1.0
655.64,6.0
655.7,24.0
655.77,28.0
655.83,29.0
655.89,26.0
655.96,20.0
656.02,19.0
656.08,33.0
656.14,30.0
656.21,11.0
656.27,36.0
656.33,28.0
656.4,41.0
656.46,27.0
656.52,46.0
656.59,55.0
656.65,45.0
656.71,63.0
656.77,41.0
656.84,36.0
656.9,46.0
656.96,53.0
657.03,66.0
657.09,75.0
657.15,52.0
657.22,67.0
657.28,64.0
657.34,58.0
657.4,78.0
657.47,67.0
657.53,77.0
657.59,92.0
657.66,79.0
657.72,68.0
657.78,60.0
657.85,63.0
657.91,69.0
657.97,58.0
658.03,74.0
658.1,84.0
658.16,67.0
658.22,41.0
658.29,69.0
658.35,62.0
658.41,82.0
658.48,74.0
658.54,72.0
658.6,89.0
658.66,81.0
658.73,67.0
658.79,82.0
658.85,75.0
658.92,79.0
658.98,73.0
659.04,84.0
659.11,86.0
659.17,85.0
659.23,91.0
659.29,79.0
659.36,58.0
659.42,76.0
659.48,84.0
659.55,94.0
659.61,93.0
659.67,88.0
659.74,88.0
659.8,93.0
659.86,66.0
659.92,85.0
659.99,96.0
660.05,81.0
660.11,85.0
660.18,69.0
660.24,93.0
660.3,79.0
660.37,92.0
660.43,92.0
660.49,99.0
660.55,85.0
660.62,107.0
660.68,100.0
660.74,105.0
660.81,98.0
660.87,90.0
660.93,99.0
661.0,93.0
661.06,91.0
661.12,77.0
661.18,75.0
661.25,91.0
661.31,86.0
661.37,85.0
661.44,80.0
661.5,72.0
661.56,81.0
661.63,84.0
661.69,91.0
661.75,80.0
661.81,74.0
661.88,103.0
661.94,73.0
662.0,99.0
662.07,93.0
662.13,97.0
662.19,102.0
662.26,131.0
662.32,141.0
662.38,138.0
662.44,123.0
662.51,117.0
662.57,130.0
662.63,99.0
662.7,115.0
662.76,113.0
662.82,116.0
662.89,114.0
662.95,116.0
663.01,132.0
663.07,132.0
663.14,129.0
663.2,133.0
663.26,127.0
663.33,138.0
663.39,136.0
663.45,129.0
663.52,158.0
663.58,129.0
663.64,143.0
663.7,144.0
663.77,127.0
663.83,123.0
663.89,139.0
663.96,136.0
664.02,133.0
664.08,136.0
664.15,115.0
664.21,137.0
664.27,137.0
664.33,135.0
664.4,143.0
664.46,127.0
664.52,122.0
664.59,125.0
664.65,140.0
664.71,143.0
664.78,155.0
664.84,158.0
664.9,162.0
664.96,165.0
665.03,157.0
665.09,162.0
665.15,174.0
665.22,180.0
665.28,166.0
665.34,175.0
665.41,149.0
665.47,151.0
665.53,168.0
665.59,165.0
665.66,165.0
665.72,166.0
665.78,163.0
665.85,146.0
665.91,147.0
665.97,157.0
666.04,175.0
666.1,141.0
666.16,144.0
666.22,157.0
666.29,156.0
666.35,167.0
666.41,169.0
666.48,153.0
666.54,151.0
666.6,151.0
666.67,166.0
666.73,182.0
666.79,174.0
666.85,155.0
666.92,174.0
666.98,155.0
667.04,155.0
667.11,162.0
667.17,160.0
667.23,160.0
667.3,183.0
667.36,176.0
667.42,173.0
667.48,176.0
667.55,149.0
667.61,174.0
667.67,175.0
667.74,171.0
667.8,183.0
667.86,197.0
667.93,165.0
667.99,142.0
668.05,167.0
668.11,155.0
668.18,149.0
668.24,160.0
668.3,155.0
668.37,135.0
668.43,158.0
668.49,138.0
668.56,142.0
668.62,153.0
668.68,157.0
668.74,140.0
668.81,134.0
668.87,162.0
668.93,135.0
669.0,134.0
669.06,137.0
669.12,144.0
669.19,137.0
669.25,125.0
669.31,104.0
669.37,91.0
669.44,99.0
669.5,94.0
669.56,111.0
669.63,104.0
669.69,106.0
669.75,105.0
669.82,107.0
669.88,132.0
669.94,124.0
670.0,114.0
670.07,131.0
670.13,121.0
670.19,127.0
670.26,125.0
670.32,113.0
670.38,113.0
670.45,119.0
670.51,97.0
670.57,81.0
670.63,85.0
670.7,99.0
670.76,106.0
670.82,128.0
670.89,106.0
670.95,106.0
671.01,88.0
671.08,89.0
671.14,94.0
671.2,89.0
671.26,83.0
671.33,69.0
671.39,91.0
671.45,75.0
671.52,60.0
671.58,66.0
671.64,60.0
671.71,42.0
671.77,34.0
671.83,33.0
671.89,36.0
671.96,38.0
672.02,33.0
672.08,51.0
672.15,45.0
672.21,18.0
672.27,28.0
672.34,30.0
672.4,21.0
672.46,42.0
672.52,17.0
672.59,6.0
672.65,29.0
672.71,0.0
672.78,4.0
672.84,19.0
672.9,10.0
672.97,-6.0
673.03,-7.0
673.09,-5.0
673.15,-12.0
673.22,-17.0
673.28,-10.0
673.34,-31.0
673.41,-9.0
673.47,-10.0
673.53,-11.0
673.6,-17.0
673.66,5.0
673.72,17.0
673.78,8.0
673.85,12.0
673.91,3.0
673.97,14.0
674.04,18.0
674.1,14.0
674.16,18.0
674.23,33.0
674.29,26.0
674.35,11.0
674.41,17.0
674.48,26.0
674.54,0.0
674.6,-12.0
674.67,4.0
674.73,24.0
674.79,4.0
674.86,3.0
674.92,2.0
674.98,-26.0
675.04,-23.0
675.11,-22.0
675.17,-16.0
675.23,-8.0
675.3,-15.0
675.36,-4.0
675.42,-1.0
675.49,8.0
675.55,-1.0
675.61,17.0
675.67,-1.0
675.74,-7.0
675.8,30.0
675.86,26.0
675.93,23.0
675.99,15.0
676.05,24.0
676.12,30.0
676.18,34.0
676.24,51.0
676.3,48.0
676.37,38.0
676.43,33.0
676.49,47.0
676.56,41.0
676.62,28.0
676.68,18.0
676.75,33.0
676.81,29.0
676.87,12.0
676.93,31.0
677.0,26.0
677.06,26.0
677.12,40.0
677.19,37.0
677.25,29.0
677.31,41.0
677.38,34.0
677.44,38.0
677.5,32.0
677.56,28.0
677.63,22.0
677.69,20.0
677.75,23.0
677.82,41.0
677.88,41.0
677.94,43.0
678.01,46.0
678.07,46.0
678.13,50.0
678.19,45.0
678.26,61.0
678.32,63.0
678.38,68.0
678.45,56.0
678.51,52.0
678.57,42.0
678.64,39.0
678.7,35.0
678.76,45.0
678.82,41.0
678.89,52.0
678.95,48.0
679.01,54.0
679.08,44.0
679.14,44.0
679.2,60.0
679.27,56.0
679.33,36.0
679.39,31.0
679.45,44.0
679.52,55.0
679.58,36.0
679.64,36.0
679.71,54.0
679.77,49.0
679.83,28.0
679.9,43.0
679.96,48.0
680.02,48.0
680.08,52.0
680.15,47.0
680.21,54.0
680.27,49.0
680.34,36.0
680.4,40.0
680.46,42.0
680.53,43.0
680.59,37.0
680.65,51.0
680.71,53.0
680.78,49.0
680.84,24.0
680.9,32.0
680.97,43.0
681.03,44.0
681.09,48.0
681.16,63.0
681.22,70.0
681.28,53.0
681.34,62.0
681.41,42.0
681.47,45.0
681.53,61.0
681.6,47.0
681.66,61.0
681.72,61.0
681.79,70.0
681.85,37.0
681.91,55.0
681.97,60.0
682.04,48.0
682.1,47.0
682.16,46.0
682.23,64.0
682.29,60.0
682.35,72.0
682.42,78.0
682.48,85.0
682.54,86.0
682.6,106.0
682.67,110.0
682.73,93.0
682.79,104.0
682.86,90.0
682.92,102.0
682.98,109.0
683.05,105.0
683.11,119.0
683.17,137.0
683.23,123.0
683.3,149.0
683.36,151.0
683.42,127.0
683.49,129.0
683.55,119.0
683.61,131.0
683.68,147.0
683.74,180.0
683.8,179.0
683.86,177.0
683.93,192.0
683.99,197.0
684.05,195.0
684.12,205.0
684.18,189.0
684.24,182.0
684.31,182.0
684.37,188.0
684.43,202.0
684.49,195.0
684.56,191.0
684.62,176.0
684.68,189.0
684.75,177.0
684.81,174.0
684.87,190.0
684.94,186.0
685.0,174.0
685.06,200.0
685.12,208.0
685.19,221.0
685.25,210.0
685.31,207.0
685.38,218.0
685.44,190.0
685.5,183.0
685.57,185.0
685.63,192.0
685.69,202.0
685.75,186.0
685.82,195.0
685.88,206.0
685.94,209.0
686.01,194.0
686.07,198.0
686.13,205.0
686.2,193.0
686.26,212.0
686.32,191.0
686.38,183.0
686.45,208.0
686.51,201.0
686.57,201.0
686.64,199.0
686.7,205.0
686.76,205.0
686.83,196.0
686.89,191.0
686.95,212.0
687.01,211.0
687.08,198.0
687.14,181.0
687.2,180.0
687.27,180.0
687.33,200.0
687.39,199.0
687.46,207.0
687.52,196.0
687.58,198.0
687.64,202.0
687.71,220.0
687.77,221.0
687.83,222.0
687.9,213.0
687.96,208.0
688.02,209.0
688.09,200.0
688.15,205.0
688.21,207.0
688.27,207.0
688.34,205.0
688.4,205.0
688.46,199.0
688.53,191.0
688.59,185.0
688.65,192.0
688.72,172.0
688.78,187.0
688.84,190.0
688.9,180.0
688.97,160.0
689.03,178.0
689.09,184.0
689.16,169.0
689.22,173.0
689.28,174.0
689.35,175.0
689.41,190.0
689.47,203.0
689.53,188.0
689.6,183.0
689.66,190.0
689.72,199.0
689.79,188.0
689.85,158.0
689.91,187.0
689.98,190.0
690.04,170.0
690.1,179.0
690.16,166.0
690.23,169.0
690.29,167.0
690.35,163.0
690.42,174.0
690.48,139.0
690.54,177.0
690.61,168.0
690.67,170.0
690.73,178.0
690.79,162.0
690.86,165.0
690.92,148.0
690.98,167.0
691.05,165.0
691.11,157.0
691.17,152.0
691.24,149.0
691.3,142.0
691.36,133.0
691.42,147.0
691.49,136.0
691.55,148.0
691.61,150.0
691.68,160.0
691.74,151.0
691.8,160.0
691.87,152.0
691.93,171.0
691.99,158.0
692.05,152.0
692.12,151.0
692.18,159.0
692.24,149.0
692.31,141.0
692.37,154.0
692.43,136.0
692.5,131.0
692.56,139.0
692.62,125.0
692.68,128.0
692.75,124.0
692.81,148.0
692.87,160.0
692.94,145.0
693.0,156.0
693.06,145.0
693.13,147.0
693.19,162.0
693.25,174.0
693.31,157.0
693.38,155.0
693.44,150.0
693.5,147.0
693.57,157.0
693.63,137.0
693.69,137.0
693.76,152.0
693.82,153.0
693.88,153.0
693.94,143.0
694.01,133.0
694.07,146.0
694.13,150.0
694.2,132.0
694.26,124.0
694.32,131.0
694.39,139.0
694.45,136.0
694.51,148.0
694.57,127.0
694.64,128.0
694.7,135.0
694.76,141.0
694.83,151.0
694.89,147.0
694.95,144.0
695.02,140.0
695.08,149.0
695.14,134.0
695.2,111.0
695.27,116.0
695.33,134.0
695.39,136.0
695.46,133.0
695.52,113.0
695.58,103.0
695.65,113.0
695.71,96.0
695.77,104.0
695.83,108.0
695.9,103.0
695.96,103.0
696.02,109.0
696.09,88.0
696.15,82.0
696.21,100.0
696.28,73.0
696.34,88.0
696.4,81.0
696.46,67.0
696.53,78.0
696.59,89.0
696.65,77.0
696.72,74.0
696.78,76.0
696.84,66.0
696.91,59.0
696.97,53.0
697.03,73.0
697.09,81.0
697.16,75.0
697.22,74.0
697.28,53.0
697.35,66.0
697.41,41.0
697.47,45.0
697.54,43.0
697.6,49.0
697.66,32.0
697.72,9.0
697.79,0.0
697.85,1.0
697.91,-4.0
697.98,11.0
698.04,18.0
698.1,28.0
698.17,15.0
698.23,18.0
698.29,38.0
698.35,43.0
698.42,50.0
698.48,39.0
698.54,62.0
698.61,57.0
698.67,54.0
698.73,59.0
698.8,61.0
698.86,69.0
698.92,54.0
698.98,78.0
699.05,72.0
699.11,62.0
699.17,73.0
699.24,51.0
699.3,77.0
699.36,71.0
699.43,82.0
699.49,101.0
699.55,79.0
699.61,69.0
699.68,92.0
699.74,74.0
699.8,84.0
699.87,72.0
699.93,65.0
699.99,69.0
700.06,69.0
700.12,64.0
700.18,79.0
700.24,73.0
700.31,78.0
700.37,73.0
700.43,77.0
700.5,65.0
700.56,73.0
700.62,88.0
700.69,101.0
700.75,122.0
700.81,118.0
700.87,122.0
700.94,122.0
701.0,120.0
701.06,127.0
701.13,110.0
701.19,119.0
701.25,117.0
701.32,105.0
701.38,119.0
701.44,131.0
701.5,134.0
701.57,124.0
701.63,138.0
701.69,130.0
701.76,119.0
701.82,141.0
701.88,126.0
701.95,138.0
702.01,112.0
702.07,120.0
702.13,127.0
702.2,112.0
702.26,111.0
702.32,101.0
702.39,115.0
702.45,131.0
702.51,119.0
702.58,113.0
702.64,109.0
702.7,120.0
702.76,128.0
702.83,129.0
702.89,131.0
702.95,132.0
703.02,118.0
703.08,124.0
703.14,114.0
703.21,105.0
703.27,126.0
703.33,137.0
703.39,106.0
703.46,139.0
703.52,143.0
703.58,107.0
703.65,102.0
703.71,115.0
703.77,138.0
703.84,129.0
703.9,104.0
703.96,117.0
704.02,104.0
704.09,113.0
704.15,123.0
704.21,119.0
704.28,139.0
704.34,110.0
704.4,89.0
704.47,110.0
704.53,105.0
704.59,112.0
704.65,112.0
704.72,115.0
704.78,107.0
704.84,135.0
704.91,123.0
704.97,121.0
705.03,119.0
705.1,106.0
705.16,110.0
705.22,93.0
705.28,106.0
705.35,105.0
705.41,103.0
705.47,139.0
705.54,117.0
705.6,101.0
705.66,119.0
705.73,123.0
705.79,139.0
705.85,123.0
705.91,113.0
705.98,121.0
706.04,138.0
706.1,128.0
706.17,124.0
706.23,111.0
706.29,124.0
706.36,125.0
706.42,105.0
706.48,105.0
706.54,99.0
706.61,120.0
706.67,119.0
706.73,98.0
706.8,96.0
706.86,97.0
706.92,113.0
706.99,127.0
707.05,116.0
707.11,109.0
707.17,110.0
707.24,135.0
707.3,129.0
707.36,119.0
707.43,113.0
707.49,122.0
707.55,138.0
707.62,134.0
707.68,142.0
707.74,143.0
707.8,132.0
707.87,122.0
707.93,140.0
707.99,146.0
708.06,166.0
708.12,146.0
708.18,150.0
708.25,158.0
708.31,150.0
708.37,133.0
708.43,153.0
708.5,148.0
708.56,153.0
708.62,142.0
708.69,141.0
708.75,151.0
708.81,151.0
708.88,143.0
708.94,139.0
709.0,148.0
709.06,157.0
709.13,145.0
709.19,114.0
709.25,135.0
709.32,136.0
709.38,146.0
709.44,177.0
709.51,180.0
709.57,179.0
709.63,167.0
709.69,191.0
709.76,177.0
709.82,154.0
709.88,159.0
709.95,179.0
710.01,183.0
710.07,194.0
710.14,182.0
710.2,178.0
710.26,176.0
710.32,178.0
710.39,176.0
710.45,190.0
710.51,201.0
710.58,183.0
710.64,190.0
710.7,183.0
710.77,197.0
710.83,182.0
710.89,175.0
710.95,157.0
711.02,160.0
711.08,166.0
711.14,154.0
711.21,156.0
711.27,167.0
711.33,166.0
711.4,164.0
711.46,190.0
711.52,175.0
711.58,166.0
711.65,173.0
711.71,180.0
711.77,167.0
711.84,165.0
711.9,167.0
711.96,174.0
712.03,184.0
712.09,181.0
712.15,189.0
712.21,173.0
712.28,157.0
712.34,175.0
712.4,173.0
712.47,159.0
712.53,144.0
712.59,152.0
712.66,147.0
712.72,135.0
712.78,145.0
712.84,153.0
712.91,150.0
712.97,151.0
713.03,128.0
713.1,128.0
713.16,143.0
713.22,139.0
713.29,164.0
713.35,146.0
713.41,131.0
713.47,132.0
713.54,132.0
713.6,141.0
713.66,142.0
713.73,127.0
713.79,117.0
713.85,144.0
713.92,146.0
713.98,111.0
714.04,123.0
714.1,109.0
714.17,109.0
714.23,109.0
714.29,111.0
714.36,108.0
714.42,93.0
714.48,109.0
714.55,97.0
714.61,113.0
714.67,119.0
714.73,106.0
714.8,115.0
714.86,107.0
714.92,111.0
714.99,114.0
715.05,100.0
715.11,118.0
715.18,92.0
715.24,105.0
715.3,100.0
715.36,88.0
715.43,112.0
715.49,100.0
715.55,104.0
715.62,91.0
715.68,109.0
715.74,113.0
715.81,116.0
715.87,91.0
715.93,90.0
715.99,108.0
716.06,135.0
716.12,116.0
716.18,116.0
716.25,127.0
716.31,113.0
716.37,127.0
716.44,124.0
716.5,121.0
716.56,125.0
716.62,135.0
716.69,131.0
716.75,128.0
716.81,137.0
716.88,148.0
716.94,163.0
717.0,155.0
717.07,168.0
717.13,152.0
717.19,152.0
717.25,154.0
717.32,163.0
717.38,161.0
717.44,159.0
717.51,161.0
717.57,132.0
717.63,133.0
717.7,143.0
717.76,129.0
717.82,131.0
717.88,127.0
717.95,146.0
718.01,148.0
718.07,138.0
718.14,142.0
718.2,147.0
718.26,147.0
718.33,133.0
718.39,121.0
718.45,114.0
718.51,138.0
718.58,133.0
718.64,141.0
718.7,142.0
718.77,136.0
718.83,122.0
718.89,108.0
718.96,100.0
719.02,100.0
719.08,106.0
719.14,89.0
719.21,95.0
719.27,75.0
719.33,99.0
719.4,115.0
719.46,122.0
719.52,114.0
719.59,117.0
719.65,129.0
719.71,107.0
719.77,104.0
719.84,102.0
719.9,93.0
719.96,97.0
720.03,89.0
720.09,106.0
720.15,121.0
720.22,88.0
720.28,117.0
720.34,113.0
720.4,118.0
720.47,125.0
720.53,106.0
720.59,97.0
720.66,102.0
720.72,102.0
720.78,101.0
720.85,93.0
720.91,90.0
720.97,91.0
721.03,89.0
721.1,94.0
721.16,80.0
721.22,81.0
721.29,89.0
721.35,59.0
721.41,62.0
721.48,84.0
721.54,72.0
721.6,69.0
721.66,72.0
721.73,65.0
721.79,71.0
721.85,58.0
721.92,31.0
721.98,42.0
722.04,41.0
722.11,25.0
722.17,24.0
722.23,18.0
722.29,27.0
722.36,9.0
722.42,13.0
722.48,13.0
722.55,22.0
722.61,30.0
722.67,34.0
722.74,22.0
722.8,36.0
722.86,41.0
722.92,24.0
722.99,28.0
723.05,18.0
723.11,12.0
723.18,2.0
723.24,-2.0
723.3,7.0
723.37,7.0
723.43,25.0
723.49,23.0
723.55,14.0
723.62,-4.0
723.68,-2.0
723.74,-10.0
723.81,7.0
723.87,-2.0
723.93,27.0
724.0,8.0
724.06,16.0
724.12,11.0
724.18,14.0
724.25,7.0
724.31,-1.0
724.37,-18.0
724.44,-9.0
724.5,9.0
724.56,11.0
724.63,16.0
724.69,6.0
724.75,14.0
724.81,16.0
724.88,1.0
724.94,6.0
725.0,9.0
725.07,13.0
725.13,16.0
725.19,22.0
725.26,21.0
725.32,6.0
725.38,13.0
725.44,33.0
725.51,26.0
725.57,14.0
725.63,1.0
725.7,5.0
725.76,-6.0
725.82,16.0
725.89,23.0
725.95,23.0
726.01,17.0
726.07,8.0
726.14,16.0
726.2,27.0
726.26,28.0
726.33,19.0
726.39,25.0
726.45,20.0
726.52,30.0
726.58,23.0
726.64,39.0
726.7,42.0
726.77,44.0
726.83,54.0
726.89,66.0
726.96,66.0
727.02,41.0
727.08,44.0
727.15,41.0
727.21,69.0
727.27,74.0
727.33,56.0
727.4,53.0
727.46,61.0
727.52,44.0
727.59,49.0
727.65,44.0
727.71,41.0
727.78,34.0
727.84,36.0
727.9,47.0
727.96,43.0
728.03,63.0
728.09,73.0
728.15,76.0
728.22,52.0
728.28,63.0
728.34,51.0
728.41,53.0
728.47,41.0
728.53,37.0
728.59,21.0
728.66,39.0
728.72,53.0
728.78,31.0
728.85,38.0
728.91,42.0
728.97,47.0
729.04,57.0
729.1,48.0
729.16,44.0
729.22,49.0
729.29,59.0
729.35,50.0
729.41,49.0
729.48,51.0
729.54,38.0
729.6,30.0
729.67,38.0
729.73,37.0
729.79,22.0
729.85,27.0
729.92,52.0
729.98,34.0
730.04,56.0
730.11,59.0
730.17,63.0
730.23,52.0
730.3,39.0
730.36,55.0
730.42,61.0
730.48,69.0
730.55,64.0
730.61,66.0
730.67,70.0
730.74,62.0
730.8,58.0
730.86,60.0
730.93,67.0
730.99,64.0
731.05,56.0
731.11,70.0
731.18,49.0
731.24,43.0
731.3,57.0
731.37,67.0
731.43,59.0
731.49,58.0
731.56,49.0
731.62,64.0
731.68,80.0
731.74,75.0
731.81,60.0
731.87,26.0
731.93,62.0
732.0,85.0
732.06,77.0
732.12,66.0
732.19,63.0
732.25,69.0
732.31,78.0
732.37,89.0
732.44,77.0
732.5,95.0
732.56,97.0
732.63,93.0
732.69,77.0
732.75,78.0
732.82,58.0
732.88,69.0
732.94,69.0
733.0,82.0
733.07,68.0
733.13,74.0
733.19,87.0
733.26,99.0
733.32,97.0
733.38,78.0
733.45,96.0
733.51,100.0
733.57,120.0
733.63,131.0
733.7,129.0
733.76,146.0
733.82,158.0
733.89,166.0
733.95,160.0
734.01,159.0
734.08,161.0
734.14,156.0
734.2,162.0
734.26,165.0
734.33,169.0
734.39,168.0
734.45,166.0
734.52,166.0
734.58,173.0
734.64,176.0
734.71,172.0
734.77,178.0
734.83,189.0
734.89,170.0
734.96,189.0
735.02,184.0
735.08,198.0
735.15,221.0
735.21,201.0
735.27,202.0
735.34,213.0
735.4,211.0
735.46,206.0
735.52,193.0
735.59,210.0
735.65,198.0
735.71,197.0
735.78,194.0
735.84,211.0
735.9,217.0
735.97,217.0
736.03,225.0
736.09,217.0
736.15,210.0
736.22,206.0
736.28,228.0
736.34,216.0
736.41,223.0
736.47,229.0
736.53,213.0
736.6,222.0
736.66,208.0
736.72,208.0
736.78,202.0
736.85,199.0
736.91,214.0
736.97,198.0
737.04,192.0
737.1,188.0
737.16,200.0
737.23,193.0
737.29,196.0
737.35,199.0
737.41,185.0
737.48,197.0
737.54,185.0
737.6,186.0
737.67,181.0
737.73,175.0
737.79,191.0
737.86,190.0
737.92,208.0
737.98,188.0
738.04,191.0
738.11,190.0
738.17,191.0
738.23,191.0
738.3,178.0
738.36,181.0
738.42,174.0
738.49,185.0
738.55,184.0
738.61,184.0
738.67,201.0
738.74,196.0
738.8,176.0
738.86,179.0
738.93,180.0
738.99,187.0
739.05,191.0
739.12,192.0
739.18,184.0
739.24,177.0
739.3,166.0
739.37,153.0
739.43,173.0
739.49,166.0
739.56,180.0
739.62,167.0
739.68,161.0
739.75,179.0
739.81,162.0
739.87,143.0
739.93,152.0
740.0,138.0
740.06,149.0
740.12,143.0
740.19,144.0
740.25,160.0
740.31,146.0
740.38,139.0
740.44,141.0
740.5,127.0
740.56,122.0
740.63,103.0
740.69,117.0
740.75,110.0
740.82,94.0
740.88,118.0
740.94,105.0
741.01,118.0
741.07,96.0
741.13,98.0
741.19,140.0
741.26,129.0
741.32,116.0
741.38,107.0
741.45,107.0
741.51,99.0
741.57,116.0
741.64,128.0
741.7,140.0
741.76,122.0
741.82,148.0
741.89,147.0
741.95,152.0
742.01,170.0
742.08,164.0
742.14,173.0
742.2,151.0
742.27,146.0
742.33,163.0
742.39,166.0
742.45,165.0
742.52,167.0
742.58,151.0
742.64,173.0
742.71,148.0
742.77,165.0
742.83,179.0
742.9,170.0
742.96,180.0
743.02,176.0
743.08,186.0
743.15,166.0
743.21,177.0
743.27,152.0
743.34,158.0
743.4,188.0
743.46,187.0
743.53,203.0
743.59,193.0
743.65,173.0
743.71,178.0
743.78,162.0
743.84,170.0
743.9,157.0
743.97,167.0
744.03,160.0
744.09,163.0
744.16,146.0
744.22,132.0
744.28,155.0
744.34,131.0
744.41,126.0
744.47,140.0
744.53,131.0
744.6,147.0
744.66,158.0
744.72,157.0
744.79,139.0
744.85,150.0
744.91,148.0
744.97,151.0
745.04,168.0
745.1,165.0
745.16,168.0
745.23,152.0
745.29,136.0
745.35,152.0
745.42,173.0
745.48,148.0
745.54,154.0
745.6,158.0
745.67,152.0
745.73,160.0
745.79,137.0
745.86,148.0
745.92,137.0
745.98,150.0
746.05,145.0
746.11,126.0
746.17,119.0
746.23,119.0
746.3,154.0
746.36,155.0
746.42,169.0
746.49,168.0
746.55,153.0
746.61,156.0
746.68,149.0
746.74,137.0
746.8,131.0
746.86,143.0
746.93,141.0
746.99,135.0
747.05,147.0
747.12,129.0
747.18,133.0
747.24,140.0
747.31,156.0
747.37,129.0
747.43,123.0
747.49,133.0
747.56,132.0
747.62,123.0
747.68,149.0
747.75,130.0
747.81,117.0
747.87,118.0
747.94,83.0
748.0,99.0
748.06,105.0
748.12,98.0
748.19,83.0
748.25,99.0
748.31,91.0
748.38,89.0
748.44,87.0
748.5,74.0
748.57,67.0
748.63,71.0
748.69,89.0
748.75,81.0
748.82,63.0
748.88,63.0
748.94,74.0
749.01,79.0
749.07,79.0
749.13,75.0
749.2,82.0
749.26,83.0
749.32,83.0
749.38,91.0
749.45,91.0
749.51,93.0
749.57,100.0
749.64,100.0
749.7,111.0
749.76,115.0
749.83,137.0
749.89,128.0
749.95,107.0
750.01,115.0
750.08,123.0
750.14,134.0
750.2,129.0
750.27,130.0
750.33,107.0
750.39,113.0
750.46,111.0
750.52,118.0
750.58,119.0
750.64,118.0
750.71,129.0
750.77,130.0
750.83,141.0
750.9,137.0
750.96,126.0
751.02,135.0
751.09,155.0
751.15,161.0
751.21,154.0
751.27,139.0
751.34,143.0
751.4,163.0
751.46,169.0
751.53,144.0
751.59,146.0
751.65,151.0
751.72,152.0
751.78,155.0
751.84,166.0
751.9,162.0
751.97,177.0
752.03,189.0
752.09,179.0
752.16,170.0
752.22,152.0
752.28,169.0
752.35,162.0
752.41,147.0
752.47,147.0
752.53,159.0
752.6,173.0
752.66,154.0
752.72,162.0
752.79,167.0
752.85,149.0
752.91,148.0
752.98,141.0
753.04,130.0
753.1,141.0
753.16,125.0
753.23,122.0
753.29,129.0
753.35,141.0
753.42,141.0
753.48,137.0
753.54,136.0
753.61,138.0
753.67,123.0
753.73,102.0
753.79,124.0
753.86,108.0
753.92,100.0
753.98,92.0
754.05,107.0
754.11,104.0
754.17,118.0
754.24,80.0
754.3,88.0
754.36,96.0
754.42,99.0
754.49,101.0
754.55,113.0
754.61,124.0
754.68,108.0
754.74,89.0
754.8,87.0
754.87,94.0
754.93,85.0
754.99,96.0
755.05,97.0
755.12,93.0
755.18,90.0
755.24,92.0
755.31,77.0
755.37,104.0
755.43,86.0
755.5,101.0
755.56,94.0
755.62,80.0
755.68,82.0
755.75,78.0
755.81,74.0
755.87,59.0
755.94,55.0
756.0,67.0
756.06,75.0
756.13,64.0
756.19,61.0
756.25,71.0
756.31,64.0
756.38,76.0
756.44,77.0
756.5,68.0
756.57,58.0
756.63,78.0
756.69,66.0
756.76,83.0
756.82,63.0
756.88,52.0
756.94,68.0
757.01,69.0
757.07,75.0
757.13,65.0
757.2,58.0
757.26,65.0
757.32,63.0
757.39,38.0
757.45,51.0
757.51,69.0
757.57,78.0
757.64,78.0
757.7,73.0
757.76,69.0
757.83,66.0
757.89,52.0
757.95,58.0
758.02,45.0
758.08,61.0
758.14,60.0
758.2,71.0
758.27,54.0
758.33,47.0
758.39,58.0
758.46,51.0
758.52,47.0
758.58,54.0
758.65,53.0
758.71,45.0
758.77,34.0
758.83,29.0
758.9,36.0
758.96,41.0
759.02,34.0
759.09,51.0
759.15,28.0
759.21,37.0
759.28,46.0
759.34,45.0
759.4,49.0
759.46,55.0
759.53,60.0
759.59,89.0
759.65,71.0
759.72,71.0
759.78,91.0
759.84,86.0
759.91,72.0
759.97,81.0
760.03,109.0
760.09,91.0
760.16,107.0
760.22,89.0
760.28,111.0
760.35,98.0
760.41,107.0
760.47,110.0
760.54,112.0
760.6,104.0
760.66,106.0
760.72,149.0
760.79,136.0
760.85,135.0
760.91,153.0
760.98,155.0
761.04,141.0
761.1,122.0
761.17,150.0
761.23,139.0
761.29,147.0
761.35,158.0
761.42,146.0
761.48,143.0
761.54,148.0
761.61,154.0
761.67,165.0
761.73,149.0
761.8,154.0
761.86,144.0
761.92,118.0
761.98,124.0
762.05,124.0
762.11,143.0
762.17,150.0
762.24,149.0
762.3,147.0
762.36,142.0
762.43,127.0
762.49,118.0
762.55,133.0
762.61,137.0
762.68,129.0
762.74,131.0
762.8,140.0
762.87,124.0
762.93,115.0
762.99,129.0
763.06,130.0
763.12,129.0
763.18,128.0
763.24,111.0
763.31,104.0
763.37,91.0
763.43,103.0
763.5,102.0
763.56,90.0
763.62,92.0
763.69,97.0
763.75,66.0
763.81,107.0
763.87,98.0
763.94,48.0
764.0,75.0
764.06,60.0
764.13,71.0
764.19,69.0
764.25,47.0
764.32,57.0
764.38,57.0
764.44,34.0
764.5,45.0
764.57,51.0
764.63,63.0
764.69,47.0
764.76,45.0
764.82,67.0
764.88,56.0
764.95,48.0
765.01,62.0
765.07,71.0
765.13,67.0
765.2,71.0
765.26,72.0
765.32,79.0
765.39,87.0
765.45,93.0
765.51,78.0
765.58,85.0
765.64,94.0
765.7,96.0
765.76,93.0
765.83,86.0
765.89,66.0
765.95,78.0
766.02,82.0
766.08,80.0
766.14,86.0
766.21,95.0
766.27,95.0
766.33,113.0
766.39,112.0
766.46,114.0
766.52,127.0
766.58,103.0
766.65,129.0
766.71,127.0
766.77,122.0
766.84,139.0
766.9,126.0
766.96,127.0
767.02,154.0
767.09,151.0
767.15,151.0
767.21,144.0
767.28,149.0
767.34,193.0
767.4,186.0
767.47,200.0
767.53,203.0
767.59,183.0
767.65,167.0
767.72,184.0
767.78,200.0
767.84,203.0
767.91,191.0
767.97,205.0
768.03,188.0
768.1,216.0
768.16,193.0
768.22,194.0
768.28,213.0
768.35,194.0
768.41,187.0
768.47,181.0
768.54,206.0
768.6,198.0
768.66,198.0
768.73,220.0
768.79,204.0
768.85,217.0
768.91,251.0
768.98,207.0
769.04,186.0
769.1,198.0
769.17,229.0
769.23,245.0
769.29,232.0
769.36,203.0
769.42,206.0
769.48,195.0
769.54,212.0
769.61,209.0
769.67,207.0
769.73,210.0
769.8,210.0
769.86,202.0
769.92,218.0
769.99,209.0
770.05,208.0
770.11,216.0
770.17,220.0
770.24,212.0
770.3,213.0
770.36,204.0
770.43,220.0
770.49,187.0
770.55,182.0
770.62,191.0
770.68,174.0
770.74,191.0
770.8,182.0
770.87,190.0
770.93,185.0
770.99,196.0
771.06,177.0
771.12,179.0
771.18,179.0
771.25,177.0
771.31,195.0
771.37,194.0
771.43,184.0
771.5,174.0
771.56,184.0
771.62,176.0
771.69,148.0
771.75,160.0
771.81,157.0
771.88,166.0
771.94,162.0
772.0,169.0
772.06,183.0
772.13,147.0
772.19,132.0
772.25,123.0
772.32,120.0
772.38,126.0
772.44,138.0
772.51,144.0
772.57,144.0
772.63,132.0
772.69,135.0
772.76,122.0
772.82,122.0
772.88,113.0
772.95,107.0
773.01,119.0
773.07,125.0
773.14,113.0
773.2,110.0
773.26,104.0
773.32,86.0
773.39,71.0
773.45,95.0
773.51,100.0
773.58,94.0
773.64,101.0
773.7,99.0
773.77,93.0
773.83,107.0
773.89,113.0
773.95,88.0
774.02,84.0
774.08,85.0
774.14,89.0
774.21,82.0
774.27,100.0
774.33,80.0
774.4,72.0
774.46,76.0
774.52,64.0
774.58,58.0
774.65,54.0
774.71,67.0
774.77,89.0
774.84,70.0
774.9,86.0
774.96,75.0
775.03,68.0
775.09,56.0
775.15,74.0
775.21,61.0
775.28,64.0
775.34,89.0
775.4,67.0
775.47,78.0
775.53,66.0
775.59,61.0
775.66,49.0
775.72,77.0
775.78,71.0
775.84,55.0
775.91,74.0
775.97,86.0
776.03,87.0
776.1,78.0
776.16,86.0
776.22,78.0
776.29,78.0
776.35,71.0
776.41,100.0
776.47,78.0
776.54,107.0
776.6,72.0
776.66,88.0
776.73,107.0
776.79,96.0
776.85,78.0
776.92,94.0
776.98,103.0
777.04,96.0
777.1,99.0
777.17,107.0
777.23,108.0
777.29,121.0
777.36,99.0
777.42,87.0
777.48,116.0
777.55,121.0
777.61,110.0
777.67,93.0
777.73,86.0
777.8,77.0
777.86,81.0
777.92,78.0
777.99,64.0
778.05,53.0
778.11,56.0
778.18,54.0
778.24,52.0
778.3,63.0
778.36,45.0
778.43,53.0
778.49,74.0
778.55,72.0
778.62,61.0
778.68,59.0
778.74,72.0
778.81,78.0
778.87,82.0
778.93,76.0
778.99,75.0
779.06,70.0
779.12,59.0
779.18,48.0
779.25,44.0
779.31,37.0
779.37,50.0
779.44,46.0
779.5,42.0
779.56,48.0
779.62,34.0
779.69,50.0
779.75,30.0
779.81,37.0
779.88,7.0
779.94,20.0
780.0,1.0
780.07,-6.0
780.13,-4.0
780.19,-19.0
780.25,-36.0
780.32,-20.0
780.38,-11.0
780.44,2.0
780.51,8.0
780.57,10.0
780.63,1.0
780.7,13.0
780.76,8.0
780.82,13.0
780.88,2.0
780.95,15.0
781.01,8.0
781.07,2.0
781.14,8.0
781.2,-3.0
781.26,-6.0
781.33,-9.0
781.39,-16.0
781.45,-13.0
781.51,8.0
781.58,-9.0
781.64,-23.0
781.7,-11.0
781.77,-30.0
781.83,-17.0
781.89,-6.0
781.96,-13.0
782.02,-3.0
782.08,-6.0
782.14,-15.0
782.21,-8.0
782.27,-3.0
782.33,-13.0
782.4,-14.0
782.46,12.0
782.52,16.0
782.59,-2.0
782.65,2.0
782.71,4.0
782.77,6.0
782.84,14.0
782.9,6.0
782.96,-6.0
783.03,17.0
783.09,16.0
783.15,10.0
783.22,34.0
783.28,36.0
783.34,41.0
783.4,28.0
783.47,27.0
783.53,63.0
783.59,49.0
783.66,58.0
783.72,56.0
783.78,35.0
783.85,36.0
783.91,38.0
783.97,49.0
784.03,41.0
784.1,48.0
784.16,57.0
784.22,46.0
784.29,62.0
784.35,60.0
784.41,56.0
784.48,49.0
784.54,60.0
784.6,51.0
784.66,58.0
784.73,73.0
784.79,90.0
784.85,86.0
784.92,92.0
784.98,90.0
785.04,74.0
785.11,90.0
785.17,81.0
785.23,96.0
785.29,107.0
785.36,114.0
785.42,104.0
785.48,109.0
785.55,118.0
785.61,106.0
785.67,124.0
785.74,118.0
785.8,112.0
785.86,131.0
785.92,117.0
785.99,128.0
786.05,123.0
786.11,136.0
786.18,144.0
786.24,138.0
786.3,148.0
786.37,143.0
786.43,120.0
786.49,154.0
786.55,159.0
786.62,140.0
786.68,133.0
786.74,130.0
786.81,133.0
786.87,141.0
786.93,133.0
787.0,124.0
787.06,116.0
787.12,120.0
787.18,122.0
787.25,115.0
787.31,125.0
787.37,144.0
787.44,142.0
787.5,151.0
787.56,166.0
787.63,163.0
787.69,174.0
787.75,166.0
787.81,167.0
787.88,175.0
787.94,147.0
788.0,151.0
788.07,171.0
788.13,155.0
788.19,141.0
788.26,124.0
788.32,139.0
788.38,159.0
788.44,139.0
788.51,130.0
788.57,141.0
788.63,133.0
788.7,142.0
788.76,138.0
788.82,137.0
788.89,140.0
788.95,116.0
789.01,111.0
789.07,120.0
789.14,128.0
789.2,128.0
789.26,119.0
789.33,134.0
789.39,126.0
789.45,124.0
789.52,120.0
789.58,111.0
789.64,107.0
789.7,98.0
789.77,81.0
789.83,78.0
789.89,86.0
789.96,93.0
790.02,97.0
790.08,94.0
790.15,100.0
790.21,111.0
790.27,109.0
790.33,101.0
790.4,101.0
790.46,101.0
790.52,78.0
790.59,80.0
790.65,67.0
790.71,75.0
790.78,70.0
790.84,73.0
790.9,59.0
790.96,70.0
791.03,73.0
791.09,70.0
791.15,65.0
791.22,62.0
791.28,59.0
791.34,69.0
791.41,59.0
791.47,67.0
791.53,81.0
791.59,77.0
791.66,93.0
791.72,97.0
791.78,95.0
791.85,103.0
791.91,87.0
791.97,99.0
792.04,122.0
792.1,141.0
792.16,132.0
792.22,130.0
792.29,131.0
792.35,123.0
792.41,131.0
792.48,123.0
792.54,114.0
792.6,112.0
792.67,128.0
792.73,121.0
792.79,129.0
792.85,122.0
792.92,137.0
792.98,135.0
793.04,131.0
793.11,123.0
793.17,136.0
793.23,135.0
793.3,144.0
793.36,159.0
793.42,155.0
793.48,151.0
793.55,158.0
793.61,156.0
793.67,146.0
793.74,168.0
793.8,160.0
793.86,164.0
793.93,177.0
793.99,164.0
794.05,163.0
794.11,162.0
794.18,163.0
794.24,148.0
794.3,143.0
794.37,153.0
794.43,164.0
794.49,167.0
794.56,150.0
794.62,166.0
794.68,170.0
794.74,170.0
794.81,178.0
794.87,166.0
794.93,171.0
795.0,180.0
795.06,177.0
795.12,166.0
795.19,177.0
795.25,177.0
795.31,183.0
795.37,181.0
795.44,173.0
795.5,165.0
795.56,170.0
795.63,175.0
795.69,169.0
795.75,147.0
795.82,146.0
795.88,160.0
795.94,164.0
796.0,166.0
796.07,164.0
796.13,178.0
796.19,159.0
796.26,153.0
796.32,148.0
796.38,148.0
796.45,154.0
796.51,144.0
796.57,128.0
796.63,140.0
796.7,134.0
796.76,123.0
796.82,133.0
796.89,113.0
796.95,137.0
797.01,124.0
797.08,130.0
797.14,118.0
797.2,107.0
797.26,129.0
797.33,131.0
797.39,117.0
797.45,111.0
797.52,112.0
797.58,115.0
797.64,129.0
797.71,123.0
797.77,122.0
797.83,121.0
797.89,108.0
797.96,116.0
798.02,132.0
798.08,118.0
798.15,124.0
798.21,129.0
798.27,140.0
798.34,161.0
798.4,142.0
798.46,154.0
798.52,155.0
798.59,142.0
798.65,159.0
798.71,129.0
798.78,154.0
798.84,166.0
798.9,147.0
798.97,148.0
799.03,148.0
799.09,166.0
799.15,157.0
799.22,152.0
799.28,140.0
799.34,154.0
799.41,147.0
799.47,144.0
799.53,150.0
799.6,126.0
799.66,122.0
799.72,107.0
799.78,118.0
799.85,113.0
799.91,125.0
799.97,154.0
800.04,120.0
800.1,123.0
800.16,140.0
800.23,137.0
800.29,150.0
800.35,133.0
800.41,147.0
800.48,130.0
800.54,130.0
800.6,148.0
800.67,144.0
800.73,155.0
800.79,155.0
800.86,153.0
800.92,139.0
800.98,145.0
801.04,159.0
801.11,150.0
801.17,149.0
801.23,159.0
801.3,163.0
801.36,149.0
801.42,159.0
801.49,151.0
801.55,150.0
801.61,156.0
801.67,164.0
801.74,171.0
801.8,145.0
801.86,166.0
801.93,150.0
801.99,161.0
802.05,148.0
802.12,157.0
802.18,151.0
802.24,156.0
802.3,156.0
802.37,168.0
802.43,177.0
802.49,182.0
802.56,165.0
802.62,163.0
802.68,173.0
802.75,180.0
802.81,189.0
802.87,205.0
802.93,198.0
803.0,206.0
803.06,175.0
803.12,170.0
803.19,180.0
803.25,173.0
803.31,178.0
803.38,172.0
803.44,180.0
803.5,163.0
803.56,187.0
803.63,183.0
803.69,181.0
803.75,188.0
803.82,159.0
803.88,165.0
803.94,169.0
804.01,168.0
804.07,172.0
804.13,149.0
804.19,159.0
804.26,139.0
804.32,157.0
804.38,168.0
804.45,148.0
804.51,173.0
804.57,186.0
804.64,189.0
804.7,177.0
804.76,189.0
804.82,188.0
804.89,175.0
804.95,166.0
805.01,177.0
805.08,173.0
805.14,169.0
805.2,181.0
805.27,150.0
805.33,144.0
805.39,167.0
805.45,153.0
805.52,146.0
805.58,147.0
805.64,148.0
805.71,130.0
805.77,139.0
805.83,137.0
805.9,126.0
805.96,130.0
806.02,131.0
806.08,122.0
806.15,103.0
806.21,111.0
806.27,115.0
806.34,94.0
806.4,108.0
806.46,95.0
806.53,83.0
806.59,89.0
806.65,97.0
806.71,89.0
806.78,86.0
806.84,85.0
806.9,72.0
806.97,79.0
807.03,80.0
807.09,76.0
807.16,79.0
807.22,83.0
807.28,84.0
807.34,84.0
807.41,74.0
807.47,82.0
807.53,98.0
807.6,99.0
807.66,107.0
807.72,82.0
807.79,42.0
807.85,62.0
807.91,87.0
807.97,75.0
808.04,67.0
808.1,76.0
808.16,63.0
808.23,77.0
808.29,78.0
808.35,78.0
808.42,76.0
808.48,76.0
808.54,79.0
808.6,79.0
808.67,83.0
808.73,85.0
808.79,101.0
808.86,107.0
808.92,110.0
808.98,93.0
809.05,96.0
809.11,76.0
809.17,71.0
809.23,110.0
809.3,90.0
809.36,102.0
809.42,114.0
809.49,107.0
809.55,86.0
809.61,110.0
809.68,107.0
809.74,114.0
809.8,111.0
809.86,93.0
809.93,117.0
809.99,131.0
810.05,132.0
810.12,125.0
810.18,134.0
810.24,117.0
810.31,119.0
810.37,124.0
810.43,129.0
810.49,142.0
810.56,113.0
810.62,131.0
810.68,120.0
810.75,112.0
810.81,128.0
810.87,155.0
810.94,167.0
811.0,142.0
811.06,141.0
811.12,147.0
811.19,158.0
811.25,147.0
811.31,169.0
811.38,172.0
811.44,156.0
811.5,156.0
811.57,142.0
811.63,137.0
811.69,153.0
811.75,133.0
811.82,123.0
811.88,151.0
811.94,116.0
812.01,123.0
812.07,128.0
812.13,128.0
812.2,158.0
812.26,133.0
812.32,158.0
812.38,147.0
812.45,112.0
812.51,122.0
812.57,128.0
812.64,131.0
812.7,124.0
812.76,140.0
812.83,126.0
812.89,120.0
812.95,146.0
813.01,169.0
813.08,155.0
813.14,152.0
813.2,142.0
813.27,132.0
813.33,148.0
813.39,155.0
813.46,157.0
813.52,159.0
813.58,133.0
813.64,137.0
813.71,127.0
813.77,121.0
813.83,123.0
813.9,106.0
813.96,120.0
814.02,121.0
814.09,115.0
814.15,111.0
814.21,100.0
814.27,114.0
814.34,88.0
814.4,91.0
814.46,94.0
814.53,88.0
814.59,97.0
814.65,81.0
814.72,79.0
814.78,69.0
814.84,82.0
814.9,84.0
814.97,73.0
815.03,65.0
815.09,65.0
815.16,72.0
815.22,52.0
815.28,70.0
815.35,73.0
815.41,76.0
815.47,57.0
815.53,89.0
815.6,85.0
815.66,77.0
815.72,73.0
815.79,71.0
815.85,68.0
815.91,75.0
815.98,77.0
816.04,65.0
816.1,82.0
816.16,72.0
816.23,87.0
816.29,90.0
816.35,102.0
816.42,103.0
816.48,101.0
816.54,95.0
816.61,91.0
816.67,125.0
816.73,136.0
816.79,126.0
816.86,120.0
816.92,112.0
816.98,99.0
817.05,103.0
817.11,107.0
817.17,123.0
817.24,137.0
817.3,132.0
817.36,148.0
817.42,150.0
817.49,146.0
817.55,148.0
817.61,147.0
817.68,129.0
817.74,144.0
817.8,143.0
817.87,130.0
817.93,144.0
817.99,131.0
818.05,160.0
818.12,160.0
818.18,144.0
818.24,143.0
818.31,144.0
818.37,155.0
818.43,166.0
818.5,166.0
818.56,165.0
818.62,169.0
818.68,175.0
818.75,152.0
818.81,170.0
818.87,178.0
818.94,158.0
819.0,170.0
819.06,177.0
819.13,165.0
819.19,169.0
819.25,180.0
819.31,172.0
819.38,172.0
819.44,169.0
819.5,191.0
819.57,197.0
819.63,184.0
819.69,184.0
819.76,181.0
819.82,195.0
819.88,186.0
819.94,166.0
820.01,185.0
820.07,176.0
820.13,181.0
820.2,195.0
820.26,197.0
820.32,213.0
820.39,208.0
820.45,197.0
820.51,201.0
820.57,201.0
820.64,189.0
820.7,207.0
820.76,192.0
820.83,198.0
820.89,216.0
820.95,185.0
821.02,191.0
821.08,213.0
821.14,178.0
821.2,188.0
821.27,164.0
821.33,160.0
821.39,181.0
821.46,138.0
821.52,150.0
821.58,157.0
821.65,171.0
821.71,156.0
821.77,158.0
821.83,152.0
821.9,144.0
821.96,159.0
822.02,147.0
822.09,146.0
822.15,132.0
822.21,123.0
822.28,151.0
822.34,142.0
822.4,160.0
822.46,157.0
822.53,137.0
822.59,146.0
822.65,141.0
822.72,142.0
822.78,130.0
822.84,140.0
822.91,129.0
822.97,125.0
823.03,120.0
823.09,135.0
823.16,141.0
823.22,133.0
823.28,130.0
823.35,130.0
823.41,122.0
823.47,162.0
823.54,159.0
823.6,141.0
823.66,144.0
823.72,131.0
823.79,120.0
823.85,140.0
823.91,137.0
823.98,133.0
824.04,131.0
824.1,129.0
824.17,126.0
824.23,117.0
824.29,116.0
824.35,120.0
824.42,126.0
824.48,113.0
824.54,111.0
824.61,100.0
824.67,104.0
824.73,117.0
824.8,118.0
824.86,111.0
824.92,125.0
824.98,134.0
825.05,159.0
825.11,128.0
825.17,128.0
825.24,126.0
825.3,137.0
825.36,131.0
825.43,122.0
825.49,135.0
825.55,128.0
825.61,137.0
825.68,128.0
825.74,141.0
825.8,122.0
825.87,123.0
825.93,141.0
825.99,123.0
826.06,118.0
826.12,119.0
826.18,119.0
826.24,123.0
826.31,125.0
826.37,127.0
826.43,123.0
826.5,136.0
826.56,131.0
826.62,137.0
826.69,100.0
826.75,109.0
826.81,102.0
826.87,95.0
826.94,115.0
827.0,109.0
827.06,109.0
827.13,98.0
827.19,112.0
827.25,89.0
827.32,86.0
827.38,96.0
827.44,79.0
827.5,107.0
827.57,111.0
827.63,126.0
827.69,125.0
827.76,108.0
827.82,96.0
827.88,101.0
827.95,103.0
828.01,113.0
828.07,94.0
828.13,105.0
828.2,133.0
828.26,128.0
828.32,135.0
828.39,122.0
828.45,96.0
828.51,90.0
828.58,113.0
828.64,109.0
828.7,88.0
828.76,100.0
828.83,86.0
828.89,108.0
828.95,98.0
829.02,71.0
829.08,87.0
829.14,90.0
829.21,111.0
829.27,89.0
829.33,86.0
829.39,81.0
829.46,90.0
829.52,114.0
829.58,111.0
829.65,88.0
829.71,89.0
829.77,84.0
829.84,78.0
829.9,74.0
829.96,76.0
830.02,90.0
830.09,66.0
830.15,63.0
830.21,65.0
830.28,52.0
830.34,53.0
830.4,60.0
830.47,51.0
830.53,38.0
830.59,43.0
830.65,35.0
830.72,28.0
830.78,24.0
830.84,14.0
830.91,29.0
830.97,24.0
831.03,22.0
831.1,22.0
831.16,27.0
831.22,22.0
831.28,13.0
831.35,1.0
831.41,-1.0
831.47,21.0
831.54,12.0
831.6,3.0
831.66,-4.0
831.73,-4.0
831.79,-11.0
831.85,-14.0
831.91,-16.0
831.98,-5.0
832.04,-13.0
832.1,-15.0
832.17,-15.0
832.23,2.0
832.29,-12.0
832.36,-9.0
832.42,2.0
832.48,-30.0
832.54,-23.0
832.61,-24.0
832.67,-12.0
832.73,-4.0
832.8,-16.0
832.86,-2.0
832.92,18.0
832.99,1.0
833.05,-7.0
833.11,-15.0
833.17,-5.0
833.24,2.0
833.3,-12.0
833.36,-20.0
833.43,-15.0
833.49,-15.0
833.55,-3.0
833.62,12.0
833.68,11.0
833.74,10.0
833.8,28.0
833.87,17.0
833.93,16.0
833.99,14.0
834.06,17.0
834.12,16.0
834.18,33.0
834.25,33.0
834.31,20.0
834.37,27.0
834.43,29.0
834.5,21.0
834.56,38.0
834.62,57.0
834.69,56.0
834.75,56.0
834.81,55.0
834.88,63.0
834.94,71.0
835.0,67.0
835.06,63.0
835.13,58.0
835.19,68.0
835.25,80.0
835.32,55.0
835.38,50.0
835.44,50.0
835.51,49.0
835.57,63.0
835.63,41.0
835.69,42.0
835.76,68.0
835.82,75.0
835.88,52.0
835.95,58.0
836.01,65.0
836.07,64.0
836.14,60.0
836.2,57.0
836.26,60.0
836.32,71.0
836.39,68.0
836.45,95.0
836.51,89.0
836.58,91.0
836.64,112.0
836.7,99.0
836.77,107.0
836.83,107.0
836.89,115.0
836.95,116.0
837.02,119.0
837.08,104.0
837.14,100.0
837.21,106.0
837.27,110.0
837.33,113.0
837.4,98.0
837.46,122.0
837.52,135.0
837.58,123.0
837.65,132.0
837.71,129.0
837.77,118.0
837.84,117.0
837.9,110.0
837.96,115.0
838.03,107.0
838.09,114.0
838.15,123.0
838.21,110.0
838.28,101.0
838.34,106.0
838.4,108.0
838.47,108.0
838.53,110.0
838.59,97.0
838.66,97.0
838.72,108.0
838.78,101.0
838.84,82.0
838.91,112.0
838.97,93.0
839.03,94.0
839.1,107.0
839.16,112.0
839.22,120.0
839.29,119.0
839.35,129.0
839.41,140.0
839.47,151.0
839.54,144.0
839.6,129.0
839.66,147.0
839.73,140.0
839.79,145.0
839.85,136.0
839.92,131.0
839.98,120.0
840.04,111.0
840.1,117.0
840.17,115.0
840.23,113.0
840.29,102.0
840.36,125.0
840.42,115.0
840.48,112.0
840.55,126.0
840.61,124.0
840.67,99.0
840.73,99.0
840.8,90.0
840.86,89.0
840.92,83.0
840.99,67.0
841.05,82.0
841.11,75.0
841.18,82.0
841.24,79.0
841.3,88.0
841.36,69.0
841.43,84.0
841.49,67.0
841.55,78.0
841.62,94.0
841.68,75.0
841.74,76.0
841.81,79.0
841.87,95.0
841.93,91.0
841.99,87.0
842.06,91.0
842.12,72.0
842.18,88.0
842.25,88.0
842.31,88.0
842.37,75.0
842.44,76.0
842.5,90.0
842.56,105.0
842.62,106.0
842.69,104.0
842.75,105.0
842.81,99.0
842.88,88.0
842.94,85.0
843.0,86.0
843.07,100.0
843.13,103.0
843.19,111.0
843.25,114.0
843.32,106.0
843.38,113.0
843.44,100.0
843.51,102.0
843.57,116.0
843.63,129.0
843.7,131.0
843.76,119.0
843.82,128.0
843.88,124.0
843.95,124.0
844.01,121.0
844.07,91.0
844.14,101.0
844.2,92.0
844.26,75.0
844.33,96.0
844.39,107.0
844.45,113.0
844.51,117.0
844.58,115.0
844.64,134.0
844.7,121.0
844.77,125.0
844.83,130.0
844.89,143.0
844.96,124.0
845.02,139.0
845.08,141.0
845.14,126.0
845.21,144.0
845.27,145.0
845.33,170.0
845.4,154.0
845.46,151.0
845.52,159.0
845.59,157.0
845.65,177.0
845.71,170.0
845.77,185.0
845.84,215.0
845.9,185.0
845.96,173.0
846.03,185.0
846.09,164.0
846.15,182.0
846.22,206.0
846.28,211.0
846.34,192.0
846.4,178.0
846.47,182.0
846.53,157.0
846.59,168.0
846.66,187.0
846.72,158.0
846.78,181.0
846.85,190.0
846.91,174.0
846.97,190.0
847.03,177.0
847.1,170.0
847.16,159.0
847.22,155.0
847.29,134.0
847.35,150.0
847.41,133.0
847.48,153.0
847.54,137.0
847.6,132.0
847.66,146.0
847.73,132.0
847.79,135.0
847.85,140.0
847.92,132.0
847.98,110.0
848.04,129.0
848.11,135.0
848.17,157.0
848.23,150.0
848.29,151.0
848.36,143.0
848.42,149.0
848.48,155.0
848.55,143.0
848.61,149.0
848.67,123.0
848.74,113.0
848.8,138.0
848.86,131.0
848.92,154.0
848.99,142.0
849.05,153.0
849.11,160.0
849.18,162.0
849.24,164.0
849.3,174.0
849.37,177.0
849.43,169.0
849.49,165.0
849.55,159.0
849.62,163.0
849.68,167.0
849.74,155.0
849.81,164.0
849.87,163.0
849.93,140.0
850.0,157.0
850.06,160.0
850.12,176.0
850.18,179.0
850.25,178.0
850.31,201.0
850.37,204.0
850.44,190.0
850.5,207.0
850.56,207.0
850.63,188.0
850.69,209.0
850.75,183.0
850.81,190.0
850.88,201.0
850.94,179.0
851.0,199.0
851.07,195.0
851.13,177.0
851.19,184.0
851.26,194.0
851.32,195.0
851.38,222.0
851.44,209.0
851.51,223.0
851.57,207.0
851.63,210.0
851.7,206.0
851.76,206.0
851.82,196.0
851.89,193.0
851.95,212.0
852.01,192.0
852.07,198.0
852.14,198.0
852.2,187.0
852.26,192.0
852.33,192.0
852.39,191.0
852.45,189.0
852.52,181.0
852.58,173.0
852.64,187.0
852.7,188.0
852.77,189.0
852.83,209.0
852.89,205.0
852.96,204.0
853.02,192.0
853.08,205.0
853.15,205.0
853.21,200.0
853.27,210.0
853.33,214.0
853.4,196.0
853.46,199.0
853.52,209.0
853.59,206.0
853.65,196.0
853.71,208.0
853.78,199.0
853.84,174.0
853.9,186.0
853.96,199.0
854.03,195.0
854.09,198.0
854.15,202.0
854.22,218.0
854.28,215.0
854.34,209.0
854.41,204.0
854.47,204.0
854.53,217.0
854.59,210.0
854.66,212.0
854.72,201.0
854.78,201.0
854.85,189.0
854.91,199.0
854.97,193.0
855.04,192.0
855.1,197.0
855.16,201.0
855.22,193.0
855.29,210.0
855.35,186.0
855.41,185.0
855.48,189.0
855.54,181.0
855.6,185.0
855.67,193.0
855.73,182.0
855.79,165.0
855.85,179.0
855.92,179.0
855.98,179.0
856.04,160.0
856.11,175.0
856.17,176.0
856.23,154.0
856.3,171.0
856.36,159.0
856.42,195.0
856.48,175.0
856.55,156.0
856.61,156.0
856.67,159.0
856.74,155.0
856.8,133.0
856.86,130.0
856.93,148.0
856.99,148.0
857.05,147.0
857.11,121.0
857.18,128.0
857.24,135.0
857.3,126.0
857.37,104.0
857.43,121.0
857.49,97.0
857.56,95.0
857.62,94.0
857.68,95.0
857.74,100.0
857.81,76.0
857.87,87.0
857.93,78.0
858.0,89.0
858.06,83.0
858.12,64.0
858.19,60.0
858.25,68.0
858.31,68.0
858.37,76.0
858.44,72.0
858.5,74.0
858.56,78.0
858.63,91.0
858.69,90.0
858.75,59.0
858.82,58.0
858.88,57.0
858.94,86.0
859.0,102.0
859.07,84.0
859.13,83.0
859.19,66.0
859.26,73.0
859.32,73.0
859.38,69.0
859.45,67.0
859.51,76.0
859.57,78.0
859.63,83.0
859.7,69.0
859.76,85.0
859.82,83.0
859.89,110.0
859.95,113.0
860.01,109.0
860.08,108.0
860.14,108.0
860.2,120.0
860.26,102.0
860.33,107.0
860.39,103.0
860.45,88.0
860.52,101.0
860.58,104.0
860.64,107.0
860.71,108.0
860.77,116.0
860.83,106.0
860.89,115.0
860.96,117.0
861.02,123.0
861.08,116.0
861.15,112.0
861.21,127.0
861.27,140.0
861.34,125.0
861.4,133.0
861.46,113.0
861.52,123.0
861.59,136.0
861.65,147.0
861.71,150.0
861.78,130.0
861.84,126.0
861.9,99.0
861.97,114.0
862.03,110.0
862.09,117.0
862.15,110.0
862.22,117.0
862.28,126.0
862.34,105.0
862.41,85.0
862.47,100.0
862.53,109.0
862.6,80.0
862.66,94.0
862.72,110.0
862.78,111.0
862.85,122.0
862.91,128.0
862.97,102.0
863.04,100.0
863.1,115.0
863.16,97.0
863.23,104.0
863.29,118.0
863.35,100.0
863.41,97.0
863.48,107.0
863.54,113.0
863.6,120.0
863.67,134.0
863.73,107.0
863.79,96.0
863.86,98.0
863.92,94.0
863.98,94.0
864.04,104.0
864.11,81.0
864.17,73.0
864.23,71.0
864.3,83.0
864.36,91.0
864.42,52.0
864.49,71.0
864.55,72.0
864.61,71.0
864.67,74.0
864.74,58.0
864.8,76.0
864.86,59.0
864.93,59.0
864.99,72.0
865.05,78.0
865.12,72.0
865.18,51.0
865.24,57.0
865.3,55.0
865.37,64.0
865.43,56.0
865.49,60.0
865.56,60.0
865.62,58.0
865.68,55.0
865.75,61.0
865.81,72.0
865.87,62.0
865.93,35.0
866.0,49.0
866.06,63.0
866.12,56.0
866.19,60.0
866.25,34.0
866.31,71.0
866.38,66.0
866.44,71.0
866.5,73.0
866.56,59.0
866.63,63.0
866.69,63.0
866.75,50.0
866.82,59.0
866.88,50.0
866.94,63.0
867.01,75.0
867.07,69.0
867.13,65.0
867.19,79.0
867.26,67.0
867.32,55.0
867.38,67.0
867.45,75.0
867.51,96.0
867.57,100.0
867.64,96.0
867.7,105.0
867.76,102.0
867.82,116.0
867.89,109.0
867.95,104.0
868.01,100.0
868.08,104.0
868.14,106.0
868.2,108.0
868.27,115.0
868.33,127.0
868.39,126.0
868.45,128.0
868.52,126.0
868.58,112.0
868.64,146.0
868.71,133.0
868.77,101.0
868.83,105.0
868.9,100.0
868.96,115.0
869.02,127.0
869.08,115.0
869.15,109.0
869.21,111.0
869.27,127.0
869.34,118.0
869.4,136.0
869.46,135.0
869.53,122.0
869.59,143.0
869.65,144.0
869.71,148.0
869.78,143.0
869.84,148.0
869.9,156.0
869.97,176.0
870.03,171.0
870.09,178.0
870.16,168.0
870.22,169.0
870.28,166.0
870.34,161.0
870.41,185.0
870.47,201.0
870.53,190.0
870.6,179.0
870.66,188.0
870.72,203.0
870.79,185.0
870.85,202.0
870.91,203.0
870.97,207.0
871.04,210.0
871.1,197.0
871.16,217.0
871.23,212.0
871.29,200.0
871.35,185.0
871.42,191.0
871.48,193.0
871.54,197.0
871.6,206.0
871.67,228.0
871.73,221.0
871.79,222.0
871.86,226.0
871.92,208.0
871.98,193.0
872.05,199.0
872.11,196.0
872.17,201.0
872.23,211.0
872.3,215.0
872.36,204.0
872.42,209.0
872.49,212.0
872.55,202.0
872.61,207.0
872.68,183.0
872.74,195.0
872.8,197.0
872.86,192.0
872.93,191.0
872.99,187.0
873.05,205.0
873.12,207.0
873.18,212.0
873.24,201.0
873.31,202.0
873.37,204.0
873.43,203.0
873.49,189.0
873.56,171.0
873.62,178.0
873.68,190.0
873.75,205.0
873.81,167.0
873.87,189.0
873.94,185.0
874.0,193.0
874.06,198.0
874.12,195.0
874.19,201.0
874.25,185.0
874.31,171.0
874.38,174.0
874.44,160.0
874.5,175.0
874.57,187.0
874.63,163.0
874.69,174.0
874.75,183.0
874.82,167.0
874.88,173.0
874.94,152.0
875.01,180.0
875.07,160.0
875.13,169.0
875.2,198.0
875.26,203.0
875.32,218.0
875.38,200.0
875.45,182.0
875.51,166.0
875.57,201.0
875.64,210.0
875.7,179.0
875.76,193.0
875.83,181.0
875.89,175.0
875.95,165.0
876.01,178.0
876.08,187.0
876.14,185.0
876.2,199.0
876.27,194.0
876.33,191.0
876.39,181.0
876.46,173.0
876.52,167.0
876.58,180.0
876.64,170.0
876.71,170.0
876.77,161.0
876.83,160.0
876.9,159.0
876.96,166.0
877.02,169.0
877.09,176.0
877.15,163.0
877.21,158.0
877.27,180.0
877.34,174.0
877.4,168.0
877.46,174.0
877.53,195.0
877.59,170.0
877.65,184.0
877.72,185.0
877.78,178.0
877.84,181.0
877.9,198.0
877.97,192.0
878.03,212.0
878.09,211.0
878.16,209.0
878.22,197.0
878.28,208.0
878.35,195.0
878.41,200.0
878.47,217.0
878.53,210.0
878.6,244.0
878.66,235.0
878.72,223.0
878.79,203.0
878.85,209.0
878.91,205.0
878.98,217.0
879.04,208.0
879.1,197.0
879.16,205.0
879.23,212.0
879.29,208.0
879.35,171.0
879.42,176.0
879.48,187.0
879.54,187.0
879.61,177.0
879.67,173.0
879.73,156.0
879.79,133.0
879.86,156.0
879.92,150.0
879.98,153.0
880.05,148.0
880.11,156.0
880.17,169.0
880.24,166.0
880.3,144.0
880.36,143.0
880.42,128.0
880.49,104.0
880.55,127.0
880.61,104.0
880.68,115.0
880.74,127.0
880.8,125.0
880.87,99.0
880.93,108.0
880.99,104.0
881.05,99.0
881.12,100.0
881.18,88.0
881.24,103.0
881.31,86.0
881.37,83.0
881.43,76.0
881.5,109.0
881.56,109.0
881.62,99.0
881.68,111.0
881.75,92.0
881.81,68.0
881.87,86.0
881.94,80.0
882.0,81.0
882.06,77.0
882.13,57.0
882.19,67.0
882.25,46.0
882.31,58.0
882.38,54.0
882.44,54.0
882.5,54.0
882.57,57.0
882.63,69.0
882.69,54.0
882.76,49.0
882.82,55.0
882.88,58.0
882.94,39.0
883.01,42.0
883.07,77.0
883.13,60.0
883.2,37.0
883.26,38.0
883.32,31.0
883.39,51.0
883.45,29.0
883.51,42.0
883.57,31.0
883.64,40.0
883.7,26.0
883.76,13.0
883.83,10.0
883.89,27.0
883.95,12.0
884.02,33.0
884.08,48.0
884.14,47.0
884.2,49.0
884.27,40.0
884.33,25.0
884.39,11.0
884.46,14.0
884.52,41.0
884.58,34.0
884.65,30.0
884.71,46.0
884.77,54.0
884.83,52.0
884.9,42.0
884.96,49.0
885.02,53.0
885.09,27.0
885.15,13.0
885.21,45.0
885.28,35.0
885.34,39.0
885.4,31.0
885.46,35.0
885.53,56.0
885.59,39.0
885.65,55.0
885.72,61.0
885.78,53.0
885.84,49.0
885.91,39.0
885.97,44.0
886.03,57.0
886.09,37.0
886.16,22.0
886.22,47.0
886.28,47.0
886.35,56.0
886.41,62.0
886.47,42.0
886.54,47.0
886.6,61.0
886.66,61.0
886.72,57.0
886.79,37.0
886.85,39.0
886.91,42.0
886.98,31.0
887.04,20.0
887.1,37.0
887.17,34.0
887.23,12.0
887.29,18.0
887.35,34.0
887.42,19.0
887.48,29.0
887.54,37.0
887.61,50.0
887.67,45.0
887.73,33.0
887.8,45.0
887.86,42.0
887.92,35.0
887.98,59.0
888.05,60.0
888.11,50.0
888.17,33.0
888.24,41.0
888.3,44.0
888.36,35.0
888.43,48.0
888.49,67.0
888.55,82.0
888.61,66.0
888.68,57.0
888.74,62.0
888.8,58.0
888.87,78.0
888.93,75.0
888.99,75.0
889.06,71.0
889.12,60.0
889.18,73.0
889.24,87.0
889.31,91.0
889.37,89.0
889.43,98.0
889.5,75.0
889.56,93.0
889.62,80.0
889.69,68.0
889.75,79.0
889.81,81.0
889.87,74.0
889.94,76.0
890.0,70.0
890.06,81.0
890.13,83.0
890.19,82.0
890.25,91.0
890.32,108.0
890.38,121.0
890.44,114.0
890.5,94.0
890.57,111.0
890.63,93.0
890.69,60.0
890.76,66.0
890.82,66.0
890.88,68.0
890.95,61.0
891.01,77.0
891.07,75.0
891.13,63.0
891.2,66.0
891.26,72.0
891.32,54.0
891.39,51.0
891.45,50.0
891.51,53.0
891.58,72.0
891.64,77.0
891.7,70.0
891.76,77.0
891.83,68.0
891.89,52.0
891.95,72.0
892.02,66.0
892.08,61.0
892.14,83.0
892.21,82.0
892.27,101.0
892.33,103.0
892.39,99.0
892.46,103.0
892.52,107.0
892.58,90.0
892.65,99.0
892.71,100.0
892.77,86.0
892.84,106.0
892.9,117.0
892.96,123.0
893.02,131.0
893.09,126.0
893.15,94.0
893.21,110.0
893.28,126.0
893.34,116.0
893.4,100.0
893.47,129.0
893.53,133.0
893.59,133.0
893.65,131.0
893.72,122.0
893.78,131.0
893.84,143.0
893.91,126.0
893.97,126.0
894.03,144.0
894.1,145.0
894.16,137.0
894.22,125.0
894.28,139.0
894.35,133.0
894.41,139.0
894.47,143.0
894.54,152.0
894.6,139.0
894.66,147.0
894.73,151.0
894.79,130.0
894.85,137.0
894.91,143.0
894.98,152.0
895.04,159.0
895.1,187.0
895.17,187.0
895.23,176.0
895.29,175.0
895.36,161.0
895.42,160.0
895.48,162.0
895.54,161.0
895.61,161.0
895.67,172.0
895.73,173.0
895.8,185.0
895.86,162.0
895.92,146.0
895.99,151.0
896.05,164.0
896.11,159.0
896.17,163.0
896.24,185.0
896.3,169.0
896.36,185.0
896.43,170.0
896.49,160.0
896.55,162.0
896.62,148.0
896.68,159.0
896.74,169.0
896.8,176.0
896.87,176.0
896.93,179.0
896.99,181.0
897.06,195.0
897.12,202.0
897.18,191.0
897.25,178.0
897.31,176.0
897.37,200.0
897.43,185.0
897.5,191.0
897.56,176.0
897.62,174.0
897.69,195.0
897.75,192.0
897.81,183.0
897.88,171.0
897.94,157.0
898.0,171.0
898.06,137.0
898.13,162.0
898.19,157.0
898.25,149.0
898.32,140.0
898.38,140.0
898.44,146.0
898.51,142.0
898.57,155.0
898.63,155.0
898.69,170.0
898.76,151.0
898.82,154.0
898.88,180.0
898.95,163.0
899.01,165.0
899.07,156.0
899.14,162.0
899.2,171.0
899.26,164.0
899.32,151.0
899.39,149.0
899.45,142.0
899.51,145.0
899.58,143.0
899.64,133.0
899.7,135.0
899.77,126.0
899.83,157.0
899.89,141.0
899.95,108.0
900.02,123.0
900.08,130.0
900.14,148.0
900.21,133.0
900.27,132.0
900.33,156.0
900.4,136.0
900.46,151.0
900.52,145.0
900.58,155.0
900.65,150.0
900.71,146.0
900.77,126.0
900.84,138.0
900.9,136.0
900.96,137.0
901.03,132.0
901.09,139.0
901.15,162.0
901.21,165.0
901.28,163.0
901.34,157.0
901.4,154.0
901.47,155.0
901.53,170.0
901.59,149.0
901.66,155.0
901.72,174.0
901.78,168.0
901.84,160.0
901.91,157.0
901.97,180.0
902.03,171.0
902.1,169.0
902.16,182.0
902.22,186.0
902.29,201.0
902.35,206.0
902.41,208.0
902.47,209.0
902.54,193.0
902.6,170.0
902.66,187.0
902.73,192.0
902.79,190.0
902.85,187.0
902.92,205.0
902.98,209.0
903.04,212.0
903.1,206.0
903.17,205.0
903.23,215.0
903.29,204.0
903.36,193.0
903.42,210.0
903.48,234.0
903.55,211.0
903.61,200.0
903.67,229.0
903.73,225.0
903.8,214.0
903.86,204.0
903.92,223.0
903.99,207.0
904.05,209.0
904.11,212.0
904.18,211.0
904.24,196.0
904.3,185.0
904.36,185.0
904.43,189.0
904.49,195.0
904.55,182.0
904.62,170.0
904.68,194.0
904.74,181.0
904.81,188.0
904.87,207.0
904.93,193.0
904.99,174.0
905.06,186.0
905.12,216.0
905.18,214.0
905.25,210.0
905.31,218.0
905.37,221.0
905.44,200.0
905.5,208.0
905.56,214.0
905.62,221.0
905.69,243.0
905.75,233.0
905.81,220.0
905.88,221.0
905.94,239.0
906.0,246.0
906.07,229.0
906.13,222.0
906.19,225.0
906.25,215.0
906.32,228.0
906.38,239.0
906.44,236.0
906.51,238.0
906.57,222.0
906.63,238.0
906.7,239.0
906.76,234.0
906.82,209.0
906.88,214.0
906.95,229.0
907.01,238.0
907.07,216.0
907.14,200.0
907.2,211.0
907.26,221.0
907.33,206.0
907.39,213.0
907.45,218.0
907.51,232.0
907.58,207.0
907.64,187.0
907.7,208.0
907.77,214.0
907.83,200.0
907.89,214.0
907.96,200.0
908.02,181.0
908.08,190.0
908.14,179.0
908.21,185.0
908.27,195.0
908.33,188.0
908.4,172.0
908.46,147.0
908.52,140.0
908.59,153.0
908.65,154.0
908.71,154.0
908.77,176.0
908.84,161.0
908.9,162.0
908.96,149.0
909.03,134.0
909.09,130.0
909.15,129.0
909.22,143.0
909.28,159.0
909.34,148.0
909.4,141.0
909.47,149.0
909.53,136.0
909.59,142.0
909.66,158.0
909.72,133.0
909.78,132.0
909.85,147.0
909.91,121.0
909.97,121.0
910.03,132.0
910.1,133.0
910.16,141.0
910.22,133.0
910.29,119.0
910.35,125.0
910.41,122.0
910.48,124.0
910.54,127.0
910.6,132.0
910.66,133.0
910.73,115.0
910.79,126.0
910.85,124.0
910.92,116.0
910.98,135.0
911.04,133.0
911.11,125.0
911.17,121.0
911.23,108.0
911.29,137.0
911.36,131.0
911.42,126.0
911.48,125.0
911.55,124.0
911.61,154.0
911.67,162.0
911.74,132.0
911.8,119.0
911.86,131.0
911.92,103.0
911.99,104.0
912.05,119.0
912.11,142.0
912.18,123.0
912.24,99.0
912.3,104.0
912.37,69.0
912.43,93.0
912.49,113.0
912.55,93.0
912.62,100.0
912.68,109.0
912.74,97.0
912.81,97.0
912.87,108.0
912.93,95.0
913.0,108.0
913.06,102.0
913.12,107.0
913.18,109.0
913.25,104.0
913.31,113.0
913.37,119.0
913.44,115.0
913.5,106.0
913.56,113.0
913.63,122.0
913.69,135.0
913.75,141.0
913.81,105.0
913.88,107.0
913.94,116.0
914.0,122.0
914.07,101.0
914.13,99.0
914.19,114.0
914.26,111.0
914.32,120.0
914.38,109.0
914.44,104.0
914.51,89.0
914.57,94.0
914.63,84.0
914.7,62.0
914.76,82.0
914.82,70.0
914.89,54.0
914.95,71.0
915.01,74.0
915.07,52.0
915.14,75.0
915.2,61.0
915.26,71.0
915.33,84.0
915.39,82.0
915.45,62.0
915.52,72.0
915.58,82.0
915.64,67.0
915.7,62.0
915.77,69.0
915.83,53.0
915.89,82.0
915.96,95.0
916.02,82.0
916.08,85.0
916.15,75.0
916.21,76.0
916.27,88.0
916.33,83.0
916.4,71.0
916.46,79.0
916.52,64.0
916.59,59.0
916.65,58.0
916.71,61.0
916.78,81.0
916.84,79.0
916.9,63.0
916.96,59.0
917.03,78.0
917.09,75.0
917.15,78.0
917.22,83.0
917.28,85.0
917.34,95.0
917.41,88.0
917.47,103.0
917.53,75.0
917.59,101.0
917.66,97.0
917.72,87.0
917.78,95.0
917.85,82.0
917.91,87.0
917.97,86.0
918.04,93.0
918.1,94.0
918.16,85.0
918.22,102.0
918.29,99.0
918.35,103.0
918.41,93.0
918.48,91.0
918.54,97.0
918.6,103.0
918.67,110.0
918.73,83.0
918.79,81.0
918.85,89.0
918.92,95.0
918.98,100.0
919.04,100.0
919.11,102.0
919.17,89.0
919.23,85.0
919.3,97.0
919.36,93.0
919.42,83.0
919.48,104.0
919.55,88.0
919.61,90.0
919.67,100.0
919.74,114.0
919.8,117.0
919.86,131.0
919.93,131.0
919.99,118.0
920.05,131.0
920.11,124.0
920.18,130.0
920.24,122.0
920.3,143.0
920.37,137.0
920.43,124.0
920.49,141.0
920.56,137.0
920.62,127.0
920.68,121.0
920.74,125.0
920.81,151.0
920.87,133.0
920.93,141.0
921.0,123.0
921.06,139.0
921.12,148.0
921.19,147.0
921.25,140.0
921.31,143.0
921.37,138.0
921.44,128.0
921.5,143.0
921.56,146.0
921.63,135.0
921.69,122.0
921.75,126.0
921.82,145.0
921.88,130.0
921.94,106.0
922.0,116.0
922.07,118.0
922.13,131.0
922.19,145.0
922.26,139.0
922.32,151.0
922.38,159.0
922.45,141.0
922.51,148.0
922.57,127.0
922.63,126.0
922.7,140.0
922.76,157.0
922.82,133.0
922.89,138.0
922.95,163.0
923.01,158.0
923.08,163.0
923.14,159.0
923.2,159.0
923.26,155.0
923.33,166.0
923.39,178.0
923.45,181.0
923.52,176.0
923.58,165.0
923.64,170.0
923.71,139.0
923.77,137.0
923.83,134.0
923.89,152.0
923.96,143.0
924.02,131.0
924.08,130.0
924.15,121.0
924.21,124.0
924.27,136.0
924.34,118.0
924.4,121.0
924.46,137.0
924.52,144.0
924.59,140.0
924.65,136.0
924.71,121.0
924.78,128.0
924.84,149.0
924.9,141.0
924.97,154.0
925.03,134.0
925.09,137.0
925.15,157.0
925.22,138.0
925.28,129.0
925.34,132.0
925.41,119.0
925.47,109.0
925.53,118.0
925.6,122.0
925.66,122.0
925.72,139.0
925.78,130.0
925.85,126.0
925.91,113.0
925.97,143.0
926.04,119.0
926.1,132.0
926.16,124.0
926.23,128.0
926.29,122.0
926.35,124.0
926.41,119.0
926.48,136.0
926.54,144.0
926.6,150.0
926.67,146.0
926.73,134.0
926.79,154.0
926.86,165.0
926.92,157.0
926.98,163.0
927.04,188.0
927.11,178.0
927.17,150.0
927.23,160.0
927.3,142.0
927.36,150.0
927.42,163.0
927.49,150.0
927.55,155.0
927.61,165.0
927.67,171.0
927.74,163.0
927.8,151.0
927.86,184.0
927.93,185.0
927.99,155.0
928.05,166.0
928.12,144.0
928.18,154.0
928.24,161.0
928.3,165.0
928.37,172.0
928.43,173.0
928.49,165.0
928.56,165.0
928.62,181.0
928.68,168.0
928.75,181.0
928.81,200.0
928.87,193.0
928.93,207.0
929.0,207.0
929.06,192.0
929.12,196.0
929.19,179.0
929.25,213.0
929.31,196.0
929.38,181.0
929.44,183.0
929.5,161.0
929.56,168.0
929.63,169.0
929.69,178.0
929.75,176.0
929.82,176.0
929.88,169.0
929.94,160.0
930.01,154.0
930.07,158.0
930.13,158.0
930.19,154.0
930.26,176.0
930.32,172.0
930.38,155.0
930.45,149.0
930.51,163.0
930.57,167.0
930.64,145.0
930.7,165.0
930.76,140.0
930.82,147.0
930.89,151.0
930.95,160.0
931.01,166.0
931.08,182.0
931.14,157.0
931.2,148.0
931.27,155.0
931.33,149.0
931.39,132.0
931.45,139.0
931.52,134.0
931.58,116.0
931.64,134.0
931.71,125.0
931.77,136.0
931.83,121.0
931.9,115.0
931.96,120.0
932.02,120.0
932.08,112.0
932.15,135.0
932.21,138.0
932.27,128.0
932.34,115.0
932.4,116.0
932.46,117.0
932.53,115.0
932.59,116.0
932.65,96.0
932.71,108.0
932.78,96.0
932.84,88.0
932.9,99.0
932.97,119.0
933.03,106.0
933.09,112.0
933.16,107.0
933.22,107.0
933.28,111.0
933.34,120.0
933.41,119.0
933.47,110.0
933.53,118.0
933.6,112.0
933.66,117.0
933.72,121.0
933.79,111.0
933.85,98.0
933.91,83.0
933.97,93.0
934.04,85.0
934.1,87.0
934.16,105.0
934.23,86.0
934.29,79.0
934.35,111.0
934.42,88.0
934.48,90.0
934.54,93.0
934.6,91.0
934.67,100.0
934.73,98.0
934.79,87.0
934.86,102.0
934.92,92.0
934.98,72.0
935.05,63.0
935.11,69.0
935.17,88.0
935.23,80.0
935.3,53.0
935.36,74.0
935.42,80.0
935.49,53.0
935.55,50.0
935.61,62.0
935.68,78.0
935.74,71.0
935.8,73.0
935.86,68.0
935.93,72.0
935.99,65.0
936.05,68.0
936.12,79.0
936.18,43.0
936.24,68.0
936.31,66.0
936.37,72.0
936.43,79.0
936.49,67.0
936.56,64.0
936.62,73.0
936.68,64.0
936.75,72.0
936.81,56.0
936.87,47.0
936.94,53.0
937.0,42.0
937.06,46.0
937.12,46.0
937.19,49.0
937.25,61.0
937.31,61.0
937.38,66.0
937.44,58.0
937.5,70.0
937.57,58.0
937.63,75.0
937.69,85.0
937.75,67.0
937.82,60.0
937.88,83.0
937.94,89.0
938.01,94.0
938.07,73.0
938.13,69.0
938.2,66.0
938.26,71.0
938.32,71.0
938.38,77.0
938.45,101.0
938.51,91.0
938.57,75.0
938.64,70.0
938.7,85.0
938.76,83.0
938.83,65.0
938.89,86.0
938.95,74.0
939.01,50.0
939.08,75.0
939.14,82.0
939.2,67.0
939.27,75.0
939.33,60.0
939.39,61.0
939.46,56.0
939.52,52.0
939.58,59.0
939.64,63.0
939.71,57.0
939.77,78.0
939.83,64.0
939.9,69.0
939.96,63.0
940.02,60.0
940.09,86.0
940.15,74.0
940.21,83.0
940.27,86.0
940.34,75.0
940.4,64.0
940.46,62.0
940.53,66.0
940.59,82.0
940.65,104.0
940.72,88.0
940.78,92.0
940.84,79.0
940.9,79.0
940.97,78.0
941.03,64.0
941.09,73.0
941.16,64.0
941.22,92.0
941.28,86.0
941.35,55.0
941.41,66.0
941.47,79.0
941.53,93.0
941.6,79.0
941.66,67.0
941.72,63.0
941.79,61.0
941.85,43.0
941.91,44.0
941.98,56.0
942.04,54.0
942.1,55.0
942.16,66.0
942.23,75.0
942.29,75.0
942.35,58.0
942.42,32.0
942.48,36.0
942.54,34.0
942.61,41.0
942.67,65.0
942.73,60.0
942.79,50.0
942.86,52.0
942.92,44.0
942.98,36.0
943.05,42.0
943.11,25.0
943.17,34.0
943.24,12.0
943.3,33.0
943.36,37.0
943.42,34.0
943.49,41.0
943.55,51.0
943.61,61.0
943.68,57.0
943.74,62.0
943.8,44.0
943.87,58.0
943.93,60.0
943.99,41.0
944.05,61.0
944.12,36.0
944.18,52.0
944.24,54.0
944.31,39.0
944.37,38.0
944.43,42.0
944.5,54.0
944.56,70.0
944.62,56.0
944.68,64.0
944.75,58.0
944.81,53.0
944.87,51.0
944.94,57.0
945.0,76.0
945.06,92.0
945.13,77.0
945.19,83.0
945.25,78.0
945.31,68.0
945.38,84.0
945.44,79.0
945.5,74.0
945.57,88.0
945.63,96.0
945.69,92.0
945.76,89.0
945.82,81.0
945.88,61.0
945.94,62.0
946.01,82.0
946.07,67.0
946.13,66.0
946.2,75.0
946.26,87.0
946.32,89.0
946.39,93.0
946.45,91.0
946.51,94.0
946.57,129.0
946.64,110.0
946.7,117.0
946.76,109.0
946.83,112.0
946.89,111.0
946.95,101.0
947.02,104.0
947.08,116.0
947.14,117.0
947.2,112.0
947.27,124.0
947.33,134.0
947.39,131.0
947.46,119.0
947.52,110.0
947.58,116.0
947.65,118.0
947.71,113.0
947.77,113.0
947.83,105.0
947.9,108.0
947.96,105.0
948.02,103.0
948.09,94.0
948.15,76.0
948.21,110.0
948.28,103.0
948.34,107.0
948.4,109.0
948.46,132.0
948.53,155.0
948.59,128.0
948.65,137.0
948.72,124.0
948.78,136.0
948.84,144.0
948.91,114.0
948.97,113.0
949.03,109.0
949.09,107.0
949.16,111.0
949.22,130.0
949.28,119.0
949.35,123.0
949.41,131.0
949.47,134.0
949.54,132.0
949.6,134.0
949.66,123.0
949.72,129.0
949.79,130.0
949.85,111.0
949.91,123.0
949.98,121.0
950.04,108.0
950.1,138.0
950.17,133.0
950.23,126.0
950.29,133.0
950.35,145.0
950.42,131.0
950.48,113.0
950.54,110.0
950.61,99.0
950.67,103.0
950.73,90.0
950.8,119.0
950.86,123.0
950.92,121.0
950.98,133.0
951.05,100.0
951.11,102.0
951.17,116.0
951.24,117.0
951.3,103.0
951.36,101.0
951.43,124.0
951.49,149.0
951.55,135.0
951.61,139.0
951.68,130.0
951.74,109.0
951.8,110.0
951.87,123.0
951.93,135.0
951.99,134.0
952.06,148.0
952.12,141.0
952.18,149.0
952.24,149.0
952.31,163.0
952.37,154.0
952.43,162.0
952.5,161.0
952.56,181.0
952.62,196.0
952.69,173.0
952.75,186.0
952.81,199.0
952.87,194.0
952.94,198.0
953.0,196.0
953.06,220.0
953.13,213.0
953.19,202.0
953.25,185.0
953.32,180.0
953.38,176.0
953.44,176.0
953.5,188.0
953.57,189.0
953.63,192.0
953.69,182.0
953.76,175.0
953.82,185.0
953.88,182.0
953.95,188.0
954.01,191.0
954.07,214.0
954.13,201.0
954.2,200.0
954.26,196.0
954.32,200.0
954.39,230.0
954.45,211.0
954.51,212.0
954.58,204.0
954.64,218.0
954.7,221.0
954.76,218.0
954.83,224.0
954.89,215.0
954.95,220.0
955.02,211.0
955.08,206.0
955.14,199.0
955.21,213.0
955.27,206.0
955.33,207.0
955.39,217.0
955.46,222.0
955.52,212.0
955.58,200.0
955.65,220.0
955.71,198.0
955.77,200.0
955.84,211.0
955.9,216.0
955.96,214.0
956.02,219.0
956.09,220.0
956.15,236.0
956.21,226.0
956.28,247.0
956.34,240.0
956.4,252.0
956.47,242.0
956.53,236.0
956.59,233.0
956.65,229.0
956.72,241.0
956.78,254.0
956.84,251.0
956.91,247.0
956.97,260.0
957.03,247.0
957.1,243.0
957.16,236.0
957.22,233.0
957.28,234.0
957.35,247.0
957.41,261.0
957.47,243.0
957.54,254.0
957.6,258.0
957.66,254.0
957.73,255.0
957.79,251.0
957.85,232.0
957.91,222.0
957.98,217.0
958.04,221.0
958.1,210.0
958.17,214.0
958.23,241.0
958.29,221.0
958.36,243.0
958.42,232.0
958.48,216.0
958.54,224.0
958.61,219.0
958.67,195.0
958.73,202.0
958.8,213.0
958.86,188.0
958.92,203.0
958.99,211.0
959.05,200.0
959.11,200.0
959.17,187.0
959.24,198.0
959.3,193.0
959.36,184.0
959.43,184.0
959.49,188.0
959.55,196.0
959.62,192.0
959.68,215.0
959.74,181.0
959.8,195.0
959.87,193.0
959.93,201.0
959.99,201.0
960.06,181.0
960.12,181.0
960.18,164.0
960.25,178.0
960.31,168.0
960.37,170.0
960.43,160.0
960.5,155.0
960.56,162.0
960.62,168.0
960.69,161.0
960.75,146.0
960.81,159.0
960.88,148.0
960.94,154.0
961.0,157.0
961.06,160.0
961.13,146.0
961.19,157.0
961.25,146.0
961.32,142.0
961.38,167.0
961.44,156.0
961.51,149.0
961.57,155.0
961.63,166.0
961.69,160.0
961.76,145.0
961.82,143.0
961.88,159.0
961.95,166.0
962.01,171.0
962.07,185.0
962.14,177.0
962.2,171.0
962.26,173.0
962.32,168.0
962.39,165.0
962.45,171.0
962.51,166.0
962.58,173.0
962.64,149.0
962.7,166.0
962.77,165.0
962.83,153.0
962.89,152.0
962.95,149.0
963.02,137.0
963.08,144.0
963.14,141.0
963.21,137.0
963.27,109.0
963.33,125.0
963.4,115.0
963.46,121.0
963.52,128.0
963.58,119.0
963.65,120.0
963.71,103.0
963.77,120.0
963.84,129.0
963.9,104.0
963.96,120.0
964.03,110.0
964.09,91.0
964.15,92.0
964.21,82.0
964.28,85.0
964.34,91.0
964.4,95.0
964.47,99.0
964.53,89.0
964.59,97.0
964.66,91.0
964.72,99.0
964.78,107.0
964.84,93.0
964.91,93.0
964.97,95.0
965.03,89.0
965.1,87.0
965.16,90.0
965.22,95.0
965.29,104.0
965.35,109.0
965.41,93.0
965.47,87.0
965.54,99.0
965.6,111.0
965.66,104.0
965.73,94.0
965.79,111.0
965.85,88.0
965.92,91.0
965.98,93.0
966.04,104.0
966.1,110.0
966.17,93.0
966.23,97.0
966.29,108.0
966.36,110.0
966.42,87.0
966.48,88.0
966.55,102.0
966.61,101.0
966.67,67.0
966.73,75.0
966.8,94.0
966.86,81.0
966.92,71.0
966.99,79.0
967.05,58.0
967.11,68.0
967.18,74.0
967.24,84.0
967.3,101.0
967.36,99.0
967.43,86.0
967.49,74.0
967.55,67.0
967.62,74.0
967.68,89.0
967.74,87.0
967.81,91.0
967.87,76.0
967.93,79.0
967.99,88.0
968.06,84.0
968.12,97.0
968.18,101.0
968.25,91.0
968.31,102.0
968.37,90.0
968.44,97.0
968.5,113.0
968.56,113.0
968.62,116.0
968.69,105.0
968.75,131.0
968.81,118.0
968.88,133.0
968.94,121.0
969.0,126.0
969.07,134.0
969.13,115.0
969.19,133.0
969.25,130.0
969.32,115.0
969.38,112.0
969.44,94.0
969.51,97.0
969.57,97.0
969.63,108.0
969.7,126.0
969.76,122.0
969.82,117.0
969.88,140.0
969.95,126.0
970.01,137.0
970.07,144.0
970.14,138.0
970.2,147.0
970.26,136.0
970.33,133.0
970.39,138.0
970.45,129.0
970.51,126.0
970.58,135.0
970.64,158.0
970.7,148.0
970.77,134.0
970.83,148.0
970.89,138.0
970.96,137.0
971.02,138.0
971.08,135.0
971.14,151.0
971.21,127.0
971.27,127.0
971.33,145.0
971.4,152.0
971.46,153.0
971.52,143.0
971.59,144.0
971.65,139.0
971.71,169.0
971.77,155.0
971.84,170.0
971.9,161.0
971.96,148.0
972.03,165.0
972.09,172.0
972.15,173.0
972.22,182.0
972.28,174.0
972.34,164.0
972.4,187.0
972.47,194.0
972.53,184.0
972.59,176.0
972.66,186.0
972.72,192.0
972.78,196.0
972.85,188.0
972.91,174.0
972.97,176.0
973.03,203.0
973.1,196.0
973.16,169.0
973.22,196.0
973.29,183.0
973.35,200.0
973.41,185.0
973.48,200.0
973.54,226.0
973.6,219.0
973.66,214.0
973.73,209.0
973.79,202.0
973.85,204.0
973.92,217.0
973.98,215.0
974.04,215.0
974.11,211.0
974.17,220.0
974.23,215.0
974.29,178.0
974.36,187.0
974.42,193.0
974.48,179.0
974.55,192.0
974.61,189.0
974.67,175.0
974.74,185.0
974.8,170.0
974.86,175.0
974.92,165.0
974.99,137.0
975.05,149.0
975.11,139.0
975.18,126.0
975.24,126.0
975.3,154.0
975.37,146.0
975.43,143.0
975.49,152.0
975.55,165.0
975.62,177.0
975.68,157.0
975.74,155.0
975.81,133.0
975.87,132.0
975.93,151.0
976.0,163.0
976.06,159.0
976.12,149.0
976.18,137.0
976.25,154.0
976.31,157.0
976.37,157.0
976.44,170.0
976.5,157.0
976.56,178.0
976.63,177.0
976.69,162.0
976.75,191.0
976.81,163.0
976.88,167.0
976.94,163.0
977.0,160.0
977.07,170.0
977.13,149.0
977.19,165.0
977.26,142.0
977.32,124.0
977.38,134.0
977.44,154.0
977.51,132.0
977.57,146.0
977.63,152.0
977.7,163.0
977.76,148.0
977.82,129.0
977.89,155.0
977.95,151.0
978.01,146.0
978.07,143.0
978.14,148.0
978.2,134.0
978.26,129.0
978.33,135.0
978.39,130.0
978.45,123.0
978.52,124.0
978.58,110.0
978.64,142.0
978.7,140.0
978.77,134.0
978.83,120.0
978.89,126.0
978.96,130.0
979.02,116.0
979.08,111.0
979.15,141.0
979.21,159.0
979.27,155.0
979.33,166.0
979.4,152.0
979.46,155.0
979.52,141.0
979.59,144.0
979.65,158.0
979.71,163.0
979.78,145.0
979.84,138.0
979.9,126.0
979.96,121.0
980.03,122.0
980.09,127.0
980.15,120.0
980.22,130.0
980.28,132.0
980.34,113.0
980.41,113.0
980.47,124.0
980.53,130.0
980.59,119.0
980.66,129.0
980.72,124.0
980.78,110.0
980.85,130.0
980.91,126.0
980.97,115.0
981.04,123.0
981.1,159.0
981.16,145.0
981.22,133.0
981.29,129.0
981.35,127.0
981.41,137.0
981.48,137.0
981.54,132.0
981.6,133.0
981.67,113.0
981.73,130.0
981.79,111.0
981.85,105.0
981.92,102.0
981.98,136.0
982.04,132.0
982.11,123.0
982.17,136.0
982.23,113.0
982.3,113.0
982.36,106.0
982.42,100.0
982.48,104.0
982.55,104.0
982.61,114.0
982.67,119.0
982.74,127.0
982.8,116.0
982.86,127.0
982.93,130.0
982.99,118.0
983.05,114.0
983.11,113.0
983.18,122.0
983.24,107.0
983.3,111.0
983.37,93.0
983.43,81.0
983.49,99.0
983.56,86.0
983.62,83.0
983.68,86.0
983.74,101.0
983.81,113.0
983.87,108.0
983.93,102.0
984.0,94.0
984.06,112.0
984.12,102.0
984.19,97.0
984.25,126.0
984.31,116.0
984.37,123.0
984.44,102.0
984.5,114.0
984.56,100.0
984.63,104.0
984.69,111.0
984.75,88.0
984.82,108.0
984.88,132.0
984.94,108.0
985.0,111.0
985.07,96.0
985.13,97.0
985.19,94.0
985.26,89.0
985.32,94.0
985.38,122.0
985.45,103.0
985.51,75.0
985.57,67.0
985.63,85.0
985.7,105.0
985.76,97.0
985.82,90.0
985.89,107.0
985.95,95.0
986.01,89.0
986.08,92.0
986.14,79.0
986.2,85.0
986.26,73.0
986.33,43.0
986.39,83.0
986.45,77.0
986.52,55.0
986.58,62.0
986.64,53.0
986.71,73.0
986.77,93.0
986.83,103.0
986.89,88.0
986.96,80.0
987.02,97.0
987.08,97.0
987.15,79.0
987.21,88.0
987.27,82.0
987.34,76.0
987.4,74.0
987.46,75.0
987.52,59.0
987.59,55.0
987.65,77.0
987.71,79.0
987.78,75.0
987.84,78.0
987.9,91.0
987.97,87.0
988.03,89.0
988.09,100.0
988.15,95.0
988.22,85.0
988.28,100.0
988.34,79.0
988.41,98.0
988.47,109.0
988.53,110.0
988.6,97.0
988.66,115.0
988.72,117.0
988.78,110.0
988.85,106.0
988.91,89.0
988.97,97.0
989.04,104.0
989.1,114.0
989.16,78.0
989.23,102.0
989.29,104.0
989.35,108.0
989.41,89.0
989.48,104.0
989.54,100.0
989.6,107.0
989.67,93.0
989.73,80.0
989.79,83.0
989.86,84.0
989.92,110.0
989.98,87.0
990.04,85.0
990.11,102.0
990.17,101.0
990.23,101.0
990.3,128.0
990.36,121.0
990.42,133.0
990.49,134.0
990.55,122.0
990.61,123.0
990.67,136.0
990.74,110.0
990.8,95.0
990.86,95.0
990.93,112.0
990.99,116.0
991.05,95.0
991.12,101.0
991.18,76.0
991.24,80.0
991.3,74.0
991.37,82.0
991.43,74.0
991.49,94.0
991.56,89.0
991.62,86.0
991.68,97.0
991.75,97.0
991.81,104.0
991.87,91.0
991.93,88.0
992.0,92.0
992.06,104.0
992.12,100.0
992.19,94.0
992.25,96.0
992.31,126.0
992.38,95.0
992.44,83.0
992.5,115.0
992.56,110.0
992.63,108.0
992.69,82.0
992.75,83.0
992.82,91.0
992.88,83.0
992.94,75.0
993.01,82.0
993.07,92.0
993.13,71.0
993.19,61.0
993.26,64.0
993.32,83.0
993.38,88.0
993.45,82.0
993.51,122.0
993.57,104.0
993.64,97.0
993.7,108.0
993.76,110.0
993.82,101.0
993.89,75.0
993.95,84.0
994.01,66.0
994.08,88.0
994.14,90.0
994.2,80.0
994.27,82.0
994.33,70.0
994.39,83.0
994.45,97.0
994.52,80.0
994.58,90.0
994.64,81.0
994.71,78.0
994.77,89.0
994.83,81.0
994.9,87.0
994.96,80.0
995.02,94.0
995.08,108.0
995.15,95.0
995.21,93.0
995.27,86.0
995.34,80.0
995.4,66.0
995.46,72.0
995.53,82.0
995.59,67.0
995.65,74.0
995.71,101.0
995.78,91.0
995.84,97.0
995.9,99.0
995.97,91.0
996.03,96.0
996.09,69.0
996.16,69.0
996.22,82.0
996.28,74.0
996.34,71.0
996.41,64.0
996.47,61.0
996.53,64.0
996.6,36.0
996.66,37.0
996.72,54.0
996.79,51.0
996.85,64.0
996.91,63.0
996.97,69.0
997.04,77.0
997.1,54.0
997.16,66.0
997.23,86.0
997.29,72.0
997.35,61.0
997.42,64.0
997.48,80.0
997.54,85.0
997.6,77.0
997.67,36.0
997.73,63.0
997.79,69.0
997.86,60.0
997.92,57.0
997.98,65.0
998.05,42.0
998.11,58.0
998.17,81.0
998.23,55.0
998.3,53.0
998.36,57.0
998.42,56.0
998.49,70.0
998.55,52.0
998.61,40.0
998.68,35.0
998.74,65.0
998.8,52.0
998.86,55.0
998.93,69.0
998.99,49.0
999.05,46.0
999.12,53.0
999.18,62.0
999.24,66.0
999.31,68.0
999.37,54.0
999.43,82.0
999.49,75.0
999.56,86.0
999.62,84.0
999.68,75.0
999.75,71.0
999.81,60.0
999.87,91.0
