timestamp,intensity
0,-355.0
0.06,-339.0
0.13,-322.0
0.19,-323.0
0.25,-331.0
0.32,-312.0
0.38,-292.0
0.44,-299.0
0.5,-296.0
0.57,-282.0
0.63,-295.0
0.69,-291.0
0.76,-293.0
0.82,-287.0
0.88,-274.0
0.94,-290.0
1.01,-281.0
1.07,-317.0
1.13,-289.0
1.2,-291.0
1.26,-293.0
1.32,-272.0
1.39,-281.0
1.45,-298.0
1.51,-313.0
1.57,-300.0
1.64,-312.0
1.7,-334.0
1.76,-327.0
1.83,-326.0
1.89,-315.0
1.95,-292.0
2.02,-314.0
2.08,-324.0
2.14,-308.0
2.2,-314.0
2.27,-309.0
2.33,-308.0
2.39,-325.0
2.46,-319.0
2.52,-315.0
2.58,-300.0
2.65,-305.0
2.71,-305.0
2.77,-304.0
2.84,-315.0
2.9,-316.0
2.96,-315.0
3.02,-309.0
3.09,-331.0
3.15,-346.0
3.21,-322.0
3.28,-312.0
3.34,-296.0
3.4,-287.0
3.47,-300.0
3.53,-286.0
3.59,-300.0
3.65,-283.0
3.72,-269.0
3.78,-281.0
3.84,-284.0
3.91,-297.0
3.97,-299.0
4.03,-285.0
4.1,-310.0
4.16,-322.0
4.22,-316.0
4.28,-321.0
4.35,-327.0
4.41,-334.0
4.47,-317.0
4.54,-310.0
4.6,-322.0
4.66,-311.0
4.73,-324.0
4.79,-335.0
4.85,-338.0
4.91,-324.0
4.98,-315.0
5.04,-308.0
5.1,-287.0
5.17,-303.0
5.23,-313.0
5.29,-306.0
5.35,-304.0
5.42,-288.0
5.48,-286.0
5.54,-301.0
5.61,-311.0
5.67,-299.0
5.73,-299.0
5.8,-309.0
5.86,-313.0
5.92,-322.0
5.98,-286.0
6.05,-303.0
6.11,-315.0
6.17,-310.0
6.24,-322.0
6.3,-290.0
6.36,-314.0
6.43,-322.0
6.49,-306.0
6.55,-297.0
6.61,-290.0
6.68,-279.0
6.74,-275.0
6.8,-280.0
6.87,-276.0
6.93,-264.0
6.99,-265.0
7.06,-260.0
7.12,-267.0
7.18,-258.0
7.24,-245.0
7.31,-253.0
7.37,-261.0
7.43,-271.0
7.5,-268.0
7.56,-268.0
7.62,-252.0
7.69,-259.0
7.75,-263.0
7.81,-256.0
7.87,-256.0
7.94,-265.0
8.0,-233.0
8.06,-238.0
8.13,-252.0
8.19,-228.0
8.25,-241.0
8.32,-221.0
8.38,-225.0
8.44,-223.0
8.5,-215.0
8.57,-223.0
8.63,-208.0
8.69,-207.0
8.76,-215.0
8.82,-201.0
8.88,-199.0
8.95,-200.0
9.01,-201.0
9.07,-185.0
9.13,-194.0
9.2,-204.0
9.26,-182.0
9.32,-193.0
9.39,-167.0
9.45,-153.0
9.51,-168.0
9.58,-171.0
9.64,-174.0
9.7,-153.0
9.77,-167.0
9.83,-158.0
9.89,-164.0
9.95,-169.0
10.02,-163.0
10.08,-178.0
10.14,-179.0
10.21,-170.0
10.27,-153.0
10.33,-152.0
10.4,-173.0
10.46,-185.0
10.52,-169.0
10.58,-152.0
10.65,-165.0
10.71,-157.0
10.77,-159.0
10.84,-166.0
10.9,-156.0
10.96,-150.0
11.03,-142.0
11.09,-154.0
11.15,-137.0
11.21,-117.0
11.28,-125.0
11.34,-136.0
11.4,-132.0
11.47,-122.0
11.53,-129.0
11.59,-142.0
11.66,-128.0
11.72,-107.0
11.78,-110.0
11.84,-114.0
11.91,-121.0
11.97,-111.0
12.03,-122.0
12.1,-126.0
12.16,-112.0
12.22,-123.0
12.29,-148.0
12.35,-135.0
12.41,-140.0
12.47,-128.0
12.54,-160.0
12.6,-154.0
12.66,-142.0
12.73,-163.0
12.79,-170.0
12.85,-181.0
12.92,-171.0
12.98,-179.0
13.04,-188.0
13.1,-191.0
13.17,-196.0
13.23,-197.0
13.29,-203.0
13.36,-218.0
13.42,-216.0
13.48,-204.0
13.55,-229.0
13.61,-242.0
13.67,-241.0
13.73,-238.0
13.8,-227.0
13.86,-220.0
13.92,-220.0
13.99,-225.0
14.05,-248.0
14.11,-253.0
14.18,-243.0
14.24,-248.0
14.3,-260.0
14.36,-260.0
14.43,-263.0
14.49,-261.0
14.55,-256.0
14.62,-246.0
14.68,-251.0
14.74,-262.0
14.81,-262.0
14.87,-265.0
14.93,-231.0
14.99,-231.0
15.06,-242.0
15.12,-233.0
15.18,-230.0
15.25,-221.0
15.31,-239.0
15.37,-239.0
15.44,-226.0
15.5,-217.0
15.56,-209.0
15.62,-216.0
15.69,-209.0
15.75,-215.0
15.81,-220.0
15.88,-209.0
15.94,-221.0
16.0,-213.0
16.07,-233.0
16.13,-241.0
16.19,-226.0
16.25,-243.0
16.32,-249.0
16.38,-244.0
16.44,-231.0
16.51,-220.0
16.57,-219.0
16.63,-232.0
16.7,-224.0
16.76,-218.0
16.82,-210.0
16.88,-206.0
16.95,-212.0
17.01,-199.0
17.07,-210.0
17.14,-201.0
17.2,-223.0
17.26,-218.0
17.33,-206.0
17.39,-203.0
17.45,-202.0
17.51,-190.0
17.58,-199.0
17.64,-209.0
17.7,-201.0
17.77,-215.0
17.83,-223.0
17.89,-232.0
17.96,-228.0
18.02,-196.0
18.08,-194.0
18.14,-208.0
18.21,-223.0
18.27,-224.0
18.33,-212.0
18.4,-208.0
18.46,-215.0
18.52,-214.0
18.59,-206.0
18.65,-212.0
18.71,-201.0
18.77,-209.0
18.84,-230.0
18.9,-221.0
18.96,-224.0
19.03,-234.0
19.09,-243.0
19.15,-242.0
19.22,-244.0
19.28,-245.0
19.34,-252.0
19.4,-243.0
19.47,-240.0
19.53,-235.0
19.59,-224.0
19.66,-240.0
19.72,-235.0
19.78,-236.0
19.84,-264.0
19.91,-233.0
19.97,-228.0
20.03,-222.0
20.1,-220.0
20.16,-233.0
20.22,-211.0
20.29,-212.0
20.35,-215.0
20.41,-222.0
20.47,-226.0
20.54,-222.0
20.6,-217.0
20.66,-209.0
20.73,-225.0
20.79,-222.0
20.85,-212.0
20.92,-214.0
20.98,-217.0
21.04,-212.0
21.1,-232.0
21.17,-218.0
21.23,-218.0
21.29,-225.0
21.36,-227.0
21.42,-246.0
21.48,-259.0
21.55,-234.0
21.61,-252.0
21.67,-268.0
21.73,-247.0
21.8,-257.0
21.86,-242.0
21.92,-248.0
21.99,-268.0
22.05,-263.0
22.11,-269.0
22.18,-262.0
22.24,-255.0
22.3,-241.0
22.36,-256.0
22.43,-273.0
22.49,-268.0
22.55,-249.0
22.62,-246.0
22.68,-248.0
22.74,-271.0
22.81,-261.0
22.87,-241.0
22.93,-274.0
22.99,-259.0
23.06,-252.0
23.12,-257.0
23.18,-259.0
23.25,-248.0
23.31,-256.0
23.37,-258.0
23.44,-272.0
23.5,-263.0
23.56,-246.0
23.62,-252.0
23.69,-247.0
23.75,-238.0
23.81,-257.0
23.88,-250.0
23.94,-258.0
24.0,-256.0
24.07,-250.0
24.13,-253.0
24.19,-252.0
24.25,-254.0
24.32,-265.0
24.38,-257.0
24.44,-229.0
24.51,-244.0
24.57,-254.0
24.63,-221.0
24.7,-223.0
24.76,-224.0
24.82,-222.0
24.88,-241.0
24.95,-242.0
25.01,-256.0
25.07,-218.0
25.14,-232.0
25.2,-215.0
25.26,-223.0
25.33,-228.0
25.39,-201.0
25.45,-179.0
25.51,-198.0
25.58,-219.0
25.64,-215.0
25.7,-210.0
25.77,-208.0
25.83,-218.0
25.89,-211.0
25.96,-198.0
26.02,-204.0
26.08,-210.0
26.14,-208.0
26.21,-196.0
26.27,-190.0
26.33,-196.0
26.4,-194.0
26.46,-207.0
26.52,-204.0
26.59,-191.0
26.65,-188.0
26.71,-212.0
26.77,-204.0
26.84,-181.0
26.9,-167.0
26.96,-203.0
27.03,-199.0
27.09,-183.0
27.15,-196.0
27.22,-187.0
27.28,-185.0
27.34,-195.0
27.4,-206.0
27.47,-188.0
27.53,-211.0
27.59,-189.0
27.66,-195.0
27.72,-189.0
27.78,-197.0
27.85,-210.0
27.91,-205.0
27.97,-195.0
28.03,-184.0
28.1,-196.0
28.16,-217.0
28.22,-226.0
28.29,-210.0
28.35,-204.0
28.41,-216.0
28.48,-223.0
28.54,-232.0
28.6,-216.0
28.66,-213.0
28.73,-204.0
28.79,-203.0
28.85,-217.0
28.92,-211.0
28.98,-211.0
29.04,-213.0
29.11,-231.0
29.17,-229.0
29.23,-217.0
29.29,-223.0
29.36,-227.0
29.42,-241.0
29.48,-252.0
29.55,-230.0
29.61,-230.0
29.67,-223.0
29.74,-235.0
29.8,-261.0
29.86,-246.0
29.92,-246.0
29.99,-253.0
30.05,-261.0
30.11,-252.0
30.18,-283.0
30.24,-258.0
30.3,-257.0
30.37,-251.0
30.43,-264.0
30.49,-258.0
30.55,-262.0
30.62,-249.0
30.68,-258.0
30.74,-276.0
30.81,-274.0
30.87,-283.0
30.93,-273.0
31.0,-266.0
31.06,-250.0
31.12,-270.0
31.18,-265.0
31.25,-259.0
31.31,-260.0
31.37,-258.0
31.44,-273.0
31.5,-258.0
31.56,-258.0
31.63,-226.0
31.69,-227.0
31.75,-244.0
31.81,-251.0
31.88,-259.0
31.94,-262.0
32.0,-261.0
32.07,-273.0
32.13,-276.0
32.19,-248.0
32.26,-258.0
32.32,-267.0
32.38,-236.0
32.44,-247.0
32.51,-224.0
32.57,-238.0
32.63,-214.0
32.7,-219.0
32.76,-229.0
32.82,-224.0
32.89,-236.0
32.95,-229.0
33.01,-225.0
33.07,-228.0
33.14,-233.0
33.2,-247.0
33.26,-256.0
33.33,-253.0
33.39,-243.0
33.45,-256.0
33.52,-247.0
33.58,-246.0
33.64,-238.0
33.7,-231.0
33.77,-245.0
33.83,-225.0
33.89,-225.0
33.96,-213.0
34.02,-190.0
34.08,-216.0
34.15,-216.0
34.21,-200.0
34.27,-195.0
34.33,-183.0
34.4,-182.0
34.46,-191.0
34.52,-179.0
34.59,-181.0
34.65,-205.0
34.71,-185.0
34.78,-153.0
34.84,-187.0
34.9,-169.0
34.96,-169.0
35.03,-151.0
35.09,-156.0
35.15,-140.0
35.22,-140.0
35.28,-142.0
35.34,-122.0
35.41,-133.0
35.47,-129.0
35.53,-133.0
35.59,-123.0
35.66,-118.0
35.72,-141.0
35.78,-139.0
35.85,-140.0
35.91,-141.0
35.97,-125.0
36.04,-133.0
36.1,-134.0
36.16,-112.0
36.22,-119.0
36.29,-132.0
36.35,-123.0
36.41,-115.0
36.48,-127.0
36.54,-132.0
36.6,-111.0
36.67,-124.0
36.73,-118.0
36.79,-109.0
36.85,-104.0
36.92,-94.0
36.98,-109.0
37.04,-96.0
37.11,-109.0
37.17,-98.0
37.23,-109.0
37.3,-112.0
37.36,-115.0
37.42,-92.0
37.48,-101.0
37.55,-108.0
37.61,-102.0
37.67,-103.0
37.74,-94.0
37.8,-92.0
37.86,-94.0
37.93,-116.0
37.99,-82.0
38.05,-103.0
38.12,-92.0
38.18,-102.0
38.24,-104.0
38.3,-89.0
38.37,-104.0
38.43,-80.0
38.49,-101.0
38.56,-88.0
38.62,-99.0
38.68,-101.0
38.75,-101.0
38.81,-101.0
38.87,-106.0
38.93,-84.0
39.0,-87.0
39.06,-99.0
39.12,-97.0
39.19,-118.0
39.25,-118.0
39.31,-102.0
39.38,-99.0
39.44,-92.0
39.5,-92.0
39.56,-91.0
39.63,-74.0
39.69,-99.0
39.75,-100.0
39.82,-104.0
39.88,-100.0
39.94,-90.0
40.01,-104.0
40.07,-99.0
40.13,-98.0
40.19,-97.0
40.26,-108.0
40.32,-105.0
40.38,-85.0
40.45,-103.0
40.51,-104.0
40.57,-104.0
40.64,-105.0
40.7,-105.0
40.76,-132.0
40.82,-121.0
40.89,-107.0
40.95,-116.0
41.01,-127.0
41.08,-108.0
41.14,-94.0
41.2,-102.0
41.27,-122.0
41.33,-97.0
41.39,-98.0
41.45,-131.0
41.52,-110.0
41.58,-101.0
41.64,-98.0
41.71,-102.0
41.77,-89.0
41.83,-70.0
41.9,-43.0
41.96,-57.0
42.02,-56.0
42.08,-55.0
42.15,-65.0
42.21,-79.0
42.27,-76.0
42.34,-67.0
42.4,-84.0
42.46,-72.0
42.53,-84.0
42.59,-67.0
42.65,-77.0
42.71,-75.0
42.78,-76.0
42.84,-84.0
42.9,-74.0
42.97,-57.0
43.03,-45.0
43.09,-51.0
43.16,-70.0
43.22,-57.0
43.28,-49.0
43.34,-51.0
43.41,-59.0
43.47,-65.0
43.53,-66.0
43.6,-57.0
43.66,-69.0
43.72,-82.0
43.79,-71.0
43.85,-77.0
43.91,-80.0
43.97,-89.0
44.04,-92.0
44.1,-92.0
44.16,-107.0
44.23,-123.0
44.29,-109.0
44.35,-91.0
44.42,-102.0
44.48,-106.0
44.54,-96.0
44.6,-107.0
44.67,-104.0
44.73,-115.0
44.79,-88.0
44.86,-82.0
44.92,-83.0
44.98,-85.0
45.05,-100.0
45.11,-105.0
45.17,-93.0
45.23,-98.0
45.3,-83.0
45.36,-90.0
45.42,-79.0
45.49,-68.0
45.55,-71.0
45.61,-87.0
45.68,-95.0
45.74,-100.0
45.8,-114.0
45.86,-103.0
45.93,-99.0
45.99,-106.0
46.05,-94.0
46.12,-72.0
46.18,-99.0
46.24,-113.0
46.31,-110.0
46.37,-103.0
46.43,-94.0
46.49,-97.0
46.56,-93.0
46.62,-87.0
46.68,-104.0
46.75,-88.0
46.81,-118.0
46.87,-115.0
46.94,-122.0
47.0,-119.0
47.06,-118.0
47.12,-111.0
47.19,-142.0
47.25,-150.0
47.31,-155.0
47.38,-151.0
47.44,-157.0
47.5,-152.0
47.57,-160.0
47.63,-168.0
47.69,-160.0
47.75,-173.0
47.82,-168.0
47.88,-177.0
47.94,-167.0
48.01,-180.0
48.07,-169.0
48.13,-180.0
48.2,-210.0
48.26,-193.0
48.32,-183.0
48.38,-182.0
48.45,-164.0
48.51,-168.0
48.57,-181.0
48.64,-165.0
48.7,-173.0
48.76,-168.0
48.83,-166.0
48.89,-191.0
48.95,-156.0
49.01,-150.0
49.08,-183.0
49.14,-162.0
49.2,-166.0
49.27,-149.0
49.33,-175.0
49.39,-161.0
49.46,-147.0
49.52,-137.0
49.58,-157.0
49.64,-135.0
49.71,-145.0
49.77,-137.0
49.83,-159.0
49.9,-151.0
49.96,-134.0
50.02,-143.0
50.09,-144.0
50.15,-127.0
50.21,-110.0
50.27,-98.0
50.34,-108.0
50.4,-102.0
50.46,-93.0
50.53,-99.0
50.59,-87.0
50.65,-89.0
50.72,-93.0
50.78,-93.0
50.84,-94.0
50.9,-78.0
50.97,-87.0
51.03,-70.0
51.09,-68.0
51.16,-82.0
51.22,-82.0
51.28,-63.0
51.35,-53.0
51.41,-72.0
51.47,-76.0
51.53,-64.0
51.6,-61.0
51.66,-47.0
51.72,-42.0
51.79,-64.0
51.85,-44.0
51.91,-46.0
51.98,-59.0
52.04,-43.0
52.1,-41.0
52.16,-48.0
52.23,-42.0
52.29,-51.0
52.35,-56.0
52.42,-56.0
52.48,-41.0
52.54,-46.0
52.61,-42.0
52.67,-58.0
52.73,-58.0
52.79,-67.0
52.86,-49.0
52.92,-45.0
52.98,-52.0
53.05,-61.0
53.11,-53.0
53.17,-50.0
53.24,-46.0
53.3,-69.0
53.36,-76.0
53.42,-53.0
53.49,-70.0
53.55,-81.0
53.61,-80.0
53.68,-79.0
53.74,-69.0
53.8,-57.0
53.87,-58.0
53.93,-72.0
53.99,-73.0
54.05,-63.0
54.12,-74.0
54.18,-71.0
54.24,-69.0
54.31,-79.0
54.37,-73.0
54.43,-102.0
54.5,-80.0
54.56,-91.0
54.62,-91.0
54.68,-119.0
54.75,-108.0
54.81,-99.0
54.87,-103.0
54.94,-127.0
55.0,-121.0
55.06,-110.0
55.13,-128.0
55.19,-119.0
55.25,-108.0
55.31,-95.0
55.38,-120.0
55.44,-104.0
55.5,-126.0
55.57,-104.0
55.63,-94.0
55.69,-130.0
55.76,-112.0
55.82,-121.0
55.88,-147.0
55.94,-142.0
56.01,-119.0
56.07,-103.0
56.13,-121.0
56.2,-140.0
56.26,-142.0
56.32,-124.0
56.39,-154.0
56.45,-131.0
56.51,-120.0
56.57,-110.0
56.64,-128.0
56.7,-134.0
56.76,-140.0
56.83,-133.0
56.89,-145.0
56.95,-142.0
57.02,-134.0
57.08,-151.0
57.14,-146.0
57.2,-140.0
57.27,-132.0
57.33,-128.0
57.39,-153.0
57.46,-142.0
57.52,-149.0
57.58,-126.0
57.65,-133.0
57.71,-116.0
57.77,-122.0
57.83,-135.0
57.9,-130.0
57.96,-128.0
58.02,-121.0
58.09,-128.0
58.15,-118.0
58.21,-110.0
58.28,-103.0
58.34,-116.0
58.4,-115.0
58.46,-103.0
58.53,-88.0
58.59,-99.0
58.65,-90.0
58.72,-98.0
58.78,-92.0
58.84,-98.0
58.91,-110.0
58.97,-115.0
59.03,-85.0
59.09,-102.0
59.16,-92.0
59.22,-105.0
59.28,-89.0
59.35,-86.0
59.41,-99.0
59.47,-81.0
59.54,-100.0
59.6,-90.0
59.66,-84.0
59.72,-86.0
59.79,-69.0
59.85,-76.0
59.91,-69.0
59.98,-55.0
60.04,-56.0
60.1,-54.0
60.17,-47.0
60.23,-59.0
60.29,-68.0
60.35,-55.0
60.42,-36.0
60.48,-45.0
60.54,-53.0
60.61,-38.0
60.67,-42.0
60.73,-39.0
60.8,-39.0
60.86,-30.0
60.92,-27.0
60.98,-8.0
61.05,-4.0
61.11,-10.0
61.17,-1.0
61.24,0.0
61.3,10.0
61.36,-1.0
61.43,-1.0
61.49,6.0
61.55,8.0
61.61,7.0
61.68,3.0
61.74,2.0
61.8,8.0
61.87,9.0
61.93,10.0
61.99,27.0
62.06,27.0
62.12,32.0
62.18,10.0
62.24,2.0
62.31,17.0
62.37,11.0
62.43,-4.0
62.5,19.0
62.56,33.0
62.62,34.0
62.69,20.0
62.75,24.0
62.81,31.0
62.87,16.0
62.94,8.0
63.0,5.0
63.06,-5.0
63.13,-7.0
63.19,11.0
63.25,7.0
63.32,-11.0
63.38,5.0
63.44,-7.0
63.5,17.0
63.57,1.0
63.63,6.0
63.69,7.0
63.76,-28.0
63.82,-8.0
63.88,-15.0
63.95,-34.0
64.01,-35.0
64.07,-23.0
64.13,-47.0
64.2,-30.0
64.26,-29.0
64.32,-38.0
64.39,-32.0
64.45,-28.0
64.51,-27.0
64.58,-40.0
64.64,-29.0
64.7,-34.0
64.76,-40.0
64.83,-31.0
64.89,-16.0
64.95,-36.0
65.02,-39.0
65.08,-35.0
65.14,-27.0
65.21,-33.0
65.27,-52.0
65.33,-50.0
65.39,-38.0
65.46,-56.0
65.52,-55.0
65.58,-49.0
65.65,-50.0
65.71,-53.0
65.77,-56.0
65.84,-42.0
65.9,-38.0
65.96,-48.0
66.02,-33.0
66.09,-48.0
66.15,-41.0
66.21,-43.0
66.28,-33.0
66.34,-22.0
66.4,-30.0
66.47,-19.0
66.53,-5.0
66.59,-8.0
66.65,-3.0
66.72,-13.0
66.78,-1.0
66.84,-8.0
66.91,-17.0
66.97,-7.0
67.03,2.0
67.1,-9.0
67.16,-12.0
67.22,-5.0
67.28,-18.0
67.35,-20.0
67.41,-17.0
67.47,-14.0
67.54,4.0
67.6,-3.0
67.66,10.0
67.73,18.0
67.79,10.0
67.85,5.0
67.91,17.0
67.98,5.0
68.04,16.0
68.1,33.0
68.17,16.0
68.23,3.0
68.29,6.0
68.36,26.0
68.42,28.0
68.48,47.0
68.54,32.0
68.61,37.0
68.67,20.0
68.73,3.0
68.8,12.0
68.86,9.0
68.92,29.0
68.99,8.0
69.05,8.0
69.11,9.0
69.17,-3.0
69.24,-13.0
69.3,-22.0
69.36,-22.0
69.43,-19.0
69.49,-6.0
69.55,-21.0
69.62,-16.0
69.68,-20.0
69.74,-17.0
69.8,-9.0
69.87,-27.0
69.93,-34.0
69.99,-17.0
70.06,-21.0
70.12,-42.0
70.18,-41.0
70.25,-40.0
70.31,-26.0
70.37,-29.0
70.43,-25.0
70.5,-29.0
70.56,-20.0
70.62,-10.0
70.69,-2.0
70.75,-9.0
70.81,-12.0
70.88,-7.0
70.94,-20.0
71.0,-14.0
71.06,-23.0
71.13,-56.0
71.19,-31.0
71.25,-28.0
71.32,-37.0
71.38,-39.0
71.44,-38.0
71.51,-29.0
71.57,-24.0
71.63,-34.0
71.69,-48.0
71.76,-40.0
71.82,-46.0
71.88,-30.0
71.95,-24.0
72.01,-30.0
72.07,-27.0
72.14,-29.0
72.2,-40.0
72.26,-47.0
72.32,-48.0
72.39,-62.0
72.45,-51.0
72.51,-48.0
72.58,-53.0
72.64,-48.0
72.7,-62.0
72.77,-56.0
72.83,-59.0
72.89,-62.0
72.95,-67.0
73.02,-54.0
73.08,-52.0
73.14,-76.0
73.21,-98.0
73.27,-58.0
73.33,-90.0
73.4,-85.0
73.46,-57.0
73.52,-88.0
73.58,-81.0
73.65,-87.0
73.71,-77.0
73.77,-90.0
73.84,-104.0
73.9,-84.0
73.96,-102.0
74.03,-85.0
74.09,-88.0
74.15,-98.0
74.21,-91.0
74.28,-87.0
74.34,-102.0
74.4,-90.0
74.47,-108.0
74.53,-114.0
74.59,-91.0
74.66,-102.0
74.72,-100.0
74.78,-95.0
74.84,-90.0
74.91,-79.0
74.97,-84.0
75.03,-73.0
75.1,-51.0
75.16,-55.0
75.22,-52.0
75.29,-73.0
75.35,-70.0
75.41,-78.0
75.47,-60.0
75.54,-54.0
75.6,-43.0
75.66,-52.0
75.73,-50.0
75.79,-51.0
75.85,-50.0
75.92,-37.0
75.98,-24.0
76.04,-20.0
76.1,-25.0
76.17,-22.0
76.23,-20.0
76.29,-2.0
76.36,3.0
76.42,8.0
76.48,4.0
76.55,-1.0
76.61,11.0
76.67,6.0
76.73,14.0
76.8,10.0
76.86,13.0
76.92,18.0
76.99,16.0
77.05,29.0
77.11,36.0
77.18,47.0
77.24,57.0
77.3,62.0
77.36,57.0
77.43,39.0
77.49,50.0
77.55,58.0
77.62,44.0
77.68,58.0
77.74,65.0
77.81,60.0
77.87,48.0
77.93,58.0
77.99,51.0
78.06,46.0
78.12,58.0
78.18,42.0
78.25,37.0
78.31,52.0
78.37,58.0
78.44,61.0
78.5,55.0
78.56,63.0
78.62,71.0
78.69,70.0
78.75,70.0
78.81,70.0
78.88,74.0
78.94,68.0
79.0,73.0
79.07,76.0
79.13,69.0
79.19,72.0
79.25,72.0
79.32,43.0
79.38,56.0
79.44,56.0
79.51,53.0
79.57,61.0
79.63,56.0
79.7,57.0
79.76,47.0
79.82,47.0
79.88,54.0
79.95,48.0
80.01,51.0
80.07,47.0
80.14,52.0
80.2,51.0
80.26,36.0
80.33,37.0
80.39,29.0
80.45,25.0
80.51,4.0
80.58,-4.0
80.64,6.0
80.7,9.0
80.77,21.0
80.83,10.0
80.89,7.0
80.96,10.0
81.02,-8.0
81.08,-9.0
81.14,-9.0
81.21,-24.0
81.27,2.0
81.33,-29.0
81.4,-36.0
81.46,-38.0
81.52,-52.0
81.59,-46.0
81.65,-67.0
81.71,-53.0
81.77,-40.0
81.84,-66.0
81.9,-65.0
81.96,-62.0
82.03,-64.0
82.09,-34.0
82.15,-31.0
82.22,-60.0
82.28,-54.0
82.34,-60.0
82.4,-49.0
82.47,-47.0
82.53,-57.0
82.59,-51.0
82.66,-54.0
82.72,-50.0
82.78,-54.0
82.85,-49.0
82.91,-27.0
82.97,-53.0
83.03,-32.0
83.1,-34.0
83.16,-41.0
83.22,-42.0
83.29,-24.0
83.35,-30.0
83.41,-36.0
83.48,-34.0
83.54,-39.0
83.6,-39.0
83.66,-41.0
83.73,-40.0
83.79,-44.0
83.85,-53.0
83.92,-53.0
83.98,-49.0
84.04,-78.0
84.11,-73.0
84.17,-58.0
84.23,-60.0
84.29,-60.0
84.36,-35.0
84.42,-38.0
84.48,-33.0
84.55,-24.0
84.61,-32.0
84.67,-50.0
84.74,-42.0
84.8,-47.0
84.86,-37.0
84.92,-34.0
84.99,-35.0
85.05,-24.0
85.11,-41.0
85.18,-34.0
85.24,-38.0
85.3,-52.0
85.37,-51.0
85.43,-20.0
85.49,-3.0
85.55,-25.0
85.62,-11.0
85.68,-17.0
85.74,-8.0
85.81,-6.0
85.87,-19.0
85.93,-28.0
86.0,-23.0
86.06,-24.0
86.12,-25.0
86.18,-22.0
86.25,-23.0
86.31,-30.0
86.37,-39.0
86.44,-36.0
86.5,-13.0
86.56,5.0
86.63,5.0
86.69,-16.0
86.75,1.0
86.81,12.0
86.88,20.0
86.94,15.0
87.0,9.0
87.07,-9.0
87.13,-2.0
87.19,10.0
87.26,8.0
87.32,9.0
87.38,21.0
87.44,16.0
87.51,20.0
87.57,27.0
87.63,38.0
87.7,42.0
87.76,40.0
87.82,45.0
87.89,35.0
87.95,31.0
88.01,38.0
88.07,13.0
88.14,16.0
88.2,15.0
88.26,29.0
88.33,38.0
88.39,14.0
88.45,4.0
88.52,-13.0
88.58,-13.0
88.64,-4.0
88.7,0.0
88.77,5.0
88.83,-3.0
88.89,17.0
88.96,12.0
89.02,-14.0
89.08,0.0
89.15,-7.0
89.21,-15.0
89.27,-25.0
89.33,-9.0
89.4,-5.0
89.46,-17.0
89.52,-24.0
89.59,-3.0
89.65,-34.0
89.71,-19.0
89.78,-39.0
89.84,-17.0
89.9,-10.0
89.96,-22.0
90.03,-37.0
90.09,-41.0
90.15,-4.0
90.22,-9.0
90.28,-14.0
90.34,-4.0
90.41,-15.0
90.47,-19.0
90.53,-18.0
90.59,-13.0
90.66,-22.0
90.72,-34.0
90.78,4.0
90.85,10.0
90.91,21.0
90.97,12.0
91.04,7.0
91.1,1.0
91.16,-2.0
91.22,9.0
91.29,14.0
91.35,23.0
91.41,32.0
91.48,26.0
91.54,35.0
91.6,35.0
91.67,32.0
91.73,16.0
91.79,20.0
91.85,30.0
91.92,29.0
91.98,53.0
92.04,31.0
92.11,21.0
92.17,15.0
92.23,17.0
92.3,19.0
92.36,-4.0
92.42,18.0
92.48,44.0
92.55,39.0
92.61,29.0
92.67,44.0
92.74,43.0
92.8,43.0
92.86,51.0
92.93,57.0
92.99,44.0
93.05,39.0
93.11,56.0
93.18,71.0
93.24,51.0
93.3,63.0
93.37,49.0
93.43,50.0
93.49,72.0
93.56,60.0
93.62,73.0
93.68,70.0
93.74,70.0
93.81,76.0
93.87,69.0
93.93,75.0
94.0,65.0
94.06,56.0
94.12,63.0
94.19,69.0
94.25,75.0
94.31,82.0
94.37,79.0
94.44,81.0
94.5,67.0
94.56,71.0
94.63,66.0
94.69,80.0
94.75,64.0
94.82,78.0
94.88,90.0
94.94,90.0
95.0,73.0
95.07,87.0
95.13,92.0
95.19,75.0
95.26,70.0
95.32,70.0
95.38,66.0
95.45,60.0
95.51,67.0
95.57,68.0
95.63,85.0
95.7,75.0
95.76,68.0
95.82,79.0
95.89,75.0
95.95,45.0
96.01,62.0
96.08,56.0
96.14,29.0
96.2,56.0
96.26,52.0
96.33,49.0
96.39,38.0
96.45,40.0
96.52,41.0
96.58,24.0
96.64,27.0
96.71,18.0
96.77,23.0
96.83,27.0
96.89,9.0
96.96,25.0
97.02,24.0
97.08,15.0
97.15,28.0
97.21,23.0
97.27,32.0
97.34,28.0
97.4,-12.0
97.46,1.0
97.52,4.0
97.59,16.0
97.65,18.0
97.71,-13.0
97.78,3.0
97.84,-4.0
97.9,-19.0
97.97,-17.0
98.03,-45.0
98.09,-55.0
98.15,-40.0
98.22,-17.0
98.28,-27.0
98.34,-29.0
98.41,-42.0
98.47,-33.0
98.53,-32.0
98.6,-38.0
98.66,-29.0
98.72,-28.0
98.78,-34.0
98.85,-33.0
98.91,-39.0
98.97,-59.0
99.04,-36.0
99.1,-43.0
99.16,-34.0
99.23,-60.0
99.29,-51.0
99.35,-57.0
99.41,-51.0
99.48,-52.0
99.54,-52.0
99.6,-58.0
99.67,-63.0
99.73,-60.0
99.79,-41.0
99.86,-39.0
99.92,-52.0
99.98,-56.0
100.04,-42.0
100.11,-50.0
100.17,-54.0
100.23,-66.0
100.3,-60.0
100.36,-66.0
100.42,-51.0
100.49,-24.0
100.55,-24.0
100.61,-28.0
100.67,-42.0
100.74,-55.0
100.8,-41.0
100.86,-38.0
100.93,-33.0
100.99,-53.0
101.05,-29.0
101.12,-37.0
101.18,-30.0
101.24,-42.0
101.3,-15.0
101.37,-22.0
101.43,-26.0
101.49,-45.0
101.56,-36.0
101.62,-44.0
101.68,-29.0
101.75,-16.0
101.81,-11.0
101.87,-6.0
101.93,-9.0
102.0,-15.0
102.06,-15.0
102.12,7.0
102.19,-6.0
102.25,-9.0
102.31,3.0
102.38,8.0
102.44,-5.0
102.5,-8.0
102.56,-6.0
102.63,-13.0
102.69,-2.0
102.75,1.0
102.82,-15.0
102.88,-7.0
102.94,-1.0
103.01,19.0
103.07,4.0
103.13,-3.0
103.19,5.0
103.26,16.0
103.32,14.0
103.38,6.0
103.45,21.0
103.51,8.0
103.57,5.0
103.64,-20.0
103.7,-20.0
103.76,-10.0
103.82,-33.0
103.89,-21.0
103.95,-21.0
104.01,-24.0
104.08,-23.0
104.14,-18.0
104.2,-18.0
104.27,-17.0
104.33,-16.0
104.39,-6.0
104.45,-15.0
104.52,-6.0
104.58,17.0
104.64,-22.0
104.71,2.0
104.77,-4.0
104.83,7.0
104.9,-9.0
104.96,-6.0
105.02,-13.0
105.08,-19.0
105.15,-14.0
105.21,-27.0
105.27,-26.0
105.34,-13.0
105.4,-10.0
105.46,-22.0
105.53,-3.0
105.59,3.0
105.65,-10.0
105.71,-8.0
105.78,-20.0
105.84,-21.0
105.9,-14.0
105.97,-5.0
106.03,2.0
106.09,11.0
106.16,-20.0
106.22,-20.0
106.28,-44.0
106.34,-49.0
106.41,-42.0
106.47,-44.0
106.53,-60.0
106.6,-43.0
106.66,-51.0
106.72,-61.0
106.79,-64.0
106.85,-44.0
106.91,-48.0
106.97,-46.0
107.04,-45.0
107.1,-34.0
107.16,-3.0
107.23,-21.0
107.29,-18.0
107.35,-21.0
107.42,-20.0
107.48,-25.0
107.54,-25.0
107.6,-29.0
107.67,-38.0
107.73,-27.0
107.79,-46.0
107.86,-42.0
107.92,-50.0
107.98,-49.0
108.05,-51.0
108.11,-41.0
108.17,-52.0
108.23,-57.0
108.3,-57.0
108.36,-43.0
108.42,-42.0
108.49,-45.0
108.55,-19.0
108.61,-11.0
108.68,-17.0
108.74,-22.0
108.8,-30.0
108.86,-19.0
108.93,-12.0
108.99,9.0
109.05,-3.0
109.12,-40.0
109.18,-11.0
109.24,-3.0
109.31,10.0
109.37,10.0
109.43,3.0
109.49,-4.0
109.56,4.0
109.62,4.0
109.68,4.0
109.75,9.0
109.81,21.0
109.87,19.0
109.94,-10.0
110.0,-7.0
110.06,-3.0
110.12,-13.0
110.19,-3.0
110.25,9.0
110.31,33.0
110.38,7.0
110.44,19.0
110.5,23.0
110.57,33.0
110.63,37.0
110.69,24.0
110.75,38.0
110.82,47.0
110.88,34.0
110.94,51.0
111.01,56.0
111.07,43.0
111.13,39.0
111.2,39.0
111.26,32.0
111.32,60.0
111.38,47.0
111.45,31.0
111.51,33.0
111.57,48.0
111.64,57.0
111.7,48.0
111.76,49.0
111.83,49.0
111.89,64.0
111.95,50.0
112.01,74.0
112.08,67.0
112.14,62.0
112.2,70.0
112.27,76.0
112.33,68.0
112.39,67.0
112.46,56.0
112.52,50.0
112.58,48.0
112.64,59.0
112.71,64.0
112.77,77.0
112.83,79.0
112.9,86.0
112.96,99.0
113.02,91.0
113.09,102.0
113.15,94.0
113.21,102.0
113.27,99.0
113.34,86.0
113.4,82.0
113.46,93.0
113.53,88.0
113.59,86.0
113.65,84.0
113.72,77.0
113.78,108.0
113.84,97.0
113.9,92.0
113.97,88.0
114.03,88.0
114.09,84.0
114.16,82.0
114.22,55.0
114.28,51.0
114.35,83.0
114.41,98.0
114.47,99.0
114.53,85.0
114.6,64.0
114.66,86.0
114.72,79.0
114.79,83.0
114.85,90.0
114.91,79.0
114.98,77.0
115.04,73.0
115.1,53.0
115.16,55.0
115.23,63.0
115.29,77.0
115.35,72.0
115.42,83.0
115.48,86.0
115.54,77.0
115.61,81.0
115.67,66.0
115.73,76.0
115.79,66.0
115.86,61.0
115.92,79.0
115.98,93.0
116.05,91.0
116.11,99.0
116.17,84.0
116.24,91.0
116.3,99.0
116.36,111.0
116.42,96.0
116.49,100.0
116.55,104.0
116.61,107.0
116.68,115.0
116.74,116.0
116.8,99.0
116.87,97.0
116.93,108.0
116.99,115.0
117.05,100.0
117.12,82.0
117.18,110.0
117.24,108.0
117.31,107.0
117.37,124.0
117.43,126.0
117.5,106.0
117.56,104.0
117.62,124.0
117.68,123.0
117.75,131.0
117.81,155.0
117.87,140.0
117.94,132.0
118.0,152.0
118.06,148.0
118.13,160.0
118.19,169.0
118.25,164.0
118.31,156.0
118.38,165.0
118.44,181.0
118.5,170.0
118.57,157.0
118.63,160.0
118.69,157.0
118.76,165.0
118.82,173.0
118.88,170.0
118.94,185.0
119.01,173.0
119.07,183.0
119.13,171.0
119.2,181.0
119.26,207.0
119.32,191.0
119.39,191.0
119.45,192.0
119.51,185.0
119.57,208.0
119.64,196.0
119.7,197.0
119.76,188.0
119.83,190.0
119.89,174.0
119.95,163.0
120.02,163.0
120.08,184.0
120.14,196.0
120.2,169.0
120.27,199.0
120.33,190.0
120.39,177.0
120.46,182.0
120.52,165.0
120.58,170.0
120.65,179.0
120.71,196.0
120.77,181.0
120.83,170.0
120.9,175.0
120.96,201.0
121.02,182.0
121.09,168.0
121.15,165.0
121.21,166.0
121.28,183.0
121.34,180.0
121.4,181.0
121.46,189.0
121.53,170.0
121.59,151.0
121.65,156.0
121.72,157.0
121.78,149.0
121.84,179.0
121.91,171.0
121.97,170.0
122.03,175.0
122.09,149.0
122.16,158.0
122.22,167.0
122.28,152.0
122.35,139.0
122.41,149.0
122.47,125.0
122.54,121.0
122.6,130.0
122.66,122.0
122.72,126.0
122.79,138.0
122.85,138.0
122.91,137.0
122.98,121.0
123.04,122.0
123.1,126.0
123.17,90.0
123.23,96.0
123.29,107.0
123.35,86.0
123.42,120.0
123.48,98.0
123.54,95.0
123.61,96.0
123.67,99.0
123.73,77.0
123.8,90.0
123.86,90.0
123.92,60.0
123.98,76.0
124.05,86.0
124.11,86.0
124.17,82.0
124.24,70.0
124.3,90.0
124.36,111.0
124.43,96.0
124.49,75.0
124.55,65.0
124.61,42.0
124.68,41.0
124.74,53.0
124.8,52.0
124.87,45.0
124.93,30.0
124.99,32.0
125.06,46.0
125.12,47.0
125.18,41.0
125.24,65.0
125.31,48.0
125.37,46.0
125.43,50.0
125.5,39.0
125.56,39.0
125.62,23.0
125.69,9.0
125.75,10.0
125.81,16.0
125.87,48.0
125.94,16.0
126.0,7.0
126.06,14.0
126.13,31.0
126.19,46.0
126.25,38.0
126.32,45.0
126.38,50.0
126.44,27.0
126.5,32.0
126.57,35.0
126.63,39.0
126.69,47.0
126.76,31.0
126.82,29.0
126.88,29.0
126.95,62.0
127.01,42.0
127.07,25.0
127.13,17.0
127.2,22.0
127.26,49.0
127.32,59.0
127.39,60.0
127.45,60.0
127.51,46.0
127.58,55.0
127.64,49.0
127.7,39.0
127.76,60.0
127.83,58.0
127.89,74.0
127.95,62.0
128.02,65.0
128.08,68.0
128.14,64.0
128.21,72.0
128.27,72.0
128.33,60.0
128.39,60.0
128.46,59.0
128.52,69.0
128.58,63.0
128.65,66.0
128.71,82.0
128.77,96.0
128.84,90.0
128.9,101.0
128.96,96.0
129.02,93.0
129.09,71.0
129.15,71.0
129.21,57.0
129.28,57.0
129.34,68.0
129.4,43.0
129.47,59.0
129.53,67.0
129.59,62.0
129.65,49.0
129.72,37.0
129.78,53.0
129.84,63.0
129.91,57.0
129.97,36.0
130.03,32.0
130.1,18.0
130.16,21.0
130.22,37.0
130.28,34.0
130.35,38.0
130.41,46.0
130.47,45.0
130.54,29.0
130.6,32.0
130.66,47.0
130.73,42.0
130.79,53.0
130.85,46.0
130.91,44.0
130.98,53.0
131.04,56.0
131.1,46.0
131.17,42.0
131.23,34.0
131.29,41.0
131.36,29.0
131.42,36.0
131.48,30.0
131.54,31.0
131.61,21.0
131.67,16.0
131.73,22.0
131.8,24.0
131.86,51.0
131.92,30.0
131.99,27.0
132.05,19.0
132.11,30.0
132.17,22.0
132.24,32.0
132.3,29.0
132.36,44.0
132.43,52.0
132.49,52.0
132.55,53.0
132.62,50.0
132.68,60.0
132.74,44.0
132.8,55.0
132.87,35.0
132.93,31.0
132.99,32.0
133.06,29.0
133.12,40.0
133.18,49.0
133.25,42.0
133.31,46.0
133.37,56.0
133.43,44.0
133.5,55.0
133.56,41.0
133.62,35.0
133.69,41.0
133.75,44.0
133.81,50.0
133.88,52.0
133.94,40.0
134.0,46.0
134.06,49.0
134.13,55.0
134.19,62.0
134.25,62.0
134.32,75.0
134.38,47.0
134.44,47.0
134.51,45.0
134.57,69.0
134.63,64.0
134.69,68.0
134.76,80.0
134.82,78.0
134.88,77.0
134.95,88.0
135.01,76.0
135.07,71.0
135.14,72.0
135.2,83.0
135.26,69.0
135.32,62.0
135.39,57.0
135.45,80.0
135.51,57.0
135.58,66.0
135.64,78.0
135.7,76.0
135.77,64.0
135.83,71.0
135.89,71.0
135.95,73.0
136.02,71.0
136.08,78.0
136.14,71.0
136.21,64.0
136.27,45.0
136.33,64.0
136.4,78.0
136.46,64.0
136.52,64.0
136.58,63.0
136.65,57.0
136.71,67.0
136.77,68.0
136.84,55.0
136.9,26.0
136.96,36.0
137.03,51.0
137.09,59.0
137.15,38.0
137.21,56.0
137.28,49.0
137.34,47.0
137.4,61.0
137.47,46.0
137.53,45.0
137.59,16.0
137.66,39.0
137.72,20.0
137.78,20.0
137.84,24.0
137.91,35.0
137.97,38.0
138.03,34.0
138.1,27.0
138.16,27.0
138.22,44.0
138.29,17.0
138.35,17.0
138.41,31.0
138.47,23.0
138.54,33.0
138.6,19.0
138.66,30.0
138.73,35.0
138.79,24.0
138.85,10.0
138.92,15.0
138.98,-6.0
139.04,4.0
139.1,25.0
139.17,16.0
139.23,22.0
139.29,10.0
139.36,5.0
139.42,16.0
139.48,14.0
139.55,26.0
139.61,27.0
139.67,30.0
139.73,34.0
139.8,15.0
139.86,18.0
139.92,22.0
139.99,15.0
140.05,36.0
140.11,20.0
140.18,23.0
140.24,17.0
140.3,-6.0
140.36,23.0
140.43,10.0
140.49,3.0
140.55,-6.0
140.62,6.0
140.68,14.0
140.74,-12.0
140.81,-7.0
140.87,2.0
140.93,11.0
140.99,-4.0
141.06,-5.0
141.12,-16.0
141.18,-1.0
141.25,5.0
141.31,-10.0
141.37,-14.0
141.44,3.0
141.5,12.0
141.56,-22.0
141.62,-8.0
141.69,-7.0
141.75,-24.0
141.81,-18.0
141.88,16.0
141.94,-9.0
142.0,-1.0
142.07,23.0
142.13,0.0
142.19,0.0
142.25,-7.0
142.32,-5.0
142.38,-3.0
142.44,5.0
142.51,-1.0
142.57,2.0
142.63,9.0
142.7,8.0
142.76,14.0
142.82,15.0
142.88,2.0
142.95,26.0
143.01,12.0
143.07,31.0
143.14,29.0
143.2,27.0
143.26,29.0
143.33,39.0
143.39,39.0
143.45,27.0
143.51,34.0
143.58,33.0
143.64,55.0
143.7,73.0
143.77,65.0
143.83,56.0
143.89,73.0
143.96,89.0
144.02,94.0
144.08,77.0
144.14,66.0
144.21,77.0
144.27,102.0
144.33,112.0
144.4,118.0
144.46,112.0
144.52,100.0
144.59,120.0
144.65,136.0
144.71,130.0
144.77,113.0
144.84,123.0
144.9,134.0
144.96,115.0
145.03,129.0
145.09,142.0
145.15,129.0
145.22,126.0
145.28,140.0
145.34,132.0
145.4,138.0
145.47,153.0
145.53,156.0
145.59,154.0
145.66,163.0
145.72,161.0
145.78,154.0
145.85,160.0
145.91,174.0
145.97,186.0
146.03,173.0
146.1,171.0
146.16,150.0
146.22,164.0
146.29,186.0
146.35,187.0
146.41,163.0
146.47,176.0
146.54,180.0
146.6,185.0
146.66,176.0
146.73,170.0
146.79,186.0
146.85,196.0
146.92,176.0
146.98,155.0
147.04,141.0
147.1,166.0
147.17,151.0
147.23,149.0
147.29,184.0
147.36,174.0
147.42,177.0
147.48,158.0
147.55,163.0
147.61,133.0
147.67,152.0
147.73,177.0
147.8,170.0
147.86,177.0
147.92,183.0
147.99,189.0
148.05,173.0
148.11,173.0
148.18,151.0
148.24,156.0
148.3,157.0
148.36,155.0
148.43,159.0
148.49,145.0
148.55,149.0
148.62,138.0
148.68,119.0
148.74,98.0
148.81,88.0
148.87,97.0
148.93,83.0
148.99,61.0
149.06,69.0
149.12,62.0
149.18,88.0
149.25,76.0
149.31,85.0
149.37,93.0
149.44,97.0
149.5,87.0
149.56,66.0
149.62,56.0
149.69,87.0
149.75,85.0
149.81,61.0
149.88,55.0
149.94,48.0
150.0,77.0
150.07,80.0
150.13,64.0
150.19,72.0
150.25,86.0
150.32,43.0
150.38,75.0
150.44,74.0
150.51,77.0
150.57,70.0
150.63,73.0
150.7,86.0
150.76,78.0
150.82,76.0
150.88,74.0
150.95,78.0
151.01,80.0
151.07,69.0
151.14,71.0
151.2,70.0
151.26,66.0
151.33,68.0
151.39,76.0
151.45,53.0
151.51,86.0
151.58,90.0
151.64,87.0
151.7,84.0
151.77,66.0
151.83,75.0
151.89,82.0
151.96,68.0
152.02,67.0
152.08,80.0
152.14,88.0
152.21,73.0
152.27,58.0
152.33,59.0
152.4,70.0
152.46,44.0
152.52,61.0
152.59,62.0
152.65,50.0
152.71,45.0
152.77,52.0
152.84,65.0
152.9,56.0
152.96,52.0
153.03,45.0
153.09,55.0
153.15,39.0
153.22,35.0
153.28,28.0
153.34,21.0
153.4,31.0
153.47,26.0
153.53,22.0
153.59,31.0
153.66,19.0
153.72,16.0
153.78,25.0
153.85,27.0
153.91,35.0
153.97,17.0
154.03,44.0
154.1,43.0
154.16,50.0
154.22,47.0
154.29,42.0
154.35,41.0
154.41,32.0
154.48,57.0
154.54,32.0
154.6,20.0
154.66,27.0
154.73,20.0
154.79,35.0
154.85,29.0
154.92,53.0
154.98,42.0
155.04,31.0
155.11,31.0
155.17,28.0
155.23,12.0
155.29,20.0
155.36,14.0
155.42,4.0
155.48,16.0
155.55,3.0
155.61,17.0
155.67,19.0
155.74,22.0
155.8,-1.0
155.86,-13.0
155.92,-11.0
155.99,-17.0
156.05,-5.0
156.11,13.0
156.18,-18.0
156.24,-24.0
156.3,-25.0
156.37,-37.0
156.43,-24.0
156.49,-44.0
156.55,-68.0
156.62,-52.0
156.68,-38.0
156.74,-24.0
156.81,-27.0
156.87,-35.0
156.93,-32.0
157.0,-51.0
157.06,-52.0
157.12,-39.0
157.18,-33.0
157.25,-54.0
157.31,-46.0
157.37,-62.0
157.44,-48.0
157.5,-42.0
157.56,-63.0
157.63,-47.0
157.69,-57.0
157.75,-52.0
157.81,-34.0
157.88,-38.0
157.94,-61.0
158.0,-58.0
158.07,-59.0
158.13,-61.0
158.19,-60.0
158.26,-65.0
158.32,-57.0
158.38,-72.0
158.44,-84.0
158.51,-74.0
158.57,-80.0
158.63,-57.0
158.7,-65.0
158.76,-77.0
158.82,-85.0
158.89,-82.0
158.95,-70.0
159.01,-54.0
159.07,-42.0
159.14,-59.0
159.2,-47.0
159.26,-52.0
159.33,-41.0
159.39,-52.0
159.45,-26.0
159.52,-24.0
159.58,-22.0
159.64,-17.0
159.7,-6.0
159.77,3.0
159.83,9.0
159.89,14.0
159.96,5.0
160.02,-4.0
160.08,2.0
160.15,2.0
160.21,5.0
160.27,22.0
160.33,29.0
160.4,23.0
160.46,11.0
160.52,37.0
160.59,39.0
160.65,51.0
160.71,31.0
160.78,36.0
160.84,51.0
160.9,43.0
160.96,76.0
161.03,57.0
161.09,60.0
161.15,75.0
161.22,83.0
161.28,63.0
161.34,48.0
161.41,70.0
161.47,65.0
161.53,55.0
161.59,59.0
161.66,55.0
161.72,72.0
161.78,84.0
161.85,87.0
161.91,105.0
161.97,107.0
162.04,119.0
162.1,114.0
162.16,123.0
162.22,116.0
162.29,129.0
162.35,123.0
162.41,106.0
162.48,116.0
162.54,118.0
162.6,136.0
162.67,136.0
162.73,137.0
162.79,98.0
162.85,108.0
162.92,126.0
162.98,127.0
163.04,125.0
163.11,131.0
163.17,125.0
163.23,131.0
163.3,119.0
163.36,124.0
163.42,110.0
163.48,134.0
163.55,108.0
163.61,124.0
163.67,143.0
163.74,132.0
163.8,127.0
163.86,107.0
163.93,120.0
163.99,106.0
164.05,121.0
164.11,114.0
164.18,114.0
164.24,117.0
164.3,87.0
164.37,90.0
164.43,105.0
164.49,106.0
164.56,88.0
164.62,89.0
164.68,95.0
164.74,84.0
164.81,103.0
164.87,114.0
164.93,107.0
165.0,106.0
165.06,92.0
165.12,65.0
165.19,68.0
165.25,59.0
165.31,63.0
165.37,69.0
165.44,80.0
165.5,62.0
165.56,65.0
165.63,74.0
165.69,77.0
165.75,69.0
165.82,60.0
165.88,87.0
165.94,85.0
166.0,90.0
166.07,66.0
166.13,58.0
166.19,56.0
166.26,49.0
166.32,53.0
166.38,60.0
166.45,56.0
166.51,61.0
166.57,60.0
166.63,62.0
166.7,60.0
166.76,80.0
166.82,68.0
166.89,59.0
166.95,72.0
167.01,65.0
167.08,51.0
167.14,60.0
167.2,71.0
167.26,66.0
167.33,71.0
167.39,62.0
167.45,53.0
167.52,41.0
167.58,63.0
167.64,59.0
167.71,55.0
167.77,59.0
167.83,54.0
167.89,46.0
167.96,52.0
168.02,41.0
168.08,46.0
168.15,69.0
168.21,62.0
168.27,83.0
168.34,72.0
168.4,79.0
168.46,70.0
168.52,60.0
168.59,81.0
168.65,77.0
168.71,58.0
168.78,58.0
168.84,88.0
168.9,85.0
168.97,88.0
169.03,70.0
169.09,77.0
169.15,71.0
169.22,73.0
169.28,80.0
169.34,67.0
169.41,68.0
169.47,55.0
169.53,44.0
169.6,53.0
169.66,69.0
169.72,70.0
169.78,63.0
169.85,77.0
169.91,73.0
169.97,59.0
170.04,64.0
170.1,73.0
170.16,61.0
170.23,60.0
170.29,64.0
170.35,70.0
170.41,65.0
170.48,72.0
170.54,74.0
170.6,73.0
170.67,79.0
170.73,99.0
170.79,87.0
170.86,80.0
170.92,99.0
170.98,106.0
171.04,91.0
171.11,107.0
171.17,99.0
171.23,101.0
171.3,109.0
171.36,128.0
171.42,113.0
171.49,128.0
171.55,111.0
171.61,113.0
171.67,105.0
171.74,104.0
171.8,114.0
171.86,88.0
171.93,99.0
171.99,95.0
172.05,118.0
172.12,110.0
172.18,81.0
172.24,88.0
172.3,84.0
172.37,84.0
172.43,95.0
172.49,98.0
172.56,101.0
172.62,115.0
172.68,101.0
172.75,114.0
172.81,120.0
172.87,129.0
172.93,111.0
173.0,113.0
173.06,126.0
173.12,128.0
173.19,123.0
173.25,126.0
173.31,139.0
173.38,129.0
173.44,114.0
173.5,138.0
173.56,113.0
173.63,109.0
173.69,130.0
173.75,150.0
173.82,142.0
173.88,143.0
173.94,130.0
174.01,139.0
174.07,128.0
174.13,115.0
174.19,137.0
174.26,135.0
174.32,145.0
174.38,153.0
174.45,141.0
174.51,132.0
174.57,125.0
174.64,144.0
174.7,131.0
174.76,136.0
174.82,138.0
174.89,123.0
174.95,137.0
175.01,126.0
175.08,119.0
175.14,114.0
175.2,132.0
175.27,146.0
175.33,128.0
175.39,136.0
175.45,159.0
175.52,154.0
175.58,169.0
175.64,150.0
175.71,169.0
175.77,158.0
175.83,143.0
175.9,138.0
175.96,124.0
176.02,137.0
176.08,125.0
176.15,113.0
176.21,109.0
176.27,122.0
176.34,110.0
176.4,124.0
176.46,122.0
176.53,143.0
176.59,131.0
176.65,140.0
176.71,150.0
176.78,154.0
176.84,162.0
176.9,139.0
176.97,150.0
177.03,156.0
177.09,138.0
177.16,161.0
177.22,159.0
177.28,155.0
177.34,171.0
177.41,178.0
177.47,150.0
177.53,161.0
177.6,156.0
177.66,158.0
177.72,161.0
177.79,155.0
177.85,175.0
177.91,159.0
177.97,154.0
178.04,148.0
178.1,153.0
178.16,150.0
178.23,143.0
178.29,153.0
178.35,137.0
178.42,156.0
178.48,144.0
178.54,150.0
178.6,160.0
178.67,154.0
178.73,154.0
178.79,171.0
178.86,183.0
178.92,183.0
178.98,177.0
179.05,195.0
179.11,198.0
179.17,201.0
179.23,211.0
179.3,191.0
179.36,187.0
179.42,178.0
179.49,193.0
179.55,193.0
179.61,188.0
179.68,190.0
179.74,187.0
179.8,212.0
179.86,206.0
179.93,203.0
179.99,180.0
180.05,179.0
180.12,183.0
180.18,181.0
180.24,157.0
180.31,169.0
180.37,178.0
180.43,190.0
180.49,171.0
180.56,178.0
180.62,185.0
180.68,198.0
180.75,190.0
180.81,176.0
180.87,172.0
180.94,192.0
181.0,183.0
181.06,153.0
181.12,157.0
181.19,150.0
181.25,185.0
181.31,169.0
181.38,162.0
181.44,164.0
181.5,159.0
181.57,157.0
181.63,115.0
181.69,115.0
181.75,118.0
181.82,112.0
181.88,98.0
181.94,96.0
182.01,82.0
182.07,82.0
182.13,100.0
182.2,85.0
182.26,97.0
182.32,73.0
182.38,73.0
182.45,73.0
182.51,62.0
182.57,49.0
182.64,65.0
182.7,79.0
182.76,57.0
182.83,36.0
182.89,36.0
182.95,44.0
183.01,58.0
183.08,40.0
183.14,26.0
183.2,29.0
183.27,31.0
183.33,41.0
183.39,58.0
183.46,65.0
183.52,55.0
183.58,65.0
183.64,30.0
183.71,60.0
183.77,57.0
183.83,40.0
183.9,66.0
183.96,71.0
184.02,82.0
184.09,78.0
184.15,46.0
184.21,57.0
184.27,62.0
184.34,64.0
184.4,64.0
184.46,37.0
184.53,29.0
184.59,55.0
184.65,79.0
184.72,65.0
184.78,61.0
184.84,63.0
184.9,54.0
184.97,59.0
185.03,69.0
185.09,69.0
185.16,55.0
185.22,67.0
185.28,84.0
185.35,88.0
185.41,75.0
185.47,85.0
185.53,88.0
185.6,74.0
185.66,84.0
185.72,101.0
185.79,94.0
185.85,106.0
185.91,117.0
185.98,104.0
186.04,93.0
186.1,93.0
186.16,102.0
186.23,88.0
186.29,91.0
186.35,113.0
186.42,120.0
186.48,99.0
186.54,100.0
186.61,98.0
186.67,119.0
186.73,106.0
186.79,105.0
186.86,132.0
186.92,105.0
186.98,128.0
187.05,124.0
187.11,103.0
187.17,110.0
187.24,121.0
187.3,125.0
187.36,102.0
187.42,108.0
187.49,111.0
187.55,113.0
187.61,109.0
187.68,117.0
187.74,124.0
187.8,128.0
187.87,129.0
187.93,129.0
187.99,127.0
188.05,132.0
188.12,110.0
188.18,130.0
188.24,122.0
188.31,107.0
188.37,133.0
188.43,114.0
188.5,121.0
188.56,120.0
188.62,135.0
188.68,131.0
188.75,121.0
188.81,118.0
188.87,125.0
188.94,134.0
189.0,131.0
189.06,128.0
189.13,99.0
189.19,110.0
189.25,114.0
189.31,112.0
189.38,122.0
189.44,144.0
189.5,123.0
189.57,128.0
189.63,150.0
189.69,155.0
189.76,150.0
189.82,158.0
189.88,157.0
189.94,145.0
190.01,168.0
190.07,150.0
190.13,144.0
190.2,143.0
190.26,146.0
190.32,137.0
190.39,128.0
190.45,135.0
190.51,139.0
190.57,162.0
190.64,149.0
190.7,146.0
190.76,139.0
190.83,128.0
190.89,141.0
190.95,135.0
191.02,145.0
191.08,123.0
191.14,120.0
191.2,116.0
191.27,129.0
191.33,122.0
191.39,118.0
191.46,126.0
191.52,103.0
191.58,107.0
191.65,117.0
191.71,133.0
191.77,132.0
191.83,130.0
191.9,115.0
191.96,122.0
192.02,128.0
192.09,101.0
192.15,96.0
192.21,105.0
192.28,88.0
192.34,99.0
192.4,108.0
192.46,90.0
192.53,119.0
192.59,114.0
192.65,107.0
192.72,109.0
192.78,82.0
192.84,100.0
192.91,103.0
192.97,101.0
193.03,85.0
193.09,77.0
193.16,88.0
193.22,95.0
193.28,112.0
193.35,109.0
193.41,99.0
193.47,106.0
193.54,116.0
193.6,131.0
193.66,135.0
193.72,126.0
193.79,111.0
193.85,119.0
193.91,100.0
193.98,136.0
194.04,131.0
194.1,140.0
194.17,123.0
194.23,132.0
194.29,122.0
194.35,125.0
194.42,107.0
194.48,96.0
194.54,121.0
194.61,121.0
194.67,120.0
194.73,114.0
194.8,128.0
194.86,133.0
194.92,102.0
194.98,101.0
195.05,109.0
195.11,107.0
195.17,116.0
195.24,129.0
195.3,123.0
195.36,128.0
195.43,114.0
195.49,124.0
195.55,122.0
195.61,134.0
195.68,118.0
195.74,121.0
195.8,147.0
195.87,123.0
195.93,117.0
195.99,115.0
196.06,123.0
196.12,123.0
196.18,128.0
196.24,132.0
196.31,128.0
196.37,124.0
196.43,125.0
196.5,119.0
196.56,109.0
196.62,126.0
196.69,115.0
196.75,118.0
196.81,125.0
196.87,128.0
196.94,109.0
197.0,115.0
197.06,131.0
197.13,126.0
197.19,142.0
197.25,123.0
197.32,131.0
197.38,129.0
197.44,124.0
197.5,107.0
197.57,90.0
197.63,102.0
197.69,102.0
197.76,118.0
197.82,111.0
197.88,112.0
197.95,128.0
198.01,130.0
198.07,106.0
198.13,98.0
198.2,97.0
198.26,83.0
198.32,88.0
198.39,84.0
198.45,98.0
198.51,99.0
198.58,82.0
198.64,75.0
198.7,63.0
198.76,87.0
198.83,91.0
198.89,81.0
198.95,77.0
199.02,78.0
199.08,68.0
199.14,66.0
199.21,67.0
199.27,44.0
199.33,47.0
199.39,64.0
199.46,56.0
199.52,44.0
199.58,41.0
199.65,51.0
199.71,68.0
199.77,75.0
199.84,68.0
199.9,70.0
199.96,56.0
200.02,54.0
200.09,77.0
200.15,48.0
200.21,44.0
200.28,76.0
200.34,59.0
200.4,69.0
200.47,58.0
200.53,59.0
200.59,74.0
200.65,70.0
200.72,81.0
200.78,65.0
200.84,66.0
200.91,76.0
200.97,83.0
201.03,104.0
201.1,95.0
201.16,71.0
201.22,66.0
201.28,71.0
201.35,88.0
201.41,77.0
201.47,99.0
201.54,83.0
201.6,72.0
201.66,74.0
201.73,94.0
201.79,86.0
201.85,82.0
201.91,99.0
201.98,96.0
202.04,96.0
202.1,84.0
202.17,99.0
202.23,106.0
202.29,105.0
202.36,95.0
202.42,110.0
202.48,100.0
202.54,89.0
202.61,93.0
202.67,104.0
202.73,92.0
202.8,92.0
202.86,112.0
202.92,109.0
202.99,106.0
203.05,99.0
203.11,104.0
203.17,109.0
203.24,117.0
203.3,103.0
203.36,120.0
203.43,106.0
203.49,107.0
203.55,109.0
203.62,90.0
203.68,107.0
203.74,99.0
203.8,88.0
203.87,121.0
203.93,106.0
203.99,101.0
204.06,123.0
204.12,110.0
204.18,121.0
204.25,93.0
204.31,78.0
204.37,91.0
204.43,82.0
204.5,79.0
204.56,75.0
204.62,91.0
204.69,98.0
204.75,116.0
204.81,121.0
204.88,126.0
204.94,114.0
205.0,117.0
205.06,115.0
205.13,119.0
205.19,105.0
205.25,94.0
205.32,123.0
205.38,94.0
205.44,97.0
205.51,81.0
205.57,84.0
205.63,76.0
205.69,84.0
205.76,83.0
205.82,76.0
205.88,78.0
205.95,69.0
206.01,82.0
206.07,77.0
206.14,75.0
206.2,69.0
206.26,65.0
206.32,60.0
206.39,53.0
206.45,25.0
206.51,54.0
206.58,60.0
206.64,44.0
206.7,39.0
206.77,44.0
206.83,55.0
206.89,48.0
206.95,34.0
207.02,31.0
207.08,25.0
207.14,41.0
207.21,41.0
207.27,31.0
207.33,7.0
207.4,9.0
207.46,-5.0
207.52,5.0
207.58,-5.0
207.65,-8.0
207.71,-20.0
207.77,-29.0
207.84,-18.0
207.9,-27.0
207.96,-24.0
208.03,-22.0
208.09,-14.0
208.15,-29.0
208.21,-34.0
208.28,-33.0
208.34,-42.0
208.4,-35.0
208.47,-25.0
208.53,-40.0
208.59,-42.0
208.66,-43.0
208.72,-55.0
208.78,-33.0
208.84,-53.0
208.91,-33.0
208.97,-41.0
209.03,-44.0
209.1,-46.0
209.16,-55.0
209.22,-57.0
209.29,-35.0
209.35,-41.0
209.41,-43.0
209.47,-54.0
209.54,-48.0
209.6,-52.0
209.66,-39.0
209.73,-37.0
209.79,-44.0
209.85,-46.0
209.92,-51.0
209.98,-26.0
210.04,-48.0
210.1,-50.0
210.17,-42.0
210.23,-38.0
210.29,-37.0
210.36,-70.0
210.42,-41.0
210.48,-48.0
210.55,-47.0
210.61,-23.0
210.67,-27.0
210.73,-23.0
210.8,-42.0
210.86,-40.0
210.92,-40.0
210.99,-37.0
211.05,-24.0
211.11,-8.0
211.18,-22.0
211.24,-29.0
211.3,-31.0
211.36,-26.0
211.43,-15.0
211.49,-19.0
211.55,-16.0
211.62,-7.0
211.68,-11.0
211.74,-6.0
211.81,-16.0
211.87,-5.0
211.93,-10.0
211.99,-13.0
212.06,-14.0
212.12,-9.0
212.18,1.0
212.25,13.0
212.31,-1.0
212.37,13.0
212.44,23.0
212.5,24.0
212.56,23.0
212.62,41.0
212.69,48.0
212.75,45.0
212.81,48.0
212.88,47.0
212.94,48.0
213.0,49.0
213.07,52.0
213.13,54.0
213.19,44.0
213.25,45.0
213.32,63.0
213.38,68.0
213.44,28.0
213.51,32.0
213.57,34.0
213.63,54.0
213.7,65.0
213.76,59.0
213.82,54.0
213.88,59.0
213.95,57.0
214.01,64.0
214.07,48.0
214.14,59.0
214.2,54.0
214.26,75.0
214.33,68.0
214.39,60.0
214.45,72.0
214.51,82.0
214.58,96.0
214.64,80.0
214.7,93.0
214.77,96.0
214.83,86.0
214.89,87.0
214.96,92.0
215.02,88.0
215.08,97.0
215.14,100.0
215.21,97.0
215.27,96.0
215.33,129.0
215.4,101.0
215.46,91.0
215.52,98.0
215.59,100.0
215.65,117.0
215.71,115.0
215.77,96.0
215.84,103.0
215.9,93.0
215.96,108.0
216.03,91.0
216.09,101.0
216.15,103.0
216.22,93.0
216.28,107.0
216.34,103.0
216.4,135.0
216.47,118.0
216.53,103.0
216.59,107.0
216.66,126.0
216.72,147.0
216.78,120.0
216.85,115.0
216.91,115.0
216.97,114.0
217.03,105.0
217.1,107.0
217.16,120.0
217.22,122.0
217.29,103.0
217.35,117.0
217.41,120.0
217.48,129.0
217.54,120.0
217.6,139.0
217.66,151.0
217.73,148.0
217.79,161.0
217.85,155.0
217.92,163.0
217.98,142.0
218.04,155.0
218.11,167.0
218.17,145.0
218.23,142.0
218.29,154.0
218.36,134.0
218.42,128.0
218.48,134.0
218.55,130.0
218.61,125.0
218.67,118.0
218.74,148.0
218.8,129.0
218.86,156.0
218.92,174.0
218.99,166.0
219.05,161.0
219.11,167.0
219.18,170.0
219.24,168.0
219.3,172.0
219.37,158.0
219.43,152.0
219.49,163.0
219.55,166.0
219.62,159.0
219.68,162.0
219.74,181.0
219.81,177.0
219.87,175.0
219.93,191.0
220.0,190.0
220.06,168.0
220.12,188.0
220.18,187.0
220.25,166.0
220.31,172.0
220.37,167.0
220.44,145.0
220.5,164.0
220.56,170.0
220.63,176.0
220.69,182.0
220.75,176.0
220.81,170.0
220.88,170.0
220.94,174.0
221.0,184.0
221.07,178.0
221.13,177.0
221.19,176.0
221.26,160.0
221.32,167.0
221.38,172.0
221.44,164.0
221.51,175.0
221.57,192.0
221.63,174.0
221.7,163.0
221.76,177.0
221.82,197.0
221.89,191.0
221.95,151.0
222.01,137.0
222.07,150.0
222.14,156.0
222.2,185.0
222.26,159.0
222.33,144.0
222.39,148.0
222.45,158.0
222.52,151.0
222.58,151.0
222.64,134.0
222.7,101.0
222.77,104.0
222.83,99.0
222.89,105.0
222.96,112.0
223.02,96.0
223.08,107.0
223.15,104.0
223.21,92.0
223.27,92.0
223.33,97.0
223.4,97.0
223.46,101.0
223.52,109.0
223.59,100.0
223.65,102.0
223.71,92.0
223.78,116.0
223.84,98.0
223.9,98.0
223.96,111.0
224.03,104.0
224.09,109.0
224.15,128.0
224.22,99.0
224.28,92.0
224.34,71.0
224.41,93.0
224.47,92.0
224.53,82.0
224.59,84.0
224.66,84.0
224.72,92.0
224.78,96.0
224.85,81.0
224.91,102.0
224.97,112.0
225.04,99.0
225.1,109.0
225.16,89.0
225.22,78.0
225.29,83.0
225.35,71.0
225.41,89.0
225.48,85.0
225.54,66.0
225.6,57.0
225.67,63.0
225.73,85.0
225.79,85.0
225.85,72.0
225.92,76.0
225.98,40.0
226.04,71.0
226.11,72.0
226.17,70.0
226.23,71.0
226.3,53.0
226.36,56.0
226.42,67.0
226.48,53.0
226.55,65.0
226.61,71.0
226.67,70.0
226.74,78.0
226.8,76.0
226.86,79.0
226.93,64.0
226.99,78.0
227.05,67.0
227.11,61.0
227.18,68.0
227.24,86.0
227.3,70.0
227.37,72.0
227.43,75.0
227.49,84.0
227.56,85.0
227.62,102.0
227.68,117.0
227.74,119.0
227.81,123.0
227.87,119.0
227.93,123.0
228.0,112.0
228.06,125.0
228.12,128.0
228.19,108.0
228.25,140.0
228.31,165.0
228.37,150.0
228.44,145.0
228.5,118.0
228.56,117.0
228.63,109.0
228.69,129.0
228.75,118.0
228.82,135.0
228.88,144.0
228.94,134.0
229.0,122.0
229.07,130.0
229.13,134.0
229.19,129.0
229.26,122.0
229.32,135.0
229.38,129.0
229.45,134.0
229.51,140.0
229.57,145.0
229.63,143.0
229.7,147.0
229.76,162.0
229.82,163.0
229.89,168.0
229.95,144.0
230.01,155.0
230.08,170.0
230.14,172.0
230.2,174.0
230.26,173.0
230.33,161.0
230.39,164.0
230.45,163.0
230.52,165.0
230.58,182.0
230.64,171.0
230.71,172.0
230.77,177.0
230.83,154.0
230.89,168.0
230.96,170.0
231.02,141.0
231.08,140.0
231.15,142.0
231.21,146.0
231.27,148.0
231.34,144.0
231.4,148.0
231.46,174.0
231.52,174.0
231.59,156.0
231.65,152.0
231.71,155.0
231.78,164.0
231.84,153.0
231.9,161.0
231.97,170.0
232.03,167.0
232.09,143.0
232.15,139.0
232.22,139.0
232.28,121.0
232.34,133.0
232.41,144.0
232.47,145.0
232.53,151.0
232.6,139.0
232.66,139.0
232.72,137.0
232.78,148.0
232.85,140.0
232.91,116.0
232.97,125.0
233.04,106.0
233.1,106.0
233.16,127.0
233.23,148.0
233.29,116.0
233.35,115.0
233.41,114.0
233.48,103.0
233.54,98.0
233.6,122.0
233.67,95.0
233.73,81.0
233.79,74.0
233.86,78.0
233.92,89.0
233.98,76.0
234.04,93.0
234.11,87.0
234.17,84.0
234.23,104.0
234.3,80.0
234.36,96.0
234.42,107.0
234.49,95.0
234.55,106.0
234.61,83.0
234.67,75.0
234.74,89.0
234.8,91.0
234.86,106.0
234.93,106.0
234.99,99.0
235.05,82.0
235.12,71.0
235.18,75.0
235.24,95.0
235.3,105.0
235.37,89.0
235.43,85.0
235.49,71.0
235.56,52.0
235.62,90.0
235.68,64.0
235.75,77.0
235.81,80.0
235.87,93.0
235.93,87.0
236.0,81.0
236.06,73.0
236.12,90.0
236.19,89.0
236.25,74.0
236.31,65.0
236.38,79.0
236.44,62.0
236.5,55.0
236.56,60.0
236.63,49.0
236.69,69.0
236.75,43.0
236.82,36.0
236.88,45.0
236.94,46.0
237.01,30.0
237.07,46.0
237.13,14.0
237.19,14.0
237.26,14.0
237.32,6.0
237.38,6.0
237.45,1.0
237.51,7.0
237.57,21.0
237.64,18.0
237.7,8.0
237.76,12.0
237.82,2.0
237.89,11.0
237.95,4.0
238.01,2.0
238.08,-3.0
238.14,4.0
238.2,19.0
238.27,5.0
238.33,16.0
238.39,16.0
238.45,21.0
238.52,22.0
238.58,22.0
238.64,22.0
238.71,19.0
238.77,4.0
238.83,3.0
238.9,15.0
238.96,29.0
239.02,14.0
239.08,12.0
239.15,11.0
239.21,-1.0
239.27,29.0
239.34,1.0
239.4,7.0
239.46,-14.0
239.53,-18.0
239.59,8.0
239.65,8.0
239.71,-3.0
239.78,-19.0
239.84,-24.0
239.9,5.0
239.97,13.0
240.03,21.0
240.09,0.0
240.16,-22.0
240.22,-5.0
240.28,6.0
240.34,3.0
240.41,13.0
240.47,20.0
240.53,24.0
240.6,14.0
240.66,27.0
240.72,34.0
240.79,23.0
240.85,28.0
240.91,12.0
240.97,7.0
241.04,16.0
241.1,10.0
241.16,3.0
241.23,8.0
241.29,-1.0
241.35,-9.0
241.42,2.0
241.48,8.0
241.54,-24.0
241.6,2.0
241.67,-15.0
241.73,-18.0
241.79,-21.0
241.86,-4.0
241.92,8.0
241.98,5.0
242.05,1.0
242.11,-17.0
242.17,-9.0
242.23,14.0
242.3,15.0
242.36,11.0
242.42,2.0
242.49,22.0
242.55,26.0
242.61,34.0
242.68,20.0
242.74,13.0
242.8,19.0
242.86,13.0
242.93,22.0
242.99,14.0
243.05,15.0
243.12,28.0
243.18,46.0
243.24,57.0
243.31,47.0
243.37,30.0
243.43,40.0
243.49,46.0
243.56,64.0
243.62,80.0
243.68,76.0
243.75,75.0
243.81,91.0
243.87,83.0
243.94,95.0
244.0,94.0
244.06,84.0
244.12,93.0
244.19,76.0
244.25,90.0
244.31,96.0
244.38,99.0
244.44,111.0
244.5,107.0
244.57,107.0
244.63,116.0
244.69,119.0
244.75,117.0
244.82,99.0
244.88,107.0
244.94,124.0
245.01,131.0
245.07,121.0
245.13,100.0
245.2,100.0
245.26,115.0
245.32,125.0
245.38,114.0
245.45,129.0
245.51,115.0
245.57,127.0
245.64,115.0
245.7,132.0
245.76,130.0
245.83,138.0
245.89,151.0
245.95,135.0
246.01,128.0
246.08,132.0
246.14,128.0
246.2,135.0
246.27,139.0
246.33,154.0
246.39,149.0
246.46,143.0
246.52,146.0
246.58,141.0
246.64,173.0
246.71,161.0
246.77,177.0
246.83,168.0
246.9,147.0
246.96,158.0
247.02,174.0
247.09,176.0
247.15,180.0
247.21,177.0
247.27,183.0
247.34,195.0
247.4,205.0
247.46,215.0
247.53,213.0
247.59,226.0
247.65,231.0
247.72,202.0
247.78,209.0
247.84,190.0
247.9,194.0
247.97,195.0
248.03,197.0
248.09,198.0
248.16,171.0
248.22,206.0
248.28,203.0
248.35,216.0
248.41,194.0
248.47,171.0
248.53,160.0
248.6,162.0
248.66,180.0
248.72,183.0
248.79,171.0
248.85,161.0
248.91,154.0
248.98,153.0
249.04,153.0
249.1,147.0
249.16,139.0
249.23,143.0
249.29,149.0
249.35,148.0
249.42,137.0
249.48,152.0
249.54,132.0
249.61,116.0
249.67,118.0
249.73,125.0
249.79,121.0
249.86,127.0
249.92,128.0
249.98,145.0
250.05,119.0
250.11,114.0
250.17,136.0
250.24,133.0
250.3,137.0
250.36,129.0
250.42,141.0
250.49,155.0
250.55,161.0
250.61,154.0
250.68,166.0
250.74,165.0
250.8,165.0
250.87,170.0
250.93,171.0
250.99,155.0
251.05,149.0
251.12,161.0
251.18,176.0
251.24,154.0
251.31,144.0
251.37,165.0
251.43,162.0
251.5,154.0
251.56,168.0
251.62,164.0
251.68,186.0
251.75,153.0
251.81,147.0
251.87,171.0
251.94,176.0
252.0,161.0
252.06,171.0
252.13,173.0
252.19,173.0
252.25,174.0
252.31,187.0
252.38,168.0
252.44,154.0
252.5,149.0
252.57,148.0
252.63,158.0
252.69,166.0
252.76,158.0
252.82,135.0
252.88,140.0
252.94,141.0
253.01,155.0
253.07,150.0
253.13,134.0
253.2,135.0
253.26,143.0
253.32,136.0
253.39,141.0
253.45,141.0
253.51,135.0
253.57,145.0
253.64,147.0
253.7,146.0
253.76,177.0
253.83,182.0
253.89,177.0
253.95,176.0
254.02,172.0
254.08,153.0
254.14,155.0
254.2,161.0
254.27,163.0
254.33,147.0
254.39,152.0
254.46,163.0
254.52,142.0
254.58,153.0
254.65,144.0
254.71,138.0
254.77,142.0
254.83,152.0
254.9,163.0
254.96,152.0
255.02,150.0
255.09,138.0
255.15,122.0
255.21,119.0
255.28,121.0
255.34,141.0
255.4,139.0
255.46,128.0
255.53,121.0
255.59,115.0
255.65,145.0
255.72,145.0
255.78,135.0
255.84,135.0
255.91,147.0
255.97,133.0
256.03,144.0
256.09,160.0
256.16,158.0
256.22,138.0
256.28,130.0
256.35,133.0
256.41,138.0
256.47,139.0
256.54,136.0
256.6,136.0
256.66,125.0
256.72,120.0
256.79,110.0
256.85,121.0
256.91,128.0
256.98,122.0
257.04,121.0
257.1,106.0
257.17,101.0
257.23,85.0
257.29,102.0
257.35,98.0
257.42,86.0
257.48,94.0
257.54,86.0
257.61,82.0
257.67,67.0
257.73,67.0
257.8,76.0
257.86,94.0
257.92,73.0
257.98,56.0
258.05,72.0
258.11,47.0
258.17,71.0
258.24,85.0
258.3,81.0
258.36,68.0
258.43,75.0
258.49,92.0
258.55,80.0
258.61,92.0
258.68,85.0
258.74,93.0
258.8,100.0
258.87,91.0
258.93,88.0
258.99,96.0
259.06,79.0
259.12,78.0
259.18,82.0
259.24,73.0
259.31,62.0
259.37,60.0
259.43,61.0
259.5,59.0
259.56,64.0
259.62,77.0
259.69,63.0
259.75,50.0
259.81,59.0
259.87,55.0
259.94,48.0
260.0,60.0
260.06,68.0
260.13,65.0
260.19,55.0
260.25,43.0
260.32,74.0
260.38,70.0
260.44,66.0
260.5,69.0
260.57,55.0
260.63,55.0
260.69,73.0
260.76,72.0
260.82,54.0
260.88,33.0
260.95,33.0
261.01,22.0
261.07,3.0
261.13,33.0
261.2,28.0
261.26,55.0
261.32,52.0
261.39,20.0
261.45,42.0
261.51,42.0
261.58,51.0
261.64,47.0
261.7,32.0
261.76,42.0
261.83,50.0
261.89,47.0
261.95,46.0
262.02,51.0
262.08,48.0
262.14,64.0
262.21,64.0
262.27,62.0
262.33,70.0
262.39,70.0
262.46,82.0
262.52,72.0
262.58,61.0
262.65,54.0
262.71,55.0
262.77,74.0
262.84,57.0
262.9,58.0
262.96,43.0
263.02,34.0
263.09,60.0
263.15,74.0
263.21,44.0
263.28,26.0
263.34,16.0
263.4,16.0
263.47,31.0
263.53,32.0
263.59,23.0
263.65,29.0
263.72,30.0
263.78,25.0
263.84,25.0
263.91,6.0
263.97,7.0
264.03,14.0
264.1,0.0
264.16,10.0
264.22,-2.0
264.28,11.0
264.35,14.0
264.41,30.0
264.47,16.0
264.54,5.0
264.6,5.0
264.66,-5.0
264.73,-4.0
264.79,-18.0
264.85,5.0
264.91,2.0
264.98,-1.0
265.04,7.0
265.1,-3.0
265.17,-30.0
265.23,-12.0
265.29,10.0
265.36,-7.0
265.42,-1.0
265.48,8.0
265.54,1.0
265.61,-17.0
265.67,-14.0
265.73,-15.0
265.8,-20.0
265.86,-13.0
265.92,-32.0
265.99,-25.0
266.05,-30.0
266.11,-27.0
266.17,-9.0
266.24,-16.0
266.3,-24.0
266.36,-30.0
266.43,-52.0
266.49,-29.0
266.55,-13.0
266.62,-26.0
266.68,-40.0
266.74,-20.0
266.8,-2.0
266.87,-21.0
266.93,-25.0
266.99,-13.0
267.06,-26.0
267.12,-5.0
267.18,-2.0
267.25,-1.0
267.31,-17.0
267.37,2.0
267.43,2.0
267.5,2.0
267.56,-12.0
267.62,7.0
267.69,-9.0
267.75,-14.0
267.81,-11.0
267.88,-2.0
267.94,-6.0
268.0,-20.0
268.06,-15.0
268.13,-3.0
268.19,15.0
268.25,25.0
268.32,22.0
268.38,23.0
268.44,10.0
268.51,18.0
268.57,31.0
268.63,15.0
268.69,18.0
268.76,11.0
268.82,16.0
268.88,14.0
268.95,6.0
269.01,19.0
269.07,11.0
269.14,17.0
269.2,14.0
269.26,-1.0
269.32,25.0
269.39,19.0
269.45,16.0
269.51,32.0
269.58,42.0
269.64,48.0
269.7,43.0
269.77,35.0
269.83,35.0
269.89,39.0
269.95,34.0
270.02,34.0
270.08,28.0
270.14,62.0
270.21,50.0
270.27,40.0
270.33,63.0
270.4,67.0
270.46,62.0
270.52,60.0
270.58,79.0
270.65,72.0
270.71,87.0
270.77,78.0
270.84,52.0
270.9,64.0
270.96,58.0
271.03,54.0
271.09,73.0
271.15,62.0
271.21,62.0
271.28,62.0
271.34,63.0
271.4,55.0
271.47,74.0
271.53,93.0
271.59,87.0
271.66,86.0
271.72,69.0
271.78,79.0
271.84,43.0
271.91,61.0
271.97,78.0
272.03,95.0
272.1,78.0
272.16,75.0
272.22,99.0
272.29,100.0
272.35,86.0
272.41,84.0
272.47,70.0
272.54,85.0
272.6,94.0
272.66,89.0
272.73,102.0
272.79,111.0
272.85,108.0
272.92,114.0
272.98,95.0
273.04,120.0
273.1,111.0
273.17,133.0
273.23,125.0
273.29,137.0
273.36,133.0
273.42,145.0
273.48,139.0
273.55,134.0
273.61,150.0
273.67,157.0
273.73,155.0
273.8,145.0
273.86,145.0
273.92,152.0
273.99,176.0
274.05,177.0
274.11,140.0
274.18,151.0
274.24,159.0
274.3,142.0
274.36,148.0
274.43,137.0
274.49,139.0
274.55,166.0
274.62,150.0
274.68,166.0
274.74,146.0
274.81,151.0
274.87,148.0
274.93,173.0
274.99,144.0
275.06,152.0
275.12,152.0
275.18,135.0
275.25,145.0
275.31,142.0
275.37,148.0
275.44,158.0
275.5,161.0
275.56,147.0
275.62,137.0
275.69,158.0
275.75,180.0
275.81,188.0
275.88,166.0
275.94,162.0
276.0,164.0
276.07,159.0
276.13,155.0
276.19,170.0
276.25,170.0
276.32,170.0
276.38,173.0
276.44,156.0
276.51,159.0
276.57,172.0
276.63,173.0
276.7,173.0
276.76,180.0
276.82,169.0
276.88,174.0
276.95,185.0
277.01,171.0
277.07,178.0
277.14,178.0
277.2,188.0
277.26,166.0
277.33,161.0
277.39,156.0
277.45,169.0
277.51,172.0
277.58,169.0
277.64,174.0
277.7,185.0
277.77,150.0
277.83,148.0
277.89,141.0
277.96,138.0
278.02,150.0
278.08,163.0
278.14,160.0
278.21,157.0
278.27,167.0
278.33,159.0
278.4,155.0
278.46,169.0
278.52,153.0
278.59,156.0
278.65,169.0
278.71,166.0
278.77,185.0
278.84,167.0
278.9,175.0
278.96,175.0
279.03,161.0
279.09,142.0
279.15,146.0
279.22,164.0
279.28,173.0
279.34,189.0
279.4,178.0
279.47,171.0
279.53,191.0
279.59,195.0
279.66,189.0
279.72,172.0
279.78,175.0
279.85,190.0
279.91,213.0
279.97,200.0
280.03,200.0
280.1,212.0
280.16,213.0
280.22,214.0
280.29,199.0
280.35,192.0
280.41,193.0
280.48,195.0
280.54,180.0
280.6,181.0
280.66,183.0
280.73,163.0
280.79,173.0
280.85,163.0
280.92,163.0
280.98,158.0
281.04,146.0
281.11,150.0
281.17,164.0
281.23,148.0
281.29,130.0
281.36,130.0
281.42,167.0
281.48,162.0
281.55,169.0
281.61,159.0
281.67,155.0
281.74,139.0
281.8,139.0
281.86,151.0
281.92,162.0
281.99,144.0
282.05,135.0
282.11,139.0
282.18,156.0
282.24,163.0
282.3,169.0
282.37,139.0
282.43,154.0
282.49,156.0
282.55,141.0
282.62,137.0
282.68,155.0
282.74,144.0
282.81,158.0
282.87,137.0
282.93,134.0
283.0,131.0
283.06,111.0
283.12,134.0
283.18,129.0
283.25,137.0
283.31,129.0
283.37,113.0
283.44,156.0
283.5,139.0
283.56,125.0
283.63,134.0
283.69,144.0
283.75,148.0
283.81,131.0
283.88,116.0
283.94,133.0
284.0,164.0
284.07,156.0
284.13,153.0
284.19,140.0
284.26,139.0
284.32,152.0
284.38,126.0
284.44,135.0
284.51,140.0
284.57,148.0
284.63,137.0
284.7,140.0
284.76,145.0
284.82,157.0
284.89,146.0
284.95,146.0
285.01,158.0
285.07,136.0
285.14,140.0
285.2,125.0
285.26,132.0
285.33,136.0
285.39,126.0
285.45,126.0
285.52,126.0
285.58,126.0
285.64,129.0
285.7,114.0
285.77,118.0
285.83,113.0
285.89,115.0
285.96,122.0
286.02,142.0
286.08,123.0
286.15,148.0
286.21,152.0
286.27,125.0
286.33,134.0
286.4,127.0
286.46,125.0
286.52,122.0
286.59,132.0
286.65,149.0
286.71,151.0
286.78,141.0
286.84,126.0
286.9,126.0
286.96,132.0
287.03,142.0
287.09,129.0
287.15,126.0
287.22,116.0
287.28,111.0
287.34,112.0
287.41,119.0
287.47,114.0
287.53,113.0
287.59,109.0
287.66,124.0
287.72,140.0
287.78,128.0
287.85,130.0
287.91,140.0
287.97,118.0
288.04,145.0
288.1,141.0
288.16,114.0
288.22,133.0
288.29,122.0
288.35,122.0
288.41,146.0
288.48,149.0
288.54,143.0
288.6,132.0
288.67,137.0
288.73,140.0
288.79,119.0
288.85,113.0
288.92,107.0
288.98,118.0
289.04,104.0
289.11,105.0
289.17,100.0
289.23,101.0
289.3,122.0
289.36,109.0
289.42,114.0
289.48,126.0
289.55,123.0
289.61,114.0
289.67,102.0
289.74,109.0
289.8,113.0
289.86,128.0
289.93,116.0
289.99,117.0
290.05,112.0
290.11,120.0
290.18,111.0
290.24,108.0
290.3,129.0
290.37,102.0
290.43,100.0
290.49,134.0
290.56,141.0
290.62,126.0
290.68,133.0
290.74,126.0
290.81,119.0
290.87,113.0
290.93,93.0
291.0,104.0
291.06,103.0
291.12,97.0
291.19,87.0
291.25,92.0
291.31,88.0
291.37,103.0
291.44,82.0
291.5,79.0
291.56,117.0
291.63,117.0
291.69,90.0
291.75,93.0
291.82,104.0
291.88,98.0
291.94,88.0
292.0,84.0
292.07,95.0
292.13,93.0
292.19,98.0
292.26,95.0
292.32,96.0
292.38,98.0
292.45,90.0
292.51,99.0
292.57,76.0
292.63,84.0
292.7,82.0
292.76,86.0
292.82,82.0
292.89,67.0
292.95,74.0
293.01,87.0
293.08,71.0
293.14,56.0
293.2,67.0
293.26,79.0
293.33,51.0
293.39,59.0
293.45,64.0
293.52,69.0
293.58,78.0
293.64,59.0
293.71,83.0
293.77,74.0
293.83,65.0
293.89,64.0
293.96,72.0
294.02,63.0
294.08,75.0
294.15,67.0
294.21,78.0
294.27,72.0
294.34,74.0
294.4,88.0
294.46,98.0
294.52,85.0
294.59,89.0
294.65,89.0
294.71,77.0
294.78,89.0
294.84,77.0
294.9,75.0
294.97,69.0
295.03,77.0
295.09,81.0
295.15,78.0
295.22,82.0
295.28,87.0
295.34,111.0
295.41,79.0
295.47,84.0
295.53,106.0
295.6,115.0
295.66,119.0
295.72,110.0
295.78,103.0
295.85,114.0
295.91,113.0
295.97,107.0
296.04,119.0
296.1,121.0
296.16,123.0
296.23,131.0
296.29,120.0
296.35,133.0
296.41,123.0
296.48,122.0
296.54,108.0
296.6,120.0
296.67,133.0
296.73,131.0
296.79,127.0
296.86,111.0
296.92,103.0
296.98,115.0
297.04,126.0
297.11,122.0
297.17,127.0
297.23,119.0
297.3,128.0
297.36,118.0
297.42,124.0
297.49,116.0
297.55,126.0
297.61,134.0
297.67,154.0
297.74,131.0
297.8,127.0
297.86,144.0
297.93,170.0
297.99,155.0
298.05,156.0
298.12,159.0
298.18,148.0
298.24,159.0
298.3,167.0
298.37,167.0
298.43,153.0
298.49,163.0
298.56,156.0
298.62,169.0
298.68,174.0
298.75,157.0
298.81,146.0
298.87,142.0
298.93,132.0
299.0,131.0
299.06,136.0
299.12,124.0
299.19,129.0
299.25,129.0
299.31,145.0
299.38,137.0
299.44,136.0
299.5,145.0
299.56,141.0
299.63,143.0
299.69,140.0
299.75,139.0
299.82,124.0
299.88,124.0
299.94,149.0
300.01,126.0
300.07,122.0
300.13,132.0
300.19,135.0
300.26,138.0
300.32,132.0
300.38,128.0
300.45,126.0
300.51,137.0
300.57,150.0
300.64,150.0
300.7,155.0
300.76,155.0
300.82,158.0
300.89,148.0
300.95,172.0
301.01,149.0
301.08,153.0
301.14,153.0
301.2,137.0
301.27,140.0
301.33,145.0
301.39,141.0
301.45,138.0
301.52,142.0
301.58,156.0
301.64,149.0
301.71,148.0
301.77,164.0
301.83,151.0
301.9,144.0
301.96,152.0
302.02,159.0
302.08,166.0
302.15,170.0
302.21,184.0
302.27,181.0
302.34,145.0
302.4,171.0
302.46,199.0
302.53,186.0
302.59,191.0
302.65,188.0
302.71,201.0
302.78,205.0
302.84,201.0
302.9,175.0
302.97,196.0
303.03,199.0
303.09,189.0
303.16,198.0
303.22,188.0
303.28,195.0
303.34,193.0
303.41,200.0
303.47,194.0
303.53,188.0
303.6,183.0
303.66,192.0
303.72,199.0
303.79,188.0
303.85,214.0
303.91,194.0
303.97,189.0
304.04,178.0
304.1,191.0
304.16,183.0
304.23,174.0
304.29,191.0
304.35,176.0
304.42,189.0
304.48,174.0
304.54,168.0
304.6,177.0
304.67,177.0
304.73,180.0
304.79,161.0
304.86,161.0
304.92,159.0
304.98,155.0
305.05,165.0
305.11,163.0
305.17,156.0
305.23,172.0
305.3,177.0
305.36,160.0
305.42,159.0
305.49,174.0
305.55,158.0
305.61,161.0
305.68,167.0
305.74,179.0
305.8,159.0
305.86,153.0
305.93,158.0
305.99,159.0
306.05,185.0
306.12,162.0
306.18,180.0
306.24,163.0
306.31,152.0
306.37,153.0
306.43,158.0
306.49,153.0
306.56,141.0
306.62,141.0
306.68,158.0
306.75,162.0
306.81,152.0
306.87,151.0
306.94,139.0
307.0,148.0
307.06,137.0
307.12,141.0
307.19,133.0
307.25,123.0
307.31,132.0
307.38,110.0
307.44,114.0
307.5,98.0
307.57,112.0
307.63,109.0
307.69,98.0
307.75,102.0
307.82,98.0
307.88,105.0
307.94,98.0
308.01,85.0
308.07,83.0
308.13,94.0
308.2,93.0
308.26,71.0
308.32,65.0
308.38,68.0
308.45,76.0
308.51,58.0
308.57,61.0
308.64,75.0
308.7,92.0
308.76,77.0
308.83,63.0
308.89,71.0
308.95,79.0
309.01,93.0
309.08,64.0
309.14,64.0
309.2,79.0
309.27,69.0
309.33,53.0
309.39,59.0
309.46,70.0
309.52,63.0
309.58,61.0
309.64,82.0
309.71,82.0
309.77,83.0
309.83,76.0
309.9,76.0
309.96,86.0
310.02,62.0
310.09,65.0
310.15,53.0
310.21,57.0
310.27,63.0
310.34,67.0
310.4,59.0
310.46,53.0
310.53,76.0
310.59,71.0
310.65,85.0
310.72,59.0
310.78,78.0
310.84,82.0
310.9,72.0
310.97,78.0
311.03,76.0
311.09,79.0
311.16,63.0
311.22,69.0
311.28,86.0
311.35,97.0
311.41,89.0
311.47,89.0
311.53,98.0
311.6,97.0
311.66,96.0
311.72,88.0
311.79,86.0
311.85,110.0
311.91,106.0
311.98,111.0
312.04,93.0
312.1,97.0
312.16,102.0
312.23,82.0
312.29,89.0
312.35,114.0
312.42,110.0
312.48,120.0
312.54,119.0
312.61,101.0
312.67,98.0
312.73,101.0
312.79,96.0
312.86,119.0
312.92,103.0
312.98,103.0
313.05,100.0
313.11,111.0
313.17,119.0
313.24,107.0
313.3,112.0
313.36,107.0
313.42,109.0
313.49,99.0
313.55,126.0
313.61,103.0
313.68,110.0
313.74,105.0
313.8,130.0
313.87,124.0
313.93,115.0
313.99,128.0
314.05,123.0
314.12,121.0
314.18,133.0
314.24,136.0
314.31,140.0
314.37,138.0
314.43,140.0
314.5,140.0
314.56,152.0
314.62,156.0
314.68,151.0
314.75,141.0
314.81,152.0
314.87,145.0
314.94,151.0
315.0,144.0
315.06,139.0
315.13,130.0
315.19,142.0
315.25,139.0
315.31,131.0
315.38,147.0
315.44,152.0
315.5,150.0
315.57,137.0
315.63,140.0
315.69,141.0
315.76,142.0
315.82,145.0
315.88,147.0
315.94,140.0
316.01,144.0
316.07,120.0
316.13,114.0
316.2,128.0
316.26,117.0
316.32,107.0
316.39,106.0
316.45,110.0
316.51,105.0
316.57,106.0
316.64,122.0
316.7,102.0
316.76,94.0
316.83,108.0
316.89,125.0
316.95,115.0
317.02,99.0
317.08,109.0
317.14,123.0
317.2,121.0
317.27,127.0
317.33,116.0
317.39,109.0
317.46,111.0
317.52,102.0
317.58,112.0
317.65,88.0
317.71,98.0
317.77,123.0
317.83,104.0
317.9,109.0
317.96,134.0
318.02,141.0
318.09,131.0
318.15,140.0
318.21,135.0
318.28,162.0
318.34,152.0
318.4,153.0
318.46,160.0
318.53,164.0
318.59,152.0
318.65,155.0
318.72,159.0
318.78,142.0
318.84,128.0
318.91,150.0
318.97,143.0
319.03,137.0
319.09,131.0
319.16,135.0
319.22,139.0
319.28,150.0
319.35,130.0
319.41,121.0
319.47,128.0
319.54,131.0
319.6,123.0
319.66,118.0
319.72,120.0
319.79,137.0
319.85,119.0
319.91,109.0
319.98,119.0
320.04,147.0
320.1,149.0
320.17,141.0
320.23,125.0
320.29,124.0
320.35,123.0
320.42,126.0
320.48,125.0
320.54,136.0
320.61,127.0
320.67,140.0
320.73,132.0
320.8,154.0
320.86,142.0
320.92,137.0
320.98,140.0
321.05,142.0
321.11,144.0
321.17,151.0
321.24,161.0
321.3,134.0
321.36,118.0
321.43,121.0
321.49,108.0
321.55,124.0
321.61,137.0
321.68,106.0
321.74,111.0
321.8,101.0
321.87,93.0
321.93,80.0
321.99,88.0
322.06,89.0
322.12,91.0
322.18,114.0
322.24,105.0
322.31,111.0
322.37,88.0
322.43,85.0
322.5,94.0
322.56,71.0
322.62,78.0
322.69,84.0
322.75,104.0
322.81,111.0
322.87,75.0
322.94,72.0
323.0,70.0
323.06,88.0
323.13,106.0
323.19,88.0
323.25,79.0
323.32,76.0
323.38,84.0
323.44,100.0
323.5,99.0
323.57,89.0
323.63,97.0
323.69,102.0
323.76,108.0
323.82,117.0
323.88,122.0
323.95,98.0
324.01,95.0
324.07,119.0
324.13,130.0
324.2,143.0
324.26,126.0
324.32,141.0
324.39,126.0
324.45,115.0
324.51,114.0
324.58,104.0
324.64,113.0
324.7,109.0
324.76,113.0
324.83,95.0
324.89,122.0
324.95,113.0
325.02,132.0
325.08,133.0
325.14,127.0
325.21,139.0
325.27,132.0
325.33,128.0
325.39,104.0
325.46,109.0
325.52,118.0
325.58,137.0
325.65,127.0
325.71,106.0
325.77,93.0
325.84,115.0
325.9,95.0
325.96,89.0
326.02,104.0
326.09,98.0
326.15,78.0
326.21,82.0
326.28,94.0
326.34,93.0
326.4,84.0
326.47,86.0
326.53,88.0
326.59,106.0
326.65,94.0
326.72,99.0
326.78,103.0
326.84,104.0
326.91,101.0
326.97,113.0
327.03,123.0
327.1,128.0
327.16,120.0
327.22,114.0
327.28,115.0
327.35,125.0
327.41,118.0
327.47,130.0
327.54,132.0
327.6,128.0
327.66,132.0
327.73,136.0
327.79,148.0
327.85,122.0
327.91,140.0
327.98,124.0
328.04,137.0
328.1,151.0
328.17,163.0
328.23,178.0
328.29,180.0
328.36,186.0
328.42,194.0
328.48,202.0
328.54,205.0
328.61,189.0
328.67,205.0
328.73,195.0
328.8,215.0
328.86,216.0
328.92,210.0
328.99,213.0
329.05,212.0
329.11,217.0
329.17,233.0
329.24,234.0
329.3,233.0
329.36,219.0
329.43,238.0
329.49,227.0
329.55,218.0
329.62,228.0
329.68,225.0
329.74,236.0
329.8,241.0
329.87,241.0
329.93,225.0
329.99,219.0
330.06,191.0
330.12,203.0
330.18,205.0
330.25,195.0
330.31,191.0
330.37,203.0
330.43,203.0
330.5,215.0
330.56,204.0
330.62,214.0
330.69,227.0
330.75,228.0
330.81,212.0
330.88,211.0
330.94,239.0
331.0,195.0
331.06,210.0
331.13,204.0
331.19,190.0
331.25,186.0
331.32,186.0
331.38,180.0
331.44,181.0
331.51,188.0
331.57,197.0
331.63,203.0
331.69,203.0
331.76,198.0
331.82,202.0
331.88,224.0
331.95,200.0
332.01,216.0
332.07,194.0
332.14,194.0
332.2,189.0
332.26,192.0
332.32,188.0
332.39,177.0
332.45,193.0
332.51,182.0
332.58,195.0
332.64,181.0
332.7,178.0
332.77,181.0
332.83,169.0
332.89,190.0
332.95,187.0
333.02,188.0
333.08,222.0
333.14,208.0
333.21,211.0
333.27,195.0
333.33,177.0
333.4,201.0
333.46,188.0
333.52,202.0
333.58,183.0
333.65,179.0
333.71,181.0
333.77,168.0
333.84,158.0
333.9,165.0
333.96,175.0
334.03,151.0
334.09,158.0
334.15,152.0
334.21,155.0
334.28,151.0
334.34,147.0
334.4,145.0
334.47,174.0
334.53,177.0
334.59,160.0
334.66,178.0
334.72,180.0
334.78,175.0
334.84,184.0
334.91,175.0
334.97,174.0
335.03,181.0
335.1,173.0
335.16,169.0
335.22,172.0
335.29,172.0
335.35,175.0
335.41,175.0
335.47,181.0
335.54,180.0
335.6,173.0
335.66,171.0
335.73,166.0
335.79,168.0
335.85,172.0
335.92,156.0
335.98,151.0
336.04,169.0
336.1,143.0
336.17,169.0
336.23,192.0
336.29,177.0
336.36,167.0
336.42,158.0
336.48,162.0
336.55,158.0
336.61,188.0
336.67,205.0
336.73,198.0
336.8,191.0
336.86,167.0
336.92,167.0
336.99,175.0
337.05,181.0
337.11,171.0
337.18,181.0
337.24,173.0
337.3,164.0
337.36,155.0
337.43,157.0
337.49,155.0
337.55,142.0
337.62,164.0
337.68,169.0
337.74,156.0
337.81,161.0
337.87,141.0
337.93,137.0
337.99,131.0
338.06,142.0
338.12,167.0
338.18,156.0
338.25,164.0
338.31,144.0
338.37,146.0
338.44,148.0
338.5,146.0
338.56,140.0
338.62,134.0
338.69,121.0
338.75,131.0
338.81,136.0
338.88,121.0
338.94,135.0
339.0,138.0
339.07,126.0
339.13,138.0
339.19,126.0
339.25,138.0
339.32,139.0
339.38,159.0
339.44,151.0
339.51,168.0
339.57,174.0
339.63,161.0
339.7,169.0
339.76,170.0
339.82,173.0
339.88,155.0
339.95,161.0
340.01,131.0
340.07,139.0
340.14,150.0
340.2,117.0
340.26,115.0
340.33,132.0
340.39,123.0
340.45,120.0
340.51,133.0
340.58,125.0
340.64,128.0
340.7,136.0
340.77,139.0
340.83,148.0
340.89,126.0
340.96,126.0
341.02,119.0
341.08,122.0
341.14,128.0
341.21,126.0
341.27,137.0
341.33,125.0
341.4,99.0
341.46,86.0
341.52,73.0
341.59,76.0
341.65,73.0
341.71,67.0
341.77,78.0
341.84,60.0
341.9,74.0
341.96,68.0
342.03,64.0
342.09,57.0
342.15,68.0
342.22,89.0
342.28,70.0
342.34,67.0
342.4,59.0
342.47,62.0
342.53,63.0
342.59,80.0
342.66,79.0
342.72,65.0
342.78,84.0
342.85,61.0
342.91,49.0
342.97,64.0
343.03,56.0
343.1,76.0
343.16,59.0
343.22,39.0
343.29,57.0
343.35,67.0
343.41,81.0
343.48,64.0
343.54,60.0
343.6,71.0
343.66,81.0
343.73,75.0
343.79,56.0
343.85,76.0
343.92,70.0
343.98,69.0
344.04,81.0
344.11,78.0
344.17,101.0
344.23,99.0
344.29,85.0
344.36,82.0
344.42,100.0
344.48,118.0
344.55,104.0
344.61,86.0
344.67,95.0
344.74,100.0
344.8,110.0
344.86,111.0
344.92,122.0
344.99,112.0
345.05,117.0
345.11,99.0
345.18,101.0
345.24,127.0
345.3,127.0
345.37,97.0
345.43,119.0
345.49,122.0
345.55,109.0
345.62,141.0
345.68,122.0
345.74,125.0
345.81,137.0
345.87,123.0
345.93,150.0
346.0,133.0
346.06,144.0
346.12,133.0
346.18,134.0
346.25,123.0
346.31,119.0
346.37,112.0
346.44,110.0
346.5,119.0
346.56,107.0
346.63,126.0
346.69,127.0
346.75,147.0
346.81,126.0
346.88,122.0
346.94,110.0
347.0,106.0
347.07,113.0
347.13,89.0
347.19,98.0
347.26,120.0
347.32,128.0
347.38,121.0
347.44,118.0
347.51,118.0
347.57,115.0
347.63,128.0
347.7,126.0
347.76,113.0
347.82,125.0
347.89,136.0
347.95,138.0
348.01,137.0
348.07,137.0
348.14,115.0
348.2,100.0
348.26,103.0
348.33,114.0
348.39,103.0
348.45,119.0
348.52,99.0
348.58,110.0
348.64,98.0
348.7,81.0
348.77,128.0
348.83,89.0
348.89,77.0
348.96,92.0
349.02,92.0
349.08,72.0
349.15,85.0
349.21,74.0
349.27,67.0
349.33,62.0
349.4,69.0
349.46,54.0
349.52,79.0
349.59,76.0
349.65,68.0
349.71,80.0
349.78,67.0
349.84,81.0
349.9,89.0
349.96,81.0
350.03,71.0
350.09,72.0
350.15,68.0
350.22,87.0
350.28,97.0
350.34,95.0
350.41,89.0
350.47,96.0
350.53,74.0
350.59,90.0
350.66,91.0
350.72,79.0
350.78,82.0
350.85,68.0
350.91,89.0
350.97,82.0
351.04,60.0
351.1,44.0
351.16,82.0
351.22,84.0
351.29,81.0
351.35,65.0
351.41,78.0
351.48,79.0
351.54,86.0
351.6,61.0
351.67,72.0
351.73,82.0
351.79,77.0
351.85,114.0
351.92,92.0
351.98,88.0
352.04,95.0
352.11,76.0
352.17,72.0
352.23,103.0
352.3,108.0
352.36,96.0
352.42,107.0
352.48,115.0
352.55,102.0
352.61,92.0
352.67,103.0
352.74,103.0
352.8,103.0
352.86,96.0
352.93,96.0
352.99,103.0
353.05,101.0
353.11,95.0
353.18,89.0
353.24,92.0
353.3,89.0
353.37,95.0
353.43,99.0
353.49,109.0
353.56,121.0
353.62,112.0
353.68,118.0
353.74,101.0
353.81,101.0
353.87,89.0
353.93,82.0
354.0,74.0
354.06,95.0
354.12,82.0
354.19,92.0
354.25,85.0
354.31,81.0
354.37,79.0
354.44,101.0
354.5,92.0
354.56,67.0
354.63,101.0
354.69,110.0
354.75,92.0
354.82,90.0
354.88,89.0
354.94,120.0
355.0,117.0
355.07,95.0
355.13,93.0
355.19,108.0
355.26,112.0
355.32,123.0
355.38,123.0
355.45,100.0
355.51,119.0
355.57,107.0
355.63,137.0
355.7,121.0
355.76,131.0
355.82,137.0
355.89,123.0
355.95,130.0
356.01,121.0
356.08,125.0
356.14,147.0
356.2,133.0
356.26,123.0
356.33,114.0
356.39,121.0
356.45,129.0
356.52,137.0
356.58,138.0
356.64,137.0
356.71,146.0
356.77,148.0
356.83,141.0
356.89,125.0
356.96,120.0
357.02,106.0
357.08,112.0
357.15,113.0
357.21,109.0
357.27,110.0
357.34,104.0
357.4,108.0
357.46,103.0
357.52,102.0
357.59,122.0
357.65,115.0
357.71,157.0
357.78,137.0
357.84,123.0
357.9,122.0
357.97,126.0
358.03,122.0
358.09,137.0
358.15,123.0
358.22,132.0
358.28,120.0
358.34,150.0
358.41,134.0
358.47,137.0
358.53,126.0
358.6,128.0
358.66,127.0
358.72,151.0
358.78,135.0
358.85,137.0
358.91,144.0
358.97,131.0
359.04,141.0
359.1,135.0
359.16,137.0
359.23,141.0
359.29,142.0
359.35,146.0
359.41,151.0
359.48,113.0
359.54,110.0
359.6,115.0
359.67,126.0
359.73,114.0
359.79,117.0
359.86,119.0
359.92,103.0
359.98,94.0
360.04,76.0
360.11,97.0
360.17,73.0
360.23,89.0
360.3,74.0
360.36,79.0
360.42,93.0
360.49,93.0
360.55,99.0
360.61,101.0
360.67,97.0
360.74,103.0
360.8,97.0
360.86,71.0
360.93,92.0
360.99,109.0
361.05,96.0
361.12,84.0
361.18,93.0
361.24,85.0
361.3,107.0
361.37,118.0
361.43,111.0
361.49,109.0
361.56,105.0
361.62,106.0
361.68,87.0
361.75,96.0
361.81,86.0
361.87,107.0
361.93,98.0
362.0,100.0
362.06,108.0
362.12,102.0
362.19,92.0
362.25,95.0
362.31,93.0
362.38,104.0
362.44,79.0
362.5,101.0
362.56,103.0
362.63,86.0
362.69,88.0
362.75,93.0
362.82,80.0
362.88,90.0
362.94,106.0
363.01,84.0
363.07,85.0
363.13,86.0
363.19,98.0
363.26,120.0
363.32,82.0
363.38,92.0
363.45,78.0
363.51,82.0
363.57,93.0
363.64,98.0
363.7,99.0
363.76,117.0
363.82,111.0
363.89,107.0
363.95,79.0
364.01,104.0
364.08,107.0
364.14,119.0
364.2,122.0
364.27,114.0
364.33,126.0
364.39,125.0
364.45,99.0
364.52,114.0
364.58,132.0
364.64,117.0
364.71,131.0
364.77,131.0
364.83,111.0
364.9,106.0
364.96,105.0
365.02,104.0
365.08,107.0
365.15,115.0
365.21,97.0
365.27,95.0
365.34,98.0
365.4,74.0
365.46,88.0
365.53,93.0
365.59,79.0
365.65,83.0
365.71,78.0
365.78,80.0
365.84,82.0
365.9,98.0
365.97,71.0
366.03,61.0
366.09,63.0
366.16,85.0
366.22,109.0
366.28,98.0
366.34,117.0
366.41,102.0
366.47,87.0
366.53,93.0
366.6,111.0
366.66,103.0
366.72,93.0
366.79,89.0
366.85,85.0
366.91,92.0
366.97,80.0
367.04,81.0
367.1,88.0
367.16,66.0
367.23,54.0
367.29,73.0
367.35,60.0
367.42,64.0
367.48,48.0
367.54,57.0
367.6,54.0
367.67,36.0
367.73,48.0
367.79,69.0
367.86,67.0
367.92,76.0
367.98,42.0
368.05,40.0
368.11,57.0
368.17,46.0
368.23,58.0
368.3,63.0
368.36,52.0
368.42,62.0
368.49,61.0
368.55,68.0
368.61,71.0
368.68,71.0
368.74,85.0
368.8,85.0
368.86,85.0
368.93,81.0
368.99,81.0
369.05,87.0
369.12,64.0
369.18,67.0
369.24,77.0
369.31,67.0
369.37,55.0
369.43,59.0
369.49,64.0
369.56,74.0
369.62,58.0
369.68,52.0
369.75,60.0
369.81,42.0
369.87,56.0
369.94,24.0
370.0,46.0
370.06,61.0
370.12,37.0
370.19,40.0
370.25,41.0
370.31,46.0
370.38,45.0
370.44,56.0
370.5,41.0
370.57,29.0
370.63,33.0
370.69,48.0
370.75,45.0
370.82,40.0
370.88,35.0
370.94,40.0
371.01,69.0
371.07,48.0
371.13,49.0
371.2,77.0
371.26,54.0
371.32,41.0
371.38,49.0
371.45,67.0
371.51,83.0
371.57,47.0
371.64,65.0
371.7,70.0
371.76,78.0
371.83,96.0
371.89,79.0
371.95,96.0
372.01,84.0
372.08,76.0
372.14,82.0
372.2,82.0
372.27,73.0
372.33,79.0
372.39,74.0
372.46,78.0
372.52,87.0
372.58,111.0
372.64,111.0
372.71,112.0
372.77,114.0
372.83,125.0
372.9,131.0
372.96,148.0
373.02,133.0
373.09,117.0
373.15,117.0
373.21,130.0
373.27,129.0
373.34,140.0
373.4,140.0
373.46,131.0
373.53,137.0
373.59,136.0
373.65,148.0
373.72,148.0
373.78,128.0
373.84,135.0
373.9,148.0
373.97,147.0
374.03,151.0
374.09,134.0
374.16,129.0
374.22,139.0
374.28,126.0
374.35,104.0
374.41,141.0
374.47,142.0
374.53,120.0
374.6,139.0
374.66,144.0
374.72,156.0
374.79,143.0
374.85,145.0
374.91,151.0
374.98,141.0
375.04,137.0
375.1,128.0
375.16,111.0
375.23,118.0
375.29,137.0
375.35,126.0
375.42,120.0
375.48,116.0
375.54,151.0
375.61,155.0
375.67,158.0
375.73,158.0
375.79,136.0
375.86,140.0
375.92,147.0
375.98,142.0
376.05,130.0
376.11,138.0
376.17,150.0
376.24,133.0
376.3,132.0
376.36,122.0
376.42,122.0
376.49,137.0
376.55,142.0
376.61,126.0
376.68,134.0
376.74,133.0
376.8,121.0
376.87,136.0
376.93,115.0
376.99,110.0
377.05,107.0
377.12,131.0
377.18,122.0
377.24,97.0
377.31,96.0
377.37,93.0
377.43,98.0
377.5,116.0
377.56,117.0
377.62,112.0
377.68,100.0
377.75,96.0
377.81,95.0
377.87,63.0
377.94,103.0
378.0,78.0
378.06,77.0
378.13,109.0
378.19,83.0
378.25,95.0
378.31,110.0
378.38,95.0
378.44,99.0
378.5,103.0
378.57,90.0
378.63,68.0
378.69,71.0
378.76,67.0
378.82,93.0
378.88,82.0
378.94,93.0
379.01,96.0
379.07,82.0
379.13,104.0
379.2,81.0
379.26,88.0
379.32,83.0
379.39,97.0
379.45,91.0
379.51,104.0
379.57,117.0
379.64,129.0
379.7,102.0
379.76,120.0
379.83,108.0
379.89,78.0
379.95,111.0
380.02,108.0
380.08,122.0
380.14,106.0
380.2,86.0
380.27,112.0
380.33,112.0
380.39,99.0
380.46,75.0
380.52,95.0
380.58,85.0
380.65,79.0
380.71,112.0
380.77,99.0
380.83,100.0
380.9,82.0
380.96,81.0
381.02,90.0
381.09,95.0
381.15,91.0
381.21,89.0
381.28,114.0
381.34,100.0
381.4,101.0
381.46,96.0
381.53,101.0
381.59,118.0
381.65,112.0
381.72,104.0
381.78,100.0
381.84,103.0
381.91,104.0
381.97,104.0
382.03,108.0
382.09,132.0
382.16,118.0
382.22,115.0
382.28,103.0
382.35,121.0
382.41,124.0
382.47,122.0
382.54,116.0
382.6,104.0
382.66,131.0
382.72,131.0
382.79,96.0
382.85,104.0
382.91,138.0
382.98,145.0
383.04,142.0
383.1,141.0
383.17,139.0
383.23,137.0
383.29,115.0
383.35,144.0
383.42,128.0
383.48,139.0
383.54,152.0
383.61,152.0
383.67,140.0
383.73,137.0
383.8,135.0
383.86,116.0
383.92,167.0
383.98,188.0
384.05,168.0
384.11,188.0
384.17,181.0
384.24,200.0
384.3,185.0
384.36,184.0
384.43,186.0
384.49,197.0
384.55,186.0
384.61,168.0
384.68,180.0
384.74,182.0
384.8,178.0
384.87,174.0
384.93,197.0
384.99,188.0
385.06,183.0
385.12,190.0
385.18,195.0
385.24,195.0
385.31,199.0
385.37,225.0
385.43,225.0
385.5,232.0
385.56,238.0
385.62,219.0
385.69,202.0
385.75,196.0
385.81,203.0
385.87,218.0
385.94,187.0
386.0,197.0
386.06,185.0
386.13,205.0
386.19,207.0
386.25,193.0
386.32,218.0
386.38,216.0
386.44,224.0
386.5,208.0
386.57,222.0
386.63,189.0
386.69,200.0
386.76,225.0
386.82,185.0
386.88,222.0
386.95,214.0
387.01,191.0
387.07,175.0
387.13,183.0
387.2,182.0
387.26,165.0
387.32,163.0
387.39,179.0
387.45,179.0
387.51,175.0
387.58,187.0
387.64,159.0
387.7,188.0
387.76,173.0
387.83,177.0
387.89,187.0
387.95,166.0
388.02,163.0
388.08,152.0
388.14,167.0
388.21,157.0
388.27,172.0
388.33,172.0
388.39,158.0
388.46,159.0
388.52,157.0
388.58,159.0
388.65,150.0
388.71,159.0
388.77,182.0
388.84,173.0
388.9,169.0
388.96,145.0
389.02,151.0
389.09,164.0
389.15,147.0
389.21,174.0
389.28,152.0
389.34,134.0
389.4,157.0
389.47,126.0
389.53,156.0
389.59,172.0
389.65,181.0
389.72,171.0
389.78,148.0
389.84,141.0
389.91,133.0
389.97,140.0
390.03,131.0
390.1,126.0
390.16,126.0
390.22,112.0
390.28,94.0
390.35,117.0
390.41,111.0
390.47,120.0
390.54,100.0
390.6,118.0
390.66,128.0
390.73,113.0
390.79,85.0
390.85,95.0
390.91,89.0
390.98,104.0
391.04,124.0
391.1,125.0
391.17,119.0
391.23,97.0
391.29,100.0
391.36,113.0
391.42,99.0
391.48,82.0
391.54,78.0
391.61,94.0
391.67,102.0
391.73,104.0
391.8,94.0
391.86,95.0
391.92,85.0
391.99,57.0
392.05,69.0
392.11,94.0
392.17,87.0
392.24,65.0
392.3,75.0
392.36,54.0
392.43,66.0
392.49,62.0
392.55,71.0
392.62,78.0
392.68,80.0
392.74,76.0
392.8,57.0
392.87,85.0
392.93,85.0
392.99,76.0
393.06,87.0
393.12,91.0
393.18,79.0
393.25,86.0
393.31,87.0
393.37,78.0
393.43,68.0
393.5,71.0
393.56,57.0
393.62,52.0
393.69,60.0
393.75,52.0
393.81,67.0
393.88,78.0
393.94,43.0
394.0,53.0
394.06,47.0
394.13,51.0
394.19,50.0
394.25,59.0
394.32,60.0
394.38,72.0
394.44,98.0
394.51,81.0
394.57,105.0
394.63,106.0
394.69,84.0
394.76,74.0
394.82,78.0
394.88,85.0
394.95,101.0
395.01,84.0
395.07,90.0
395.14,87.0
395.2,79.0
395.26,82.0
395.32,89.0
395.39,89.0
395.45,90.0
395.51,82.0
395.58,114.0
395.64,108.0
395.7,90.0
395.77,87.0
395.83,100.0
395.89,92.0
395.95,95.0
396.02,67.0
396.08,54.0
396.14,79.0
396.21,100.0
396.27,100.0
396.33,102.0
396.4,87.0
396.46,82.0
396.52,82.0
396.58,61.0
396.65,64.0
396.71,95.0
396.77,65.0
396.84,93.0
396.9,90.0
396.96,76.0
397.03,86.0
397.09,74.0
397.15,59.0
397.21,44.0
397.28,70.0
397.34,40.0
397.4,76.0
397.47,78.0
397.53,73.0
397.59,73.0
397.66,90.0
397.72,97.0
397.78,90.0
397.84,87.0
397.91,62.0
397.97,81.0
398.03,82.0
398.1,99.0
398.16,93.0
398.22,88.0
398.29,97.0
398.35,94.0
398.41,81.0
398.47,103.0
398.54,98.0
398.6,93.0
398.66,116.0
398.73,130.0
398.79,131.0
398.85,104.0
398.92,115.0
398.98,130.0
399.04,114.0
399.1,129.0
399.17,132.0
399.23,118.0
399.29,100.0
399.36,100.0
399.42,104.0
399.48,107.0
399.55,96.0
399.61,87.0
399.67,119.0
399.73,101.0
399.8,79.0
399.86,79.0
399.92,103.0
399.99,107.0
400.05,79.0
400.11,102.0
400.18,93.0
400.24,96.0
400.3,100.0
400.36,100.0
400.43,94.0
400.49,78.0
400.55,97.0
400.62,117.0
400.68,91.0
400.74,87.0
400.81,65.0
400.87,82.0
400.93,90.0
400.99,89.0
401.06,102.0
401.12,115.0
401.18,128.0
401.25,127.0
401.31,115.0
401.37,140.0
401.44,142.0
401.5,143.0
401.56,161.0
401.62,170.0
401.69,149.0
401.75,148.0
401.81,137.0
401.88,153.0
401.94,158.0
402.0,159.0
402.07,162.0
402.13,151.0
402.19,164.0
402.25,153.0
402.32,178.0
402.38,179.0
402.44,159.0
402.51,178.0
402.57,174.0
402.63,168.0
402.7,170.0
402.76,187.0
402.82,172.0
402.88,155.0
402.95,174.0
403.01,175.0
403.07,185.0
403.14,198.0
403.2,181.0
403.26,189.0
403.33,171.0
403.39,181.0
403.45,193.0
403.51,159.0
403.58,157.0
403.64,155.0
403.7,176.0
403.77,170.0
403.83,198.0
403.89,192.0
403.96,177.0
404.02,178.0
404.08,161.0
404.14,170.0
404.21,174.0
404.27,159.0
404.33,171.0
404.4,173.0
404.46,164.0
404.52,171.0
404.59,178.0
404.65,170.0
404.71,181.0
404.77,181.0
404.84,194.0
404.9,186.0
404.96,183.0
405.03,175.0
405.09,157.0
405.15,177.0
405.22,184.0
405.28,174.0
405.34,152.0
405.4,162.0
405.47,149.0
405.53,158.0
405.59,139.0
405.66,145.0
405.72,172.0
405.78,147.0
405.85,152.0
405.91,161.0
405.97,138.0
406.03,170.0
406.1,159.0
406.16,146.0
406.22,158.0
406.29,152.0
406.35,150.0
406.41,125.0
406.48,129.0
406.54,118.0
406.6,104.0
406.66,115.0
406.73,93.0
406.79,100.0
406.85,91.0
406.92,99.0
406.98,120.0
407.04,92.0
407.11,78.0
407.17,99.0
407.23,99.0
407.29,86.0
407.36,93.0
407.42,85.0
407.48,93.0
407.55,100.0
407.61,78.0
407.67,70.0
407.74,100.0
407.8,90.0
407.86,90.0
407.92,81.0
407.99,97.0
408.05,97.0
408.11,90.0
408.18,85.0
408.24,71.0
408.3,72.0
408.37,56.0
408.43,31.0
408.49,39.0
408.55,62.0
408.62,57.0
408.68,58.0
408.74,66.0
408.81,56.0
408.87,52.0
408.93,46.0
409.0,51.0
409.06,46.0
409.12,43.0
409.18,41.0
409.25,53.0
409.31,49.0
409.37,18.0
409.44,38.0
409.5,36.0
409.56,45.0
409.63,34.0
409.69,23.0
409.75,56.0
409.81,39.0
409.88,45.0
409.94,59.0
410.0,61.0
410.07,69.0
410.13,77.0
410.19,75.0
410.26,49.0
410.32,48.0
410.38,64.0
410.44,51.0
410.51,57.0
410.57,27.0
410.63,53.0
410.7,53.0
410.76,56.0
410.82,46.0
410.89,50.0
410.95,66.0
411.01,67.0
411.07,72.0
411.14,64.0
411.2,77.0
411.26,65.0
411.33,57.0
411.39,47.0
411.45,49.0
411.52,65.0
411.58,76.0
411.64,97.0
411.7,84.0
411.77,86.0
411.83,119.0
411.89,89.0
411.96,92.0
412.02,99.0
412.08,97.0
412.15,110.0
412.21,104.0
412.27,105.0
412.33,127.0
412.4,122.0
412.46,118.0
412.52,120.0
412.59,119.0
412.65,99.0
412.71,98.0
412.78,96.0
412.84,103.0
412.9,109.0
412.96,115.0
413.03,105.0
413.09,119.0
413.15,111.0
413.22,128.0
413.28,119.0
413.34,118.0
413.41,138.0
413.47,148.0
413.53,145.0
413.59,138.0
413.66,144.0
413.72,120.0
413.78,113.0
413.85,100.0
413.91,118.0
413.97,129.0
414.04,128.0
414.1,122.0
414.16,136.0
414.22,125.0
414.29,124.0
414.35,122.0
414.41,115.0
414.48,117.0
414.54,115.0
414.6,126.0
414.67,122.0
414.73,112.0
414.79,131.0
414.85,112.0
414.92,113.0
414.98,103.0
415.04,92.0
415.11,99.0
415.17,104.0
415.23,109.0
415.3,122.0
415.36,116.0
415.42,111.0
415.48,117.0
415.55,125.0
415.61,122.0
415.67,107.0
415.74,121.0
415.8,131.0
415.86,131.0
415.93,116.0
415.99,115.0
416.05,123.0
416.11,123.0
416.18,130.0
416.24,108.0
416.3,100.0
416.37,104.0
416.43,98.0
416.49,95.0
416.56,82.0
416.62,85.0
416.68,92.0
416.74,90.0
416.81,85.0
416.87,81.0
416.93,91.0
417.0,85.0
417.06,85.0
417.12,84.0
417.19,85.0
417.25,73.0
417.31,74.0
417.37,89.0
417.44,76.0
417.5,80.0
417.56,95.0
417.63,72.0
417.69,92.0
417.75,71.0
417.82,70.0
417.88,102.0
417.94,100.0
418.0,82.0
418.07,88.0
418.13,74.0
418.19,115.0
418.26,137.0
418.32,131.0
418.38,107.0
418.45,105.0
418.51,96.0
418.57,107.0
418.63,97.0
418.7,102.0
418.76,74.0
418.82,81.0
418.89,92.0
418.95,74.0
419.01,67.0
419.08,78.0
419.14,102.0
419.2,93.0
419.26,98.0
419.33,83.0
419.39,76.0
419.45,73.0
419.52,76.0
419.58,92.0
419.64,104.0
419.71,97.0
419.77,88.0
419.83,106.0
419.89,84.0
419.96,93.0
420.02,90.0
420.08,96.0
420.15,96.0
420.21,103.0
420.27,107.0
420.34,90.0
420.4,84.0
420.46,91.0
420.52,96.0
420.59,74.0
420.65,71.0
420.71,77.0
420.78,79.0
420.84,88.0
420.9,100.0
420.97,95.0
421.03,94.0
421.09,86.0
421.15,88.0
421.22,89.0
421.28,108.0
421.34,86.0
421.41,84.0
421.47,79.0
421.53,96.0
421.6,103.0
421.66,87.0
421.72,85.0
421.78,83.0
421.85,94.0
421.91,96.0
421.97,90.0
422.04,109.0
422.1,122.0
422.16,110.0
422.23,113.0
422.29,82.0
422.35,66.0
422.41,80.0
422.48,58.0
422.54,56.0
422.6,59.0
422.67,56.0
422.73,54.0
422.79,60.0
422.86,64.0
422.92,45.0
422.98,66.0
423.04,63.0
423.11,61.0
423.17,59.0
423.23,44.0
423.3,58.0
423.36,60.0
423.42,61.0
423.49,73.0
423.55,60.0
423.61,53.0
423.67,73.0
423.74,72.0
423.8,86.0
423.86,83.0
423.93,88.0
423.99,70.0
424.05,86.0
424.12,79.0
424.18,81.0
424.24,73.0
424.3,59.0
424.37,71.0
424.43,58.0
424.49,62.0
424.56,39.0
424.62,49.0
424.68,56.0
424.75,38.0
424.81,49.0
424.87,68.0
424.93,47.0
425.0,26.0
425.06,41.0
425.12,42.0
425.19,9.0
425.25,-5.0
425.31,5.0
425.38,1.0
425.44,-8.0
425.5,26.0
425.56,0.0
425.63,11.0
425.69,5.0
425.75,-9.0
425.82,18.0
425.88,17.0
425.94,25.0
426.01,25.0
426.07,0.0
426.13,14.0
426.19,18.0
426.26,32.0
426.32,30.0
426.38,17.0
426.45,35.0
426.51,31.0
426.57,26.0
426.64,16.0
426.7,21.0
426.76,34.0
426.82,16.0
426.89,31.0
426.95,30.0
427.01,25.0
427.08,39.0
427.14,21.0
427.2,29.0
427.27,24.0
427.33,32.0
427.39,43.0
427.45,66.0
427.52,57.0
427.58,33.0
427.64,47.0
427.71,48.0
427.77,56.0
427.83,47.0
427.9,25.0
427.96,26.0
428.02,45.0
428.08,45.0
428.15,77.0
428.21,66.0
428.27,68.0
428.34,59.0
428.4,55.0
428.46,66.0
428.53,77.0
428.59,63.0
428.65,38.0
428.71,87.0
428.78,78.0
428.84,69.0
428.9,70.0
428.97,91.0
429.03,111.0
429.09,106.0
429.16,118.0
429.22,132.0
429.28,119.0
429.34,130.0
429.41,131.0
429.47,147.0
429.53,151.0
429.6,150.0
429.66,157.0
429.72,175.0
429.79,162.0
429.85,170.0
429.91,167.0
429.97,169.0
430.04,180.0
430.1,162.0
430.16,154.0
430.23,186.0
430.29,178.0
430.35,201.0
430.42,175.0
430.48,175.0
430.54,180.0
430.6,205.0
430.67,197.0
430.73,219.0
430.79,221.0
430.86,204.0
430.92,183.0
430.98,197.0
431.05,215.0
431.11,190.0
431.17,194.0
431.23,190.0
431.3,190.0
431.36,203.0
431.42,211.0
431.49,184.0
431.55,208.0
431.61,197.0
431.68,212.0
431.74,214.0
431.8,184.0
431.86,200.0
431.93,200.0
431.99,193.0
432.05,179.0
432.12,177.0
432.18,191.0
432.24,171.0
432.31,189.0
432.37,179.0
432.43,185.0
432.49,178.0
432.56,193.0
432.62,198.0
432.68,198.0
432.75,191.0
432.81,185.0
432.87,215.0
432.94,218.0
433.0,201.0
433.06,212.0
433.12,221.0
433.19,211.0
433.25,216.0
433.31,205.0
433.38,218.0
433.44,206.0
433.5,200.0
433.57,193.0
433.63,195.0
433.69,199.0
433.75,197.0
433.82,184.0
433.88,197.0
433.94,187.0
434.01,165.0
434.07,184.0
434.13,176.0
434.2,164.0
434.26,184.0
434.32,179.0
434.38,193.0
434.45,178.0
434.51,179.0
434.57,197.0
434.64,193.0
434.7,177.0
434.76,180.0
434.83,194.0
434.89,211.0
434.95,202.0
435.01,198.0
435.08,208.0
435.14,202.0
435.2,170.0
435.27,179.0
435.33,182.0
435.39,187.0
435.46,186.0
435.52,170.0
435.58,177.0
435.64,157.0
435.71,157.0
435.77,170.0
435.83,161.0
435.9,175.0
435.96,174.0
436.02,168.0
436.09,177.0
436.15,165.0
436.21,195.0
436.27,190.0
436.34,187.0
436.4,187.0
436.46,186.0
436.53,178.0
436.59,187.0
436.65,201.0
436.72,191.0
436.78,195.0
436.84,190.0
436.9,169.0
436.97,181.0
437.03,173.0
437.09,187.0
437.16,182.0
437.22,173.0
437.28,185.0
437.35,181.0
437.41,192.0
437.47,197.0
437.53,194.0
437.6,212.0
437.66,207.0
437.72,180.0
437.79,192.0
437.85,206.0
437.91,203.0
437.98,212.0
438.04,200.0
438.1,201.0
438.16,196.0
438.23,193.0
438.29,206.0
438.35,184.0
438.42,193.0
438.48,178.0
438.54,193.0
438.61,206.0
438.67,166.0
438.73,164.0
438.79,166.0
438.86,149.0
438.92,164.0
438.98,145.0
439.05,132.0
439.11,122.0
439.17,125.0
439.24,146.0
439.3,170.0
439.36,182.0
439.42,177.0
439.49,149.0
439.55,135.0
439.61,163.0
439.68,171.0
439.74,153.0
439.8,134.0
439.87,130.0
439.93,129.0
439.99,148.0
440.05,126.0
440.12,120.0
440.18,113.0
440.24,123.0
440.31,132.0
440.37,139.0
440.43,164.0
440.5,149.0
440.56,138.0
440.62,136.0
440.68,131.0
440.75,145.0
440.81,145.0
440.87,155.0
440.94,141.0
441.0,150.0
441.06,153.0
441.13,156.0
441.19,160.0
441.25,164.0
441.31,174.0
441.38,165.0
441.44,162.0
441.5,170.0
441.57,181.0
441.63,171.0
441.69,179.0
441.76,176.0
441.82,173.0
441.88,192.0
441.94,205.0
442.01,198.0
442.07,208.0
442.13,194.0
442.2,186.0
442.26,186.0
442.32,162.0
442.39,153.0
442.45,166.0
442.51,164.0
442.57,171.0
442.64,149.0
442.7,145.0
442.76,137.0
442.83,153.0
442.89,135.0
442.95,144.0
443.02,128.0
443.08,135.0
443.14,129.0
443.2,121.0
443.27,135.0
443.33,140.0
443.39,140.0
443.46,125.0
443.52,124.0
443.58,134.0
443.65,137.0
443.71,147.0
443.77,165.0
443.83,158.0
443.9,150.0
443.96,139.0
444.02,132.0
444.09,138.0
444.15,125.0
444.21,140.0
444.28,159.0
444.34,145.0
444.4,137.0
444.46,130.0
444.53,125.0
444.59,155.0
444.65,139.0
444.72,153.0
444.78,163.0
444.84,153.0
444.91,148.0
444.97,148.0
445.03,157.0
445.09,157.0
445.16,135.0
445.22,113.0
445.28,136.0
445.35,132.0
445.41,129.0
445.47,131.0
445.54,128.0
445.6,140.0
445.66,152.0
445.72,151.0
445.79,143.0
445.85,143.0
445.91,156.0
445.98,150.0
446.04,132.0
446.1,142.0
446.17,126.0
446.23,107.0
446.29,127.0
446.35,129.0
446.42,134.0
446.48,124.0
446.54,109.0
446.61,119.0
446.67,115.0
446.73,113.0
446.8,124.0
446.86,119.0
446.92,135.0
446.98,146.0
447.05,139.0
447.11,135.0
447.17,150.0
447.24,153.0
447.3,143.0
447.36,139.0
447.43,147.0
447.49,121.0
447.55,123.0
447.61,122.0
447.68,124.0
447.74,121.0
447.8,129.0
447.87,119.0
447.93,102.0
447.99,112.0
448.06,82.0
448.12,68.0
448.18,83.0
448.24,79.0
448.31,90.0
448.37,94.0
448.43,84.0
448.5,86.0
448.56,83.0
448.62,79.0
448.69,76.0
448.75,59.0
448.81,46.0
448.87,54.0
448.94,57.0
449.0,74.0
449.06,32.0
449.13,15.0
449.19,40.0
449.25,46.0
449.32,61.0
449.38,48.0
449.44,46.0
449.5,47.0
449.57,57.0
449.63,70.0
449.69,52.0
449.76,63.0
449.82,41.0
449.88,46.0
449.95,46.0
450.01,52.0
450.07,38.0
450.13,12.0
450.2,25.0
450.26,33.0
450.32,47.0
450.39,30.0
450.45,44.0
450.51,28.0
450.58,25.0
450.64,35.0
450.7,40.0
450.76,30.0
450.83,43.0
450.89,47.0
450.95,29.0
451.02,58.0
451.08,22.0
451.14,21.0
451.21,27.0
451.27,13.0
451.33,7.0
451.39,11.0
451.46,6.0
451.52,3.0
451.58,-4.0
451.65,3.0
451.71,13.0
451.77,13.0
451.84,13.0
451.9,6.0
451.96,26.0
452.02,19.0
452.09,50.0
452.15,33.0
452.21,35.0
452.28,53.0
452.34,54.0
452.4,38.0
452.47,27.0
452.53,21.0
452.59,25.0
452.65,30.0
452.72,53.0
452.78,55.0
452.84,53.0
452.91,63.0
452.97,53.0
453.03,63.0
453.1,77.0
453.16,52.0
453.22,44.0
453.28,50.0
453.35,21.0
453.41,39.0
453.47,53.0
453.54,35.0
453.6,37.0
453.66,45.0
453.73,42.0
453.79,28.0
453.85,21.0
453.91,50.0
453.98,62.0
454.04,25.0
454.1,21.0
454.17,41.0
454.23,27.0
454.29,20.0
454.36,39.0
454.42,52.0
454.48,59.0
454.54,55.0
454.61,56.0
454.67,57.0
454.73,46.0
454.8,68.0
454.86,75.0
454.92,84.0
454.99,74.0
455.05,79.0
455.11,80.0
455.17,77.0
455.24,98.0
455.3,85.0
455.36,98.0
455.43,121.0
455.49,137.0
455.55,132.0
455.62,107.0
455.68,118.0
455.74,120.0
455.8,115.0
455.87,96.0
455.93,87.0
455.99,68.0
456.06,76.0
456.12,75.0
456.18,101.0
456.25,98.0
456.31,96.0
456.37,98.0
456.43,102.0
456.5,119.0
456.56,112.0
456.62,106.0
456.69,101.0
456.75,119.0
456.81,116.0
456.88,112.0
456.94,115.0
457.0,123.0
457.06,112.0
457.13,118.0
457.19,101.0
457.25,101.0
457.32,96.0
457.38,88.0
457.44,103.0
457.51,106.0
457.57,101.0
457.63,98.0
457.69,112.0
457.76,119.0
457.82,136.0
457.88,136.0
457.95,143.0
458.01,136.0
458.07,123.0
458.14,117.0
458.2,126.0
458.26,131.0
458.32,127.0
458.39,132.0
458.45,114.0
458.51,116.0
458.58,121.0
458.64,114.0
458.7,129.0
458.77,137.0
458.83,126.0
458.89,141.0
458.95,138.0
459.02,142.0
459.08,136.0
459.14,130.0
459.21,113.0
459.27,135.0
459.33,127.0
459.4,114.0
459.46,116.0
459.52,98.0
459.58,101.0
459.65,87.0
459.71,92.0
459.77,94.0
459.84,97.0
459.9,90.0
459.96,109.0
460.03,86.0
460.09,85.0
460.15,93.0
460.21,94.0
460.28,97.0
460.34,71.0
460.4,90.0
460.47,90.0
460.53,101.0
460.59,116.0
460.66,104.0
460.72,103.0
460.78,112.0
460.84,108.0
460.91,105.0
460.97,115.0
461.03,123.0
461.1,123.0
461.16,119.0
461.22,131.0
461.29,151.0
461.35,129.0
461.41,134.0
461.47,160.0
461.54,151.0
461.6,154.0
461.66,161.0
461.73,163.0
461.79,143.0
461.85,145.0
461.92,133.0
461.98,149.0
462.04,163.0
462.1,157.0
462.17,160.0
462.23,176.0
462.29,181.0
462.36,187.0
462.42,186.0
462.48,196.0
462.55,181.0
462.61,174.0
462.67,188.0
462.73,173.0
462.8,179.0
462.86,176.0
462.92,187.0
462.99,179.0
463.05,191.0
463.11,184.0
463.18,180.0
463.24,193.0
463.3,193.0
463.36,224.0
463.43,221.0
463.49,203.0
463.55,206.0
463.62,203.0
463.68,209.0
463.74,193.0
463.81,171.0
463.87,189.0
463.93,204.0
463.99,200.0
464.06,204.0
464.12,206.0
464.18,214.0
464.25,215.0
464.31,215.0
464.37,191.0
464.44,195.0
464.5,217.0
464.56,197.0
464.62,182.0
464.69,182.0
464.75,185.0
464.81,182.0
464.88,184.0
464.94,173.0
465.0,171.0
465.07,163.0
465.13,149.0
465.19,159.0
465.25,162.0
465.32,152.0
465.38,156.0
465.44,148.0
465.51,156.0
465.57,145.0
465.63,152.0
465.7,155.0
465.76,153.0
465.82,149.0
465.88,143.0
465.95,159.0
466.01,162.0
466.07,154.0
466.14,147.0
466.2,165.0
466.26,155.0
466.33,159.0
466.39,152.0
466.45,143.0
466.51,145.0
466.58,132.0
466.64,126.0
466.7,123.0
466.77,121.0
466.83,134.0
466.89,124.0
466.96,126.0
467.02,132.0
467.08,121.0
467.14,126.0
467.21,121.0
467.27,131.0
467.33,108.0
467.4,110.0
467.46,117.0
467.52,132.0
467.59,105.0
467.65,90.0
467.71,83.0
467.77,101.0
467.84,90.0
467.9,100.0
467.96,107.0
468.03,103.0
468.09,116.0
468.15,95.0
468.22,99.0
468.28,105.0
468.34,99.0
468.4,73.0
468.47,76.0
468.53,87.0
468.59,92.0
468.66,113.0
468.72,105.0
468.78,108.0
468.85,112.0
468.91,110.0
468.97,121.0
469.03,122.0
469.1,132.0
469.16,137.0
469.22,141.0
469.29,145.0
469.35,145.0
469.41,144.0
469.48,159.0
469.54,182.0
469.6,159.0
469.66,171.0
469.73,152.0
469.79,168.0
469.85,158.0
469.92,159.0
469.98,163.0
470.04,166.0
470.11,184.0
470.17,176.0
470.23,163.0
470.29,158.0
470.36,142.0
470.42,147.0
470.48,143.0
470.55,130.0
470.61,128.0
470.67,122.0
470.74,137.0
470.8,138.0
470.86,143.0
470.92,137.0
470.99,138.0
471.05,146.0
471.11,155.0
471.18,136.0
471.24,136.0
471.3,133.0
471.37,147.0
471.43,156.0
471.49,167.0
471.55,154.0
471.62,148.0
471.68,169.0
471.74,167.0
471.81,145.0
471.87,186.0
471.93,189.0
472.0,182.0
472.06,178.0
472.12,167.0
472.18,195.0
472.25,208.0
472.31,190.0
472.37,187.0
472.44,192.0
472.5,189.0
472.56,195.0
472.63,167.0
472.69,163.0
472.75,183.0
472.81,190.0
472.88,195.0
472.94,204.0
473.0,191.0
473.07,180.0
473.13,188.0
473.19,196.0
473.26,196.0
473.32,196.0
473.38,198.0
473.44,194.0
473.51,172.0
473.57,184.0
473.63,179.0
473.7,176.0
473.76,188.0
473.82,165.0
473.89,166.0
473.95,182.0
474.01,180.0
474.07,197.0
474.14,196.0
474.2,179.0
474.26,177.0
474.33,180.0
474.39,167.0
474.45,178.0
474.52,168.0
474.58,159.0
474.64,182.0
474.7,193.0
474.77,163.0
474.83,153.0
474.89,152.0
474.96,148.0
475.02,134.0
475.08,136.0
475.15,133.0
475.21,136.0
475.27,141.0
475.33,140.0
475.4,137.0
475.46,121.0
475.52,134.0
475.59,122.0
475.65,102.0
475.71,104.0
475.78,101.0
475.84,94.0
475.9,97.0
475.96,109.0
476.03,100.0
476.09,96.0
476.15,79.0
476.22,78.0
476.28,74.0
476.34,66.0
476.41,82.0
476.47,57.0
476.53,67.0
476.59,82.0
476.66,79.0
476.72,61.0
476.78,86.0
476.85,87.0
476.91,56.0
476.97,74.0
477.04,60.0
477.1,69.0
477.16,81.0
477.22,84.0
477.29,83.0
477.35,80.0
477.41,101.0
477.48,102.0
477.54,102.0
477.6,93.0
477.67,103.0
477.73,123.0
477.79,114.0
477.85,113.0
477.92,116.0
477.98,105.0
478.04,123.0
478.11,115.0
478.17,109.0
478.23,103.0
478.3,97.0
478.36,102.0
478.42,85.0
478.48,94.0
478.55,110.0
478.61,98.0
478.67,101.0
478.74,94.0
478.8,86.0
478.86,72.0
478.93,74.0
478.99,89.0
479.05,74.0
479.11,90.0
479.18,103.0
479.24,103.0
479.3,98.0
479.37,88.0
479.43,109.0
479.49,112.0
479.56,111.0
479.62,118.0
479.68,102.0
479.74,118.0
479.81,117.0
479.87,116.0
479.93,124.0
480.0,140.0
480.06,123.0
480.12,122.0
480.19,118.0
480.25,101.0
480.31,109.0
480.37,118.0
480.44,124.0
480.5,149.0
480.56,149.0
480.63,153.0
480.69,143.0
480.75,145.0
480.82,140.0
480.88,127.0
480.94,146.0
481.0,165.0
481.07,123.0
481.13,134.0
481.19,138.0
481.26,119.0
481.32,132.0
481.38,121.0
481.45,138.0
481.51,120.0
481.57,130.0
481.63,162.0
481.7,130.0
481.76,153.0
481.82,141.0
481.89,132.0
481.95,138.0
482.01,160.0
482.08,166.0
482.14,149.0
482.2,148.0
482.26,157.0
482.33,139.0
482.39,126.0
482.45,121.0
482.52,123.0
482.58,146.0
482.64,142.0
482.71,143.0
482.77,144.0
482.83,138.0
482.89,134.0
482.96,102.0
483.02,98.0
483.08,138.0
483.15,140.0
483.21,151.0
483.27,135.0
483.34,123.0
483.4,120.0
483.46,132.0
483.52,124.0
483.59,127.0
483.65,133.0
483.71,133.0
483.78,123.0
483.84,129.0
483.9,109.0
483.97,110.0
484.03,105.0
484.09,108.0
484.15,108.0
484.22,128.0
484.28,134.0
484.34,116.0
484.41,125.0
484.47,138.0
484.53,143.0
484.6,124.0
484.66,99.0
484.72,111.0
484.78,137.0
484.85,125.0
484.91,121.0
484.97,121.0
485.04,139.0
485.1,118.0
485.16,95.0
485.23,115.0
485.29,119.0
485.35,112.0
485.41,91.0
485.48,93.0
485.54,86.0
485.6,101.0
485.67,101.0
485.73,102.0
485.79,113.0
485.86,98.0
485.92,80.0
485.98,104.0
486.04,104.0
486.11,107.0
486.17,109.0
486.23,114.0
486.3,109.0
486.36,122.0
486.42,123.0
486.49,140.0
486.55,148.0
486.61,137.0
486.67,134.0
486.74,130.0
486.8,141.0
486.86,140.0
486.93,134.0
486.99,144.0
487.05,152.0
487.12,131.0
487.18,118.0
487.24,140.0
487.3,151.0
487.37,150.0
487.43,147.0
487.49,159.0
487.56,160.0
487.62,145.0
487.68,144.0
487.75,167.0
487.81,174.0
487.87,179.0
487.93,185.0
488.0,173.0
488.06,162.0
488.12,166.0
488.19,156.0
488.25,152.0
488.31,173.0
488.38,169.0
488.44,190.0
488.5,203.0
488.56,181.0
488.63,176.0
488.69,168.0
488.75,163.0
488.82,172.0
488.88,174.0
488.94,188.0
489.01,211.0
489.07,210.0
489.13,191.0
489.19,176.0
489.26,196.0
489.32,204.0
489.38,184.0
489.45,180.0
489.51,167.0
489.57,182.0
489.64,190.0
489.7,185.0
489.76,186.0
489.82,179.0
489.89,188.0
489.95,159.0
490.01,188.0
490.08,196.0
490.14,164.0
490.2,189.0
490.27,192.0
490.33,186.0
490.39,185.0
490.45,181.0
490.52,185.0
490.58,194.0
490.64,184.0
490.71,179.0
490.77,207.0
490.83,193.0
490.9,193.0
490.96,193.0
491.02,186.0
491.08,187.0
491.15,189.0
491.21,176.0
491.27,195.0
491.34,206.0
491.4,189.0
491.46,176.0
491.53,209.0
491.59,200.0
491.65,186.0
491.71,190.0
491.78,183.0
491.84,192.0
491.9,173.0
491.97,184.0
492.03,204.0
492.09,176.0
492.16,194.0
492.22,182.0
492.28,174.0
492.34,189.0
492.41,174.0
492.47,187.0
492.53,171.0
492.6,182.0
492.66,192.0
492.72,171.0
492.79,185.0
492.85,181.0
492.91,192.0
492.97,171.0
493.04,174.0
493.1,195.0
493.16,170.0
493.23,163.0
493.29,166.0
493.35,164.0
493.42,158.0
493.48,158.0
493.54,157.0
493.6,161.0
493.67,159.0
493.73,160.0
493.79,167.0
493.86,153.0
493.92,146.0
493.98,149.0
494.05,147.0
494.11,123.0
494.17,120.0
494.23,125.0
494.3,108.0
494.36,90.0
494.42,106.0
494.49,119.0
494.55,126.0
494.61,96.0
494.68,115.0
494.74,108.0
494.8,98.0
494.86,116.0
494.93,97.0
494.99,108.0
495.05,116.0
495.12,109.0
495.18,127.0
495.24,108.0
495.31,119.0
495.37,121.0
495.43,114.0
495.49,112.0
495.56,94.0
495.62,121.0
495.68,116.0
495.75,91.0
495.81,102.0
495.87,95.0
495.94,98.0
496.0,104.0
496.06,98.0
496.12,94.0
496.19,89.0
496.25,93.0
496.31,94.0
496.38,116.0
496.44,94.0
496.5,100.0
496.57,87.0
496.63,82.0
496.69,111.0
496.75,81.0
496.82,78.0
496.88,77.0
496.94,86.0
497.01,107.0
497.07,90.0
497.13,94.0
497.2,79.0
497.26,95.0
497.32,97.0
497.38,104.0
497.45,101.0
497.51,96.0
497.57,108.0
497.64,105.0
497.7,105.0
497.76,90.0
497.83,107.0
497.89,118.0
497.95,122.0
498.01,125.0
498.08,127.0
498.14,112.0
498.2,105.0
498.27,111.0
498.33,112.0
498.39,115.0
498.46,104.0
498.52,86.0
498.58,86.0
498.64,72.0
498.71,100.0
498.77,101.0
498.83,72.0
498.9,89.0
498.96,72.0
499.02,82.0
499.09,80.0
499.15,90.0
499.21,111.0
499.27,98.0
499.34,97.0
499.4,87.0
499.46,101.0
499.53,111.0
499.59,113.0
499.65,104.0
499.72,81.0
499.78,107.0
499.84,112.0
499.9,101.0
499.97,115.0
500.03,115.0
500.09,109.0
500.16,91.0
500.22,92.0
500.28,115.0
500.35,84.0
500.41,102.0
500.47,101.0
500.53,96.0
500.6,81.0
500.66,79.0
500.72,85.0
500.79,64.0
500.85,64.0
500.91,66.0
500.98,77.0
501.04,104.0
501.1,90.0
501.16,102.0
501.23,91.0
501.29,103.0
501.35,77.0
501.42,65.0
501.48,77.0
501.54,95.0
501.61,100.0
501.67,101.0
501.73,107.0
501.79,111.0
501.86,126.0
501.92,123.0
501.98,120.0
502.05,104.0
502.11,112.0
502.17,103.0
502.24,120.0
502.3,121.0
502.36,119.0
502.42,120.0
502.49,127.0
502.55,131.0
502.61,135.0
502.68,112.0
502.74,115.0
502.8,113.0
502.87,126.0
502.93,112.0
502.99,134.0
503.05,131.0
503.12,142.0
503.18,142.0
503.24,119.0
503.31,129.0
503.37,133.0
503.43,126.0
503.5,131.0
503.56,142.0
503.62,127.0
503.68,116.0
503.75,110.0
503.81,130.0
503.87,137.0
503.94,122.0
504.0,110.0
504.06,135.0
504.13,132.0
504.19,134.0
504.25,147.0
504.31,137.0
504.38,156.0
504.44,155.0
504.5,148.0
504.57,157.0
504.63,149.0
504.69,163.0
504.76,157.0
504.82,150.0
504.88,132.0
504.94,135.0
505.01,128.0
505.07,112.0
505.13,126.0
505.2,131.0
505.26,137.0
505.32,135.0
505.39,136.0
505.45,131.0
505.51,118.0
505.57,125.0
505.64,123.0
505.7,128.0
505.76,114.0
505.83,109.0
505.89,113.0
505.95,112.0
506.02,121.0
506.08,115.0
506.14,109.0
506.2,113.0
506.27,93.0
506.33,101.0
506.39,97.0
506.46,96.0
506.52,77.0
506.58,106.0
506.65,103.0
506.71,94.0
506.77,101.0
506.83,83.0
506.9,94.0
506.96,110.0
507.02,129.0
507.09,112.0
507.15,114.0
507.21,102.0
507.28,91.0
507.34,105.0
507.4,120.0
507.46,96.0
507.53,99.0
507.59,101.0
507.65,91.0
507.72,68.0
507.78,82.0
507.84,83.0
507.91,80.0
507.97,85.0
508.03,65.0
508.09,49.0
508.16,56.0
508.22,67.0
508.28,47.0
508.35,51.0
508.41,60.0
508.47,35.0
508.54,35.0
508.6,34.0
508.66,46.0
508.72,48.0
508.79,52.0
508.85,50.0
508.91,41.0
508.98,47.0
509.04,53.0
509.1,42.0
509.17,59.0
509.23,49.0
509.29,45.0
509.35,41.0
509.42,21.0
509.48,23.0
509.54,18.0
509.61,9.0
509.67,-3.0
509.73,-7.0
509.8,5.0
509.86,4.0
509.92,-11.0
509.98,-14.0
510.05,-12.0
510.11,10.0
510.17,-2.0
510.24,-1.0
510.3,18.0
510.36,13.0
510.43,17.0
510.49,22.0
510.55,33.0
510.61,14.0
510.68,11.0
510.74,-7.0
510.8,19.0
510.87,4.0
510.93,-8.0
510.99,8.0
511.06,4.0
511.12,1.0
511.18,20.0
511.24,7.0
511.31,21.0
511.37,10.0
511.43,8.0
511.5,18.0
511.56,12.0
511.62,10.0
511.69,-2.0
511.75,13.0
511.81,24.0
511.87,24.0
511.94,22.0
512.0,11.0
512.06,18.0
512.13,25.0
512.19,23.0
512.25,21.0
512.32,33.0
512.38,30.0
512.44,22.0
512.5,41.0
512.57,49.0
512.63,50.0
512.69,53.0
512.76,47.0
512.82,60.0
512.88,60.0
512.95,35.0
513.01,35.0
513.07,47.0
513.13,38.0
513.2,40.0
513.26,60.0
513.32,61.0
513.39,66.0
513.45,50.0
513.51,48.0
513.58,65.0
513.64,49.0
513.7,58.0
513.76,64.0
513.83,78.0
513.89,44.0
513.95,51.0
514.02,51.0
514.08,46.0
514.14,51.0
514.21,56.0
514.27,61.0
514.33,42.0
514.39,36.0
514.46,27.0
514.52,45.0
514.58,62.0
514.65,30.0
514.71,21.0
514.77,19.0
514.84,12.0
514.9,13.0
514.96,8.0
515.02,28.0
515.09,10.0
515.15,21.0
515.21,10.0
515.28,21.0
515.34,9.0
515.4,17.0
515.47,18.0
515.53,-1.0
515.59,2.0
515.65,6.0
515.72,3.0
515.78,17.0
515.84,19.0
515.91,16.0
515.97,19.0
516.03,17.0
516.1,3.0
516.16,18.0
516.22,13.0
516.28,12.0
516.35,19.0
516.41,16.0
516.47,10.0
516.54,26.0
516.6,14.0
516.66,27.0
516.73,38.0
516.79,39.0
516.85,43.0
516.91,42.0
516.98,33.0
517.04,24.0
517.1,53.0
517.17,38.0
517.23,10.0
517.29,38.0
517.36,63.0
517.42,37.0
517.48,34.0
517.54,35.0
517.61,60.0
517.67,41.0
517.73,50.0
517.8,59.0
517.86,49.0
517.92,49.0
517.99,54.0
518.05,53.0
518.11,72.0
518.17,61.0
518.24,77.0
518.3,69.0
518.36,68.0
518.43,80.0
518.49,76.0
518.55,87.0
518.62,99.0
518.68,77.0
518.74,72.0
518.8,88.0
518.87,103.0
518.93,92.0
518.99,70.0
519.06,76.0
519.12,96.0
519.18,84.0
519.25,97.0
519.31,112.0
519.37,124.0
519.43,121.0
519.5,115.0
519.56,121.0
519.62,122.0
519.69,123.0
519.75,98.0
519.81,100.0
519.88,117.0
519.94,104.0
520.0,120.0
520.06,115.0
520.13,120.0
520.19,137.0
520.25,126.0
520.32,143.0
520.38,142.0
520.44,150.0
520.51,149.0
520.57,143.0
520.63,140.0
520.69,130.0
520.76,152.0
520.82,173.0
520.88,171.0
520.95,174.0
521.01,189.0
521.07,190.0
521.14,174.0
521.2,182.0
521.26,192.0
521.32,197.0
521.39,164.0
521.45,171.0
521.51,184.0
521.58,181.0
521.64,190.0
521.7,196.0
521.77,201.0
521.83,175.0
521.89,187.0
521.95,195.0
522.02,174.0
522.08,186.0
522.14,192.0
522.21,169.0
522.27,160.0
522.33,175.0
522.4,176.0
522.46,182.0
522.52,196.0
522.58,196.0
522.65,182.0
522.71,184.0
522.77,208.0
522.84,186.0
522.9,207.0
522.96,194.0
523.03,184.0
523.09,193.0
523.15,201.0
523.21,190.0
523.28,184.0
523.34,189.0
523.4,176.0
523.47,174.0
523.53,178.0
523.59,189.0
523.66,161.0
523.72,159.0
523.78,170.0
523.84,154.0
523.91,149.0
523.97,155.0
524.03,156.0
524.1,165.0
524.16,156.0
524.22,158.0
524.29,149.0
524.35,136.0
524.41,139.0
524.47,144.0
524.54,155.0
524.6,138.0
524.66,128.0
524.73,142.0
524.79,156.0
524.85,130.0
524.92,151.0
524.98,142.0
525.04,132.0
525.1,140.0
525.17,143.0
525.23,137.0
525.29,142.0
525.36,148.0
525.42,119.0
525.48,126.0
525.55,133.0
525.61,120.0
525.67,96.0
525.73,98.0
525.8,110.0
525.86,107.0
525.92,85.0
525.99,90.0
526.05,103.0
526.11,120.0
526.18,97.0
526.24,97.0
526.3,105.0
526.36,131.0
526.43,106.0
526.49,89.0
526.55,120.0
526.62,112.0
526.68,127.0
526.74,108.0
526.81,112.0
526.87,108.0
526.93,118.0
526.99,97.0
527.06,104.0
527.12,107.0
527.18,89.0
527.25,90.0
527.31,83.0
527.37,79.0
527.44,83.0
527.5,88.0
527.56,91.0
527.62,88.0
527.69,89.0
527.75,104.0
527.81,80.0
527.88,83.0
527.94,72.0
528.0,75.0
528.07,84.0
528.13,73.0
528.19,91.0
528.25,66.0
528.32,72.0
528.38,81.0
528.44,83.0
528.51,75.0
528.57,96.0
528.63,87.0
528.7,116.0
528.76,123.0
528.82,123.0
528.88,123.0
528.95,116.0
529.01,154.0
529.07,138.0
529.14,136.0
529.2,148.0
529.26,148.0
529.33,138.0
529.39,148.0
529.45,168.0
529.51,145.0
529.58,141.0
529.64,153.0
529.7,127.0
529.77,141.0
529.83,146.0
529.89,150.0
529.96,160.0
530.02,161.0
530.08,155.0
530.14,168.0
530.21,155.0
530.27,140.0
530.33,145.0
530.4,148.0
530.46,166.0
530.52,143.0
530.59,152.0
530.65,166.0
530.71,174.0
530.77,174.0
530.84,196.0
530.9,190.0
530.96,183.0
531.03,203.0
531.09,218.0
531.15,192.0
531.22,182.0
531.28,182.0
531.34,170.0
531.4,172.0
531.47,158.0
531.53,162.0
531.59,175.0
531.66,163.0
531.72,174.0
531.78,141.0
531.85,142.0
531.91,157.0
531.97,135.0
532.03,128.0
532.1,140.0
532.16,142.0
532.22,156.0
532.29,144.0
532.35,136.0
532.41,138.0
532.48,152.0
532.54,170.0
532.6,149.0
532.66,155.0
532.73,163.0
532.79,157.0
532.85,122.0
532.92,113.0
532.98,129.0
533.04,141.0
533.11,121.0
533.17,133.0
533.23,115.0
533.29,131.0
533.36,144.0
533.42,136.0
533.48,132.0
533.55,112.0
533.61,128.0
533.67,143.0
533.74,131.0
533.8,116.0
533.86,101.0
533.92,126.0
533.99,121.0
534.05,120.0
534.11,118.0
534.18,109.0
534.24,101.0
534.3,88.0
534.37,84.0
534.43,101.0
534.49,90.0
534.55,86.0
534.62,75.0
534.68,64.0
534.74,71.0
534.81,57.0
534.87,70.0
534.93,65.0
535.0,61.0
535.06,78.0
535.12,66.0
535.18,64.0
535.25,73.0
535.31,65.0
535.37,61.0
535.44,72.0
535.5,63.0
535.56,61.0
535.63,61.0
535.69,63.0
535.75,53.0
535.81,62.0
535.88,60.0
535.94,71.0
536.0,77.0
536.07,69.0
536.13,84.0
536.19,66.0
536.26,58.0
536.32,59.0
536.38,72.0
536.44,79.0
536.51,62.0
536.57,80.0
536.63,71.0
536.7,84.0
536.76,100.0
536.82,104.0
536.89,124.0
536.95,112.0
537.01,130.0
537.07,109.0
537.14,109.0
537.2,120.0
537.26,111.0
537.33,136.0
537.39,129.0
537.45,120.0
537.52,122.0
537.58,136.0
537.64,118.0
537.7,119.0
537.77,122.0
537.83,94.0
537.89,122.0
537.96,131.0
538.02,99.0
538.08,70.0
538.15,72.0
538.21,75.0
538.27,107.0
538.33,110.0
538.4,104.0
538.46,108.0
538.52,120.0
538.59,122.0
538.65,113.0
538.71,123.0
538.78,123.0
538.84,117.0
538.9,129.0
538.96,137.0
539.03,136.0
539.09,124.0
539.15,124.0
539.22,128.0
539.28,108.0
539.34,107.0
539.41,109.0
539.47,124.0
539.53,134.0
539.59,139.0
539.66,135.0
539.72,132.0
539.78,132.0
539.85,102.0
539.91,133.0
539.97,141.0
540.04,134.0
540.1,147.0
540.16,132.0
540.22,149.0
540.29,149.0
540.35,160.0
540.41,165.0
540.48,156.0
540.54,145.0
540.6,142.0
540.67,171.0
540.73,171.0
540.79,167.0
540.85,184.0
540.92,151.0
540.98,155.0
541.04,148.0
541.11,147.0
541.17,164.0
541.23,157.0
541.3,152.0
541.36,143.0
541.42,132.0
541.48,138.0
541.55,127.0
541.61,146.0
541.67,140.0
541.74,137.0
541.8,137.0
541.86,141.0
541.93,133.0
541.99,167.0
542.05,168.0
542.11,159.0
542.18,172.0
542.24,158.0
542.3,163.0
542.37,160.0
542.43,160.0
542.49,151.0
542.56,162.0
542.62,166.0
542.68,167.0
542.74,162.0
542.81,136.0
542.87,148.0
542.93,148.0
543.0,140.0
543.06,135.0
543.12,118.0
543.19,120.0
543.25,102.0
543.31,123.0
543.37,118.0
543.44,104.0
543.5,106.0
543.56,111.0
543.63,127.0
543.69,115.0
543.75,95.0
543.82,82.0
543.88,107.0
543.94,110.0
544.0,118.0
544.07,111.0
544.13,116.0
544.19,138.0
544.26,129.0
544.32,133.0
544.38,130.0
544.45,109.0
544.51,123.0
544.57,125.0
544.63,119.0
544.7,123.0
544.76,135.0
544.82,145.0
544.89,140.0
544.95,150.0
545.01,160.0
545.08,168.0
545.14,171.0
545.2,171.0
545.26,142.0
545.33,141.0
545.39,131.0
545.45,151.0
545.52,144.0
545.58,149.0
545.64,165.0
545.71,157.0
545.77,149.0
545.83,149.0
545.89,165.0
545.96,168.0
546.02,179.0
546.08,173.0
546.15,157.0
546.21,145.0
546.27,168.0
546.34,181.0
546.4,174.0
546.46,175.0
546.52,169.0
546.59,164.0
546.65,161.0
546.71,177.0
546.78,200.0
546.84,182.0
546.9,185.0
546.97,183.0
547.03,165.0
547.09,187.0
547.15,199.0
547.22,184.0
547.28,176.0
547.34,178.0
547.41,175.0
547.47,186.0
547.53,163.0
547.6,178.0
547.66,200.0
547.72,193.0
547.78,190.0
547.85,180.0
547.91,189.0
547.97,185.0
548.04,201.0
548.1,187.0
548.16,213.0
548.23,215.0
548.29,200.0
548.35,211.0
548.41,203.0
548.48,178.0
548.54,203.0
548.6,198.0
548.67,193.0
548.73,217.0
548.79,195.0
548.86,185.0
548.92,206.0
548.98,203.0
549.04,200.0
549.11,200.0
549.17,184.0
549.23,177.0
549.3,196.0
549.36,212.0
549.42,211.0
549.49,210.0
549.55,214.0
549.61,220.0
549.67,208.0
549.74,195.0
549.8,203.0
549.86,197.0
549.93,196.0
549.99,220.0
550.05,200.0
550.12,193.0
550.18,199.0
550.24,207.0
550.3,222.0
550.37,214.0
550.43,208.0
550.49,209.0
550.56,189.0
550.62,173.0
550.68,175.0
550.75,191.0
550.81,198.0
550.87,195.0
550.93,189.0
551.0,197.0
551.06,196.0
551.12,198.0
551.19,196.0
551.25,195.0
551.31,175.0
551.38,170.0
551.44,184.0
551.5,182.0
551.56,171.0
551.63,156.0
551.69,153.0
551.75,167.0
551.82,178.0
551.88,183.0
551.94,178.0
552.01,166.0
552.07,175.0
552.13,160.0
552.19,158.0
552.26,156.0
552.32,140.0
552.38,148.0
552.45,131.0
552.51,128.0
552.57,127.0
552.64,135.0
552.7,146.0
552.76,114.0
552.82,115.0
552.89,116.0
552.95,101.0
553.01,124.0
553.08,110.0
553.14,122.0
553.2,116.0
553.27,122.0
553.33,130.0
553.39,107.0
553.45,109.0
553.52,104.0
553.58,116.0
553.64,112.0
553.71,116.0
553.77,119.0
553.83,104.0
553.9,118.0
553.96,131.0
554.02,105.0
554.08,82.0
554.15,78.0
554.21,71.0
554.27,77.0
554.34,53.0
554.4,66.0
554.46,55.0
554.53,63.0
554.59,93.0
554.65,84.0
554.71,75.0
554.78,82.0
554.84,68.0
554.9,67.0
554.97,61.0
555.03,70.0
555.09,75.0
555.16,66.0
555.22,89.0
555.28,80.0
555.34,80.0
555.41,87.0
555.47,100.0
555.53,84.0
555.6,82.0
555.66,100.0
555.72,90.0
555.79,110.0
555.85,95.0
555.91,89.0
555.97,80.0
556.04,71.0
556.1,82.0
556.16,79.0
556.23,102.0
556.29,83.0
556.35,85.0
556.42,77.0
556.48,74.0
556.54,83.0
556.6,71.0
556.67,84.0
556.73,71.0
556.79,76.0
556.86,74.0
556.92,82.0
556.98,81.0
557.05,68.0
557.11,75.0
557.17,64.0
557.23,93.0
557.3,76.0
557.36,74.0
557.42,85.0
557.49,79.0
557.55,78.0
557.61,90.0
557.68,91.0
557.74,82.0
557.8,83.0
557.86,72.0
557.93,70.0
557.99,61.0
558.05,75.0
558.12,90.0
558.18,80.0
558.24,79.0
558.31,83.0
558.37,68.0
558.43,88.0
558.49,62.0
558.56,78.0
558.62,71.0
558.68,70.0
558.75,74.0
558.81,85.0
558.87,96.0
558.94,87.0
559.0,85.0
559.06,98.0
559.12,87.0
559.19,101.0
559.25,88.0
559.31,71.0
559.38,46.0
559.44,69.0
559.5,72.0
559.57,73.0
559.63,74.0
559.69,110.0
559.75,91.0
559.82,65.0
559.88,68.0
559.94,69.0
560.01,84.0
560.07,79.0
560.13,64.0
560.2,67.0
560.26,61.0
560.32,40.0
560.38,55.0
560.45,43.0
560.51,57.0
560.57,61.0
560.64,46.0
560.7,66.0
560.76,50.0
560.83,50.0
560.89,55.0
560.95,51.0
561.01,67.0
561.08,47.0
561.14,43.0
561.2,54.0
561.27,46.0
561.33,33.0
561.39,54.0
561.46,42.0
561.52,42.0
561.58,45.0
561.64,52.0
561.71,57.0
561.77,43.0
561.83,61.0
561.9,60.0
561.96,65.0
562.02,48.0
562.09,61.0
562.15,58.0
562.21,36.0
562.27,62.0
562.34,57.0
562.4,59.0
562.46,58.0
562.53,58.0
562.59,53.0
562.65,47.0
562.72,50.0
562.78,48.0
562.84,66.0
562.9,60.0
562.97,61.0
563.03,66.0
563.09,72.0
563.16,79.0
563.22,68.0
563.28,92.0
563.35,92.0
563.41,79.0
563.47,74.0
563.53,72.0
563.6,95.0
563.66,94.0
563.72,91.0
563.79,114.0
563.85,109.0
563.91,102.0
563.98,123.0
564.04,129.0
564.1,123.0
564.16,119.0
564.23,116.0
564.29,92.0
564.35,121.0
564.42,134.0
564.48,119.0
564.54,140.0
564.61,134.0
564.67,135.0
564.73,131.0
564.79,142.0
564.86,127.0
564.92,137.0
564.98,110.0
565.05,125.0
565.11,114.0
565.17,106.0
565.24,114.0
565.3,105.0
565.36,108.0
565.42,96.0
565.49,101.0
565.55,100.0
565.61,102.0
565.68,116.0
565.74,113.0
565.8,114.0
565.87,114.0
565.93,117.0
565.99,135.0
566.05,122.0
566.12,129.0
566.18,126.0
566.24,121.0
566.31,148.0
566.37,134.0
566.43,138.0
566.5,133.0
566.56,130.0
566.62,134.0
566.68,129.0
566.75,138.0
566.81,140.0
566.87,153.0
566.94,154.0
567.0,123.0
567.06,117.0
567.13,132.0
567.19,125.0
567.25,131.0
567.31,129.0
567.38,139.0
567.44,131.0
567.5,133.0
567.57,133.0
567.63,118.0
567.69,129.0
567.76,127.0
567.82,121.0
567.88,110.0
567.94,104.0
568.01,101.0
568.07,106.0
568.13,104.0
568.2,86.0
568.26,84.0
568.32,110.0
568.39,87.0
568.45,81.0
568.51,98.0
568.57,95.0
568.64,92.0
568.7,93.0
568.76,110.0
568.83,112.0
568.89,104.0
568.95,93.0
569.02,104.0
569.08,92.0
569.14,95.0
569.2,92.0
569.27,114.0
569.33,96.0
569.39,105.0
569.46,127.0
569.52,107.0
569.58,102.0
569.65,126.0
569.71,127.0
569.77,130.0
569.83,142.0
569.9,135.0
569.96,151.0
570.02,148.0
570.09,153.0
570.15,159.0
570.21,164.0
570.28,184.0
570.34,174.0
570.4,172.0
570.46,171.0
570.53,173.0
570.59,171.0
570.65,170.0
570.72,187.0
570.78,190.0
570.84,183.0
570.91,192.0
570.97,178.0
571.03,160.0
571.09,162.0
571.16,174.0
571.22,167.0
571.28,167.0
571.35,155.0
571.41,154.0
571.47,164.0
571.54,165.0
571.6,149.0
571.66,162.0
571.72,165.0
571.79,162.0
571.85,175.0
571.91,167.0
571.98,166.0
572.04,180.0
572.1,174.0
572.17,177.0
572.23,167.0
572.29,168.0
572.35,167.0
572.42,171.0
572.48,182.0
572.54,188.0
572.61,190.0
572.67,194.0
572.73,185.0
572.8,182.0
572.86,173.0
572.92,196.0
572.98,183.0
573.05,171.0
573.11,183.0
573.17,187.0
573.24,201.0
573.3,221.0
573.36,201.0
573.43,203.0
573.49,224.0
573.55,227.0
573.61,223.0
573.68,232.0
573.74,217.0
573.8,221.0
573.87,220.0
573.93,207.0
573.99,231.0
574.06,248.0
574.12,257.0
574.18,231.0
574.24,232.0
574.31,223.0
574.37,248.0
574.43,254.0
574.5,253.0
574.56,264.0
574.62,241.0
574.69,235.0
574.75,247.0
574.81,242.0
574.87,246.0
574.94,255.0
575.0,259.0
575.06,251.0
575.13,248.0
575.19,244.0
575.25,244.0
575.32,245.0
575.38,240.0
575.44,228.0
575.5,226.0
575.57,219.0
575.63,223.0
575.69,236.0
575.76,211.0
575.82,219.0
575.88,226.0
575.95,221.0
576.01,214.0
576.07,213.0
576.13,210.0
576.2,211.0
576.26,183.0
576.32,185.0
576.39,178.0
576.45,180.0
576.51,177.0
576.58,181.0
576.64,197.0
576.7,194.0
576.76,197.0
576.83,192.0
576.89,204.0
576.95,192.0
577.02,186.0
577.08,172.0
577.14,173.0
577.21,161.0
577.27,176.0
577.33,193.0
577.39,155.0
577.46,177.0
577.52,192.0
577.58,178.0
577.65,175.0
577.71,174.0
577.77,174.0
577.84,171.0
577.9,152.0
577.96,166.0
578.02,164.0
578.09,163.0
578.15,171.0
578.21,193.0
578.28,210.0
578.34,193.0
578.4,200.0
578.47,208.0
578.53,206.0
578.59,209.0
578.65,211.0
578.72,209.0
578.78,201.0
578.84,201.0
578.91,207.0
578.97,198.0
579.03,222.0
579.1,230.0
579.16,222.0
579.22,204.0
579.28,203.0
579.35,189.0
579.41,195.0
579.47,215.0
579.54,195.0
579.6,182.0
579.66,192.0
579.73,197.0
579.79,193.0
579.85,182.0
579.91,179.0
579.98,197.0
580.04,186.0
580.1,167.0
580.17,193.0
580.23,199.0
580.29,183.0
580.36,192.0
580.42,186.0
580.48,162.0
580.54,185.0
580.61,197.0
580.67,179.0
580.73,186.0
580.8,198.0
580.86,197.0
580.92,181.0
580.99,198.0
581.05,194.0
581.11,187.0
581.17,199.0
581.24,180.0
581.3,173.0
581.36,175.0
581.43,179.0
581.49,185.0
581.55,178.0
581.62,143.0
581.68,159.0
581.74,156.0
581.8,156.0
581.87,143.0
581.93,142.0
581.99,121.0
582.06,124.0
582.12,110.0
582.18,113.0
582.25,104.0
582.31,108.0
582.37,115.0
582.43,97.0
582.5,102.0
582.56,82.0
582.62,77.0
582.69,90.0
582.75,75.0
582.81,63.0
582.88,68.0
582.94,68.0
583.0,52.0
583.06,54.0
583.13,68.0
583.19,57.0
583.25,43.0
583.32,48.0
583.38,74.0
583.44,60.0
583.51,39.0
583.57,26.0
583.63,50.0
583.69,61.0
583.76,61.0
583.82,59.0
583.88,54.0
583.95,38.0
584.01,31.0
584.07,41.0
584.14,28.0
584.2,19.0
584.26,13.0
584.32,61.0
584.39,31.0
584.45,22.0
584.51,28.0
584.58,36.0
584.64,8.0
584.7,10.0
584.77,27.0
584.83,18.0
584.89,-5.0
584.95,14.0
585.02,20.0
585.08,-1.0
585.14,-10.0
585.21,-16.0
585.27,1.0
585.33,2.0
585.4,-23.0
585.46,-7.0
585.52,-8.0
585.58,-6.0
585.65,-11.0
585.71,-17.0
585.77,7.0
585.84,-9.0
585.9,-16.0
585.96,-10.0
586.03,-23.0
586.09,-14.0
586.15,-28.0
586.21,-15.0
586.28,21.0
586.34,10.0
586.4,-7.0
586.47,11.0
586.53,-10.0
586.59,-15.0
586.66,-22.0
586.72,1.0
586.78,21.0
586.84,-20.0
586.91,-5.0
586.97,-12.0
587.03,0.0
587.1,23.0
587.16,11.0
587.22,19.0
587.29,12.0
587.35,14.0
587.41,5.0
587.47,28.0
587.54,1.0
587.6,18.0
587.66,28.0
587.73,25.0
587.79,8.0
587.85,24.0
587.92,18.0
587.98,23.0
588.04,22.0
588.1,20.0
588.17,37.0
588.23,33.0
588.29,37.0
588.36,56.0
588.42,64.0
588.48,61.0
588.55,63.0
588.61,74.0
588.67,56.0
588.73,54.0
588.8,78.0
588.86,69.0
588.92,83.0
588.99,99.0
589.05,111.0
589.11,105.0
589.18,118.0
589.24,131.0
589.3,157.0
589.36,154.0
589.43,147.0
589.49,144.0
589.55,143.0
589.62,151.0
589.68,140.0
589.74,138.0
589.81,109.0
589.87,128.0
589.93,136.0
589.99,118.0
590.06,118.0
590.12,118.0
590.18,113.0
590.25,107.0
590.31,129.0
590.37,132.0
590.44,112.0
590.5,132.0
590.56,146.0
590.62,133.0
590.69,133.0
590.75,121.0
590.81,136.0
590.88,126.0
590.94,124.0
591.0,135.0
591.07,141.0
591.13,148.0
591.19,140.0
591.25,138.0
591.32,150.0
591.38,144.0
591.44,140.0
591.51,147.0
591.57,158.0
591.63,148.0
591.7,155.0
591.76,148.0
591.82,150.0
591.88,156.0
591.95,143.0
592.01,150.0
592.07,146.0
592.14,126.0
592.2,142.0
592.26,136.0
592.33,130.0
592.39,133.0
592.45,103.0
592.51,112.0
592.58,135.0
592.64,136.0
592.7,138.0
592.77,136.0
592.83,123.0
592.89,117.0
592.96,122.0
593.02,111.0
593.08,110.0
593.14,119.0
593.21,110.0
593.27,115.0
593.33,131.0
593.4,111.0
593.46,106.0
593.52,115.0
593.59,108.0
593.65,95.0
593.71,94.0
593.77,107.0
593.84,100.0
593.9,94.0
593.96,110.0
594.03,114.0
594.09,106.0
594.15,109.0
594.22,107.0
594.28,98.0
594.34,99.0
594.4,94.0
594.47,107.0
594.53,120.0
594.59,117.0
594.66,114.0
594.72,116.0
594.78,115.0
594.85,97.0
594.91,96.0
594.97,97.0
595.03,100.0
595.1,132.0
595.16,128.0
595.22,120.0
595.29,126.0
595.35,102.0
595.41,107.0
595.48,113.0
595.54,115.0
595.6,110.0
595.66,104.0
595.73,91.0
595.79,107.0
595.85,100.0
595.92,96.0
595.98,102.0
596.04,100.0
596.11,111.0
596.17,116.0
596.23,103.0
596.29,127.0
596.36,115.0
596.42,121.0
596.48,122.0
596.55,122.0
596.61,144.0
596.67,160.0
596.74,180.0
596.8,160.0
596.86,154.0
596.92,144.0
596.99,154.0
597.05,160.0
597.11,129.0
597.18,147.0
597.24,140.0
597.3,119.0
597.37,141.0
597.43,152.0
597.49,160.0
597.55,147.0
597.62,143.0
597.68,131.0
597.74,137.0
597.81,147.0
597.87,156.0
597.93,167.0
598.0,156.0
598.06,150.0
598.12,166.0
598.18,180.0
598.25,166.0
598.31,162.0
598.37,187.0
598.44,201.0
598.5,188.0
598.56,182.0
598.63,167.0
598.69,172.0
598.75,163.0
598.81,158.0
598.88,165.0
598.94,169.0
599.0,180.0
599.07,169.0
599.13,160.0
599.19,181.0
599.26,188.0
599.32,198.0
599.38,189.0
599.44,179.0
599.51,188.0
599.57,185.0
599.63,204.0
599.7,189.0
599.76,198.0
599.82,201.0
599.89,226.0
599.95,228.0
600.01,240.0
600.07,256.0
600.14,233.0
600.2,238.0
600.26,240.0
600.33,217.0
600.39,216.0
600.45,215.0
600.52,229.0
600.58,228.0
600.64,242.0
600.7,231.0
600.77,223.0
600.83,220.0
600.89,197.0
600.96,201.0
601.02,206.0
601.08,220.0
601.15,191.0
601.21,179.0
601.27,173.0
601.33,182.0
601.4,176.0
601.46,163.0
601.52,176.0
601.59,166.0
601.65,149.0
601.71,166.0
601.78,155.0
601.84,149.0
601.9,136.0
601.96,125.0
602.03,148.0
602.09,128.0
602.15,141.0
602.22,162.0
602.28,129.0
602.34,121.0
602.41,115.0
602.47,122.0
602.53,114.0
602.59,133.0
602.66,135.0
602.72,127.0
602.78,112.0
602.85,115.0
602.91,112.0
602.97,114.0
603.04,120.0
603.1,132.0
603.16,132.0
603.22,118.0
603.29,104.0
603.35,120.0
603.41,100.0
603.48,111.0
603.54,124.0
603.6,134.0
603.67,149.0
603.73,161.0
603.79,140.0
603.85,122.0
603.92,133.0
603.98,146.0
604.04,158.0
604.11,144.0
604.17,138.0
604.23,147.0
604.3,142.0
604.36,156.0
604.42,132.0
604.48,141.0
604.55,152.0
604.61,136.0
604.67,135.0
604.74,144.0
604.8,154.0
604.86,140.0
604.93,149.0
604.99,148.0
605.05,148.0
605.11,135.0
605.18,132.0
605.24,140.0
605.3,141.0
605.37,149.0
605.43,151.0
605.49,155.0
605.56,168.0
605.62,144.0
605.68,163.0
605.74,169.0
605.81,170.0
605.87,176.0
605.93,161.0
606.0,169.0
606.06,161.0
606.12,173.0
606.19,175.0
606.25,166.0
606.31,148.0
606.37,163.0
606.44,163.0
606.5,151.0
606.56,171.0
606.63,161.0
606.69,173.0
606.75,162.0
606.82,172.0
606.88,171.0
606.94,169.0
607.0,165.0
607.07,169.0
607.13,161.0
607.19,152.0
607.26,151.0
607.32,151.0
607.38,152.0
607.45,117.0
607.51,129.0
607.57,140.0
607.63,160.0
607.7,155.0
607.76,162.0
607.82,166.0
607.89,166.0
607.95,138.0
608.01,177.0
608.08,164.0
608.14,171.0
608.2,168.0
608.26,178.0
608.33,195.0
608.39,170.0
608.45,164.0
608.52,170.0
608.58,148.0
608.64,157.0
608.71,188.0
608.77,177.0
608.83,173.0
608.89,183.0
608.96,176.0
609.02,169.0
609.08,175.0
609.15,160.0
609.21,160.0
609.27,162.0
609.34,173.0
609.4,165.0
609.46,159.0
609.52,157.0
609.59,136.0
609.65,143.0
609.71,143.0
609.78,133.0
609.84,127.0
609.9,93.0
609.97,99.0
610.03,108.0
610.09,81.0
610.15,89.0
610.22,88.0
610.28,104.0
610.34,118.0
610.41,99.0
610.47,85.0
610.53,77.0
610.6,81.0
610.66,96.0
610.72,85.0
610.78,84.0
610.85,83.0
610.91,65.0
610.97,49.0
611.04,59.0
611.1,65.0
611.16,60.0
611.23,49.0
611.29,32.0
611.35,40.0
611.41,44.0
611.48,41.0
611.54,65.0
611.6,53.0
611.67,26.0
611.73,38.0
611.79,40.0
611.86,25.0
611.92,28.0
611.98,12.0
612.04,15.0
612.11,27.0
612.17,17.0
612.23,20.0
612.3,27.0
612.36,18.0
612.42,12.0
612.49,-2.0
612.55,11.0
612.61,31.0
612.67,22.0
612.74,21.0
612.8,29.0
612.86,35.0
612.93,19.0
612.99,15.0
613.05,12.0
613.12,27.0
613.18,36.0
613.24,34.0
613.3,35.0
613.37,21.0
613.43,35.0
613.49,22.0
613.56,15.0
613.62,31.0
613.68,24.0
613.75,40.0
613.81,40.0
613.87,46.0
613.93,49.0
614.0,45.0
614.06,52.0
614.12,59.0
614.19,35.0
614.25,50.0
614.31,46.0
614.38,41.0
614.44,58.0
614.5,63.0
614.56,56.0
614.63,70.0
614.69,77.0
614.75,60.0
614.82,55.0
614.88,52.0
614.94,66.0
615.01,65.0
615.07,75.0
615.13,78.0
615.19,86.0
615.26,59.0
615.32,44.0
615.38,61.0
615.45,75.0
615.51,62.0
615.57,67.0
615.64,74.0
615.7,76.0
615.76,76.0
615.82,92.0
615.89,86.0
615.95,80.0
616.01,84.0
616.08,84.0
616.14,76.0
616.2,96.0
616.27,91.0
616.33,104.0
616.39,119.0
616.45,119.0
616.52,104.0
616.58,97.0
616.64,107.0
616.71,92.0
616.77,78.0
616.83,85.0
616.9,111.0
616.96,113.0
617.02,105.0
617.08,111.0
617.15,110.0
617.21,99.0
617.27,91.0
617.34,98.0
617.4,109.0
617.46,103.0
617.53,112.0
617.59,101.0
617.65,83.0
617.71,88.0
617.78,106.0
617.84,116.0
617.9,132.0
617.97,108.0
618.03,113.0
618.09,121.0
618.16,125.0
618.22,106.0
618.28,106.0
618.34,118.0
618.41,119.0
618.47,127.0
618.53,116.0
618.6,113.0
618.66,119.0
618.72,136.0
618.79,132.0
618.85,127.0
618.91,111.0
618.97,136.0
619.04,147.0
619.1,162.0
619.16,147.0
619.23,152.0
619.29,147.0
619.35,153.0
619.42,166.0
619.48,160.0
619.54,158.0
619.6,151.0
619.67,140.0
619.73,154.0
619.79,162.0
619.86,179.0
619.92,169.0
619.98,178.0
620.05,184.0
620.11,177.0
620.17,174.0
620.23,166.0
620.3,172.0
620.36,178.0
620.42,184.0
620.49,176.0
620.55,181.0
620.61,194.0
620.68,213.0
620.74,210.0
620.8,199.0
620.86,220.0
620.93,210.0
620.99,224.0
621.05,224.0
621.12,224.0
621.18,220.0
621.24,210.0
621.31,218.0
621.37,212.0
621.43,230.0
621.49,224.0
621.56,226.0
621.62,221.0
621.68,216.0
621.75,239.0
621.81,229.0
621.87,245.0
621.94,222.0
622.0,212.0
622.06,214.0
622.12,219.0
622.19,218.0
622.25,223.0
622.31,225.0
622.38,238.0
622.44,226.0
622.5,223.0
622.57,229.0
622.63,222.0
622.69,245.0
622.75,244.0
622.82,231.0
622.88,246.0
622.94,244.0
623.01,243.0
623.07,250.0
623.13,247.0
623.2,267.0
623.26,251.0
623.32,255.0
623.38,260.0
623.45,254.0
623.51,256.0
623.57,241.0
623.64,247.0
623.7,251.0
623.76,236.0
623.83,242.0
623.89,241.0
623.95,235.0
624.01,213.0
624.08,233.0
624.14,239.0
624.2,224.0
624.27,223.0
624.33,205.0
624.39,213.0
624.46,217.0
624.52,207.0
624.58,207.0
624.64,243.0
624.71,229.0
624.77,221.0
624.83,227.0
624.9,224.0
624.96,234.0
625.02,236.0
625.09,229.0
625.15,223.0
625.21,237.0
625.27,228.0
625.34,234.0
625.4,220.0
625.46,239.0
625.53,234.0
625.59,231.0
625.65,232.0
625.72,220.0
625.78,220.0
625.84,225.0
625.9,239.0
625.97,222.0
626.03,234.0
626.09,246.0
626.16,213.0
626.22,207.0
626.28,206.0
626.35,214.0
626.41,205.0
626.47,196.0
626.53,206.0
626.6,209.0
626.66,188.0
626.72,167.0
626.79,177.0
626.85,199.0
626.91,198.0
626.98,193.0
627.04,184.0
627.1,180.0
627.16,179.0
627.23,183.0
627.29,178.0
627.35,172.0
627.42,190.0
627.48,171.0
627.54,173.0
627.61,177.0
627.67,165.0
627.73,173.0
627.79,169.0
627.86,164.0
627.92,154.0
627.98,153.0
628.05,160.0
628.11,136.0
628.17,155.0
628.24,143.0
628.3,136.0
628.36,152.0
628.42,154.0
628.49,153.0
628.55,155.0
628.61,152.0
628.68,164.0
628.74,170.0
628.8,183.0
628.87,173.0
628.93,188.0
628.99,190.0
629.05,172.0
629.12,171.0
629.18,166.0
629.24,165.0
629.31,185.0
629.37,173.0
629.43,168.0
629.5,195.0
629.56,193.0
629.62,183.0
629.68,184.0
629.75,209.0
629.81,215.0
629.87,215.0
629.94,200.0
630.0,207.0
630.06,202.0
630.13,206.0
630.19,209.0
630.25,233.0
630.31,245.0
630.38,233.0
630.44,208.0
630.5,216.0
630.57,196.0
630.63,208.0
630.69,225.0
630.76,210.0
630.82,207.0
630.88,222.0
630.94,200.0
631.01,204.0
631.07,200.0
631.13,220.0
631.2,202.0
631.26,198.0
631.32,198.0
631.39,202.0
631.45,227.0
631.51,218.0
631.57,208.0
631.64,205.0
631.7,207.0
631.76,221.0
631.83,219.0
631.89,205.0
631.95,202.0
632.02,208.0
632.08,191.0
632.14,212.0
632.2,192.0
632.27,192.0
632.33,180.0
632.39,201.0
632.46,198.0
632.52,168.0
632.58,191.0
632.65,196.0
632.71,197.0
632.77,170.0
632.83,188.0
632.9,182.0
632.96,176.0
633.02,188.0
633.09,185.0
633.15,156.0
633.21,156.0
633.28,174.0
633.34,163.0
633.4,158.0
633.46,158.0
633.53,168.0
633.59,150.0
633.65,143.0
633.72,154.0
633.78,160.0
633.84,147.0
633.91,169.0
633.97,139.0
634.03,136.0
634.09,151.0
634.16,139.0
634.22,126.0
634.28,146.0
634.35,147.0
634.41,138.0
634.47,134.0
634.54,142.0
634.6,125.0
634.66,127.0
634.72,135.0
634.79,140.0
634.85,113.0
634.91,107.0
634.98,121.0
635.04,95.0
635.1,86.0
635.17,96.0
635.23,96.0
635.29,85.0
635.35,74.0
635.42,75.0
635.48,81.0
635.54,83.0
635.61,72.0
635.67,75.0
635.73,66.0
635.8,73.0
635.86,51.0
635.92,78.0
635.98,70.0
636.05,68.0
636.11,70.0
636.17,63.0
636.24,74.0
636.3,62.0
636.36,70.0
636.43,75.0
636.49,69.0
636.55,77.0
636.61,62.0
636.68,54.0
636.74,71.0
636.8,81.0
636.87,95.0
636.93,91.0
636.99,80.0
637.06,90.0
637.12,69.0
637.18,55.0
637.24,66.0
637.31,66.0
637.37,58.0
637.43,66.0
637.5,69.0
637.56,53.0
637.62,45.0
637.69,50.0
637.75,38.0
637.81,50.0
637.87,51.0
637.94,55.0
638.0,61.0
638.06,55.0
638.13,54.0
638.19,70.0
638.25,65.0
638.32,57.0
638.38,79.0
638.44,57.0
638.5,83.0
638.57,82.0
638.63,61.0
638.69,70.0
638.76,50.0
638.82,61.0
638.88,66.0
638.95,80.0
639.01,69.0
639.07,48.0
639.13,67.0
639.2,53.0
639.26,73.0
639.32,45.0
639.39,36.0
639.45,55.0
639.51,63.0
639.58,66.0
639.64,58.0
639.7,57.0
639.76,61.0
639.83,68.0
639.89,57.0
639.95,62.0
640.02,66.0
640.08,70.0
640.14,77.0
640.21,66.0
640.27,75.0
640.33,73.0
640.39,85.0
640.46,112.0
640.52,112.0
640.58,99.0
640.65,75.0
640.71,72.0
640.77,89.0
640.84,81.0
640.9,82.0
640.96,74.0
641.02,80.0
641.09,88.0
641.15,102.0
641.21,81.0
641.28,80.0
641.34,94.0
641.4,86.0
641.47,87.0
641.53,73.0
641.59,63.0
641.65,60.0
641.72,75.0
641.78,67.0
641.84,76.0
641.91,82.0
641.97,64.0
642.03,77.0
642.1,78.0
642.16,79.0
642.22,74.0
642.28,66.0
642.35,67.0
642.41,72.0
642.47,61.0
642.54,64.0
642.6,55.0
642.66,58.0
642.73,74.0
642.79,59.0
642.85,62.0
642.91,55.0
642.98,38.0
643.04,27.0
643.1,29.0
643.17,16.0
643.23,8.0
643.29,33.0
643.36,31.0
643.42,24.0
643.48,12.0
643.54,20.0
643.61,23.0
643.67,18.0
643.73,17.0
643.8,27.0
643.86,13.0
643.92,9.0
643.99,3.0
644.05,3.0
644.11,-5.0
644.17,-18.0
644.24,-13.0
644.3,-17.0
644.36,-19.0
644.43,7.0
644.49,-1.0
644.55,19.0
644.62,3.0
644.68,-16.0
644.74,-20.0
644.8,-20.0
644.87,-12.0
644.93,-25.0
644.99,-1.0
645.06,0.0
645.12,3.0
645.18,-3.0
645.25,4.0
645.31,15.0
645.37,12.0
645.43,22.0
645.5,26.0
645.56,18.0
645.62,16.0
645.69,12.0
645.75,18.0
645.81,15.0
645.88,4.0
645.94,10.0
646.0,6.0
646.06,18.0
646.13,14.0
646.19,14.0
646.25,32.0
646.32,31.0
646.38,40.0
646.44,45.0
646.51,54.0
646.57,40.0
646.63,19.0
646.69,27.0
646.76,54.0
646.82,44.0
646.88,47.0
646.95,49.0
647.01,27.0
647.07,62.0
647.14,73.0
647.2,70.0
647.26,81.0
647.32,70.0
647.39,99.0
647.45,87.0
647.51,68.0
647.58,91.0
647.64,72.0
647.7,64.0
647.77,61.0
647.83,58.0
647.89,69.0
647.95,67.0
648.02,58.0
648.08,76.0
648.14,83.0
648.21,75.0
648.27,86.0
648.33,70.0
648.4,64.0
648.46,77.0
648.52,77.0
648.58,92.0
648.65,112.0
648.71,110.0
648.77,112.0
648.84,121.0
648.9,112.0
648.96,105.0
649.03,115.0
649.09,123.0
649.15,125.0
649.21,124.0
649.28,145.0
649.34,139.0
649.4,127.0
649.47,133.0
649.53,134.0
649.59,150.0
649.66,123.0
649.72,131.0
649.78,143.0
649.84,147.0
649.91,152.0
649.97,153.0
650.03,157.0
650.1,148.0
650.16,171.0
650.22,161.0
650.29,147.0
650.35,176.0
650.41,155.0
650.47,160.0
650.54,179.0
650.6,182.0
650.66,187.0
650.73,163.0
650.79,181.0
650.85,183.0
650.92,188.0
650.98,181.0
651.04,189.0
651.1,190.0
651.17,177.0
651.23,172.0
651.29,174.0
651.36,169.0
651.42,136.0
651.48,149.0
651.55,164.0
651.61,155.0
651.67,165.0
651.73,177.0
651.8,156.0
651.86,162.0
651.92,173.0
651.99,163.0
652.05,154.0
652.11,161.0
652.18,163.0
652.24,157.0
652.3,157.0
652.36,140.0
652.43,161.0
652.49,176.0
652.55,153.0
652.62,143.0
652.68,138.0
652.74,143.0
652.81,142.0
652.87,149.0
652.93,146.0
652.99,149.0
653.06,127.0
653.12,141.0
653.18,138.0
653.25,138.0
653.31,147.0
653.37,142.0
653.44,128.0
653.5,142.0
653.56,138.0
653.62,130.0
653.69,133.0
653.75,129.0
653.81,153.0
653.88,120.0
653.94,128.0
654.0,127.0
654.07,120.0
654.13,118.0
654.19,135.0
654.25,124.0
654.32,129.0
654.38,117.0
654.44,113.0
654.51,111.0
654.57,90.0
654.63,101.0
654.7,107.0
654.76,131.0
654.82,125.0
654.88,111.0
654.95,103.0
655.01,101.0
655.07,107.0
655.14,98.0
655.2,117.0
655.26,127.0
655.33,116.0
655.39,107.0
655.45,128.0
655.51,127.0
655.58,126.0
655.64,105.0
655.7,99.0
655.77,105.0
655.83,115.0
655.89,116.0
655.96,108.0
656.02,123.0
656.08,112.0
656.14,97.0
656.21,78.0
656.27,111.0
656.33,107.0
656.4,93.0
656.46,87.0
656.52,103.0
656.59,102.0
656.65,102.0
656.71,95.0
656.77,122.0
656.84,116.0
656.9,86.0
656.96,106.0
657.03,125.0
657.09,138.0
657.15,123.0
657.22,114.0
657.28,139.0
657.34,116.0
657.4,134.0
657.47,138.0
657.53,135.0
657.59,120.0
657.66,123.0
657.72,144.0
657.78,148.0
657.85,146.0
657.91,138.0
657.97,136.0
658.03,146.0
658.1,156.0
658.16,161.0
658.22,177.0
658.29,159.0
658.35,164.0
658.41,186.0
658.48,163.0
658.54,156.0
658.6,158.0
658.66,161.0
658.73,151.0
658.79,161.0
658.85,147.0
658.92,141.0
658.98,131.0
659.04,127.0
659.11,138.0
659.17,119.0
659.23,133.0
659.29,123.0
659.36,132.0
659.42,123.0
659.48,108.0
659.55,120.0
659.61,141.0
659.67,146.0
659.74,130.0
659.8,127.0
659.86,123.0
659.92,130.0
659.99,108.0
660.05,114.0
660.11,127.0
660.18,132.0
660.24,142.0
660.3,114.0
660.37,110.0
660.43,120.0
660.49,112.0
660.55,105.0
660.62,112.0
660.68,110.0
660.74,102.0
660.81,104.0
660.87,116.0
660.93,100.0
661.0,95.0
661.06,89.0
661.12,95.0
661.18,83.0
661.25,67.0
661.31,74.0
661.37,67.0
661.44,65.0
661.5,66.0
661.56,51.0
661.63,35.0
661.69,55.0
661.75,62.0
661.81,48.0
661.88,53.0
661.94,50.0
662.0,65.0
662.07,78.0
662.13,54.0
662.19,64.0
662.26,69.0
662.32,62.0
662.38,46.0
662.44,69.0
662.51,70.0
662.57,73.0
662.63,79.0
662.7,94.0
662.76,87.0
662.82,61.0
662.89,68.0
662.95,59.0
663.01,67.0
663.07,78.0
663.14,77.0
663.2,78.0
663.26,68.0
663.33,82.0
663.39,80.0
663.45,76.0
663.52,95.0
663.58,64.0
663.64,72.0
663.7,80.0
663.77,71.0
663.83,59.0
663.89,66.0
663.96,69.0
664.02,71.0
664.08,76.0
664.15,70.0
664.21,51.0
664.27,31.0
664.33,63.0
664.4,72.0
664.46,69.0
664.52,59.0
664.59,75.0
664.65,72.0
664.71,70.0
664.78,58.0
664.84,66.0
664.9,102.0
664.96,79.0
665.03,64.0
665.09,51.0
665.15,57.0
665.22,68.0
665.28,79.0
665.34,106.0
665.41,98.0
665.47,109.0
665.53,95.0
665.59,99.0
665.66,76.0
665.72,101.0
665.78,100.0
665.85,103.0
665.91,107.0
665.97,116.0
666.04,120.0
666.1,120.0
666.16,132.0
666.22,114.0
666.29,127.0
666.35,127.0
666.41,139.0
666.48,134.0
666.54,137.0
666.6,134.0
666.67,144.0
666.73,130.0
666.79,161.0
666.85,152.0
666.92,146.0
666.98,136.0
667.04,141.0
667.11,147.0
667.17,150.0
667.23,157.0
667.3,158.0
667.36,140.0
667.42,135.0
667.48,156.0
667.55,149.0
667.61,155.0
667.67,166.0
667.74,161.0
667.8,158.0
667.86,149.0
667.93,156.0
667.99,159.0
668.05,154.0
668.11,159.0
668.18,160.0
668.24,145.0
668.3,133.0
668.37,142.0
668.43,166.0
668.49,164.0
668.56,158.0
668.62,163.0
668.68,155.0
668.74,161.0
668.81,150.0
668.87,142.0
668.93,136.0
669.0,152.0
669.06,119.0
669.12,139.0
669.19,141.0
669.25,141.0
669.31,135.0
669.37,118.0
669.44,127.0
669.5,116.0
669.56,128.0
669.63,125.0
669.69,134.0
669.75,155.0
669.82,149.0
669.88,131.0
669.94,138.0
670.0,140.0
670.07,130.0
670.13,157.0
670.19,138.0
670.26,133.0
670.32,145.0
670.38,122.0
670.45,111.0
670.51,126.0
670.57,138.0
670.63,136.0
670.7,120.0
670.76,103.0
670.82,103.0
670.89,128.0
670.95,134.0
671.01,120.0
671.08,123.0
671.14,146.0
671.2,138.0
671.26,119.0
671.33,106.0
671.39,126.0
671.45,124.0
671.52,125.0
671.58,118.0
671.64,147.0
671.71,132.0
671.77,133.0
671.83,142.0
671.89,132.0
671.96,121.0
672.02,133.0
672.08,121.0
672.15,125.0
672.21,104.0
672.27,108.0
672.34,109.0
672.4,108.0
672.46,116.0
672.52,123.0
672.59,125.0
672.65,124.0
672.71,146.0
672.78,139.0
672.84,137.0
672.9,144.0
672.97,147.0
673.03,152.0
673.09,142.0
673.15,122.0
673.22,142.0
673.28,153.0
673.34,158.0
673.41,164.0
673.47,167.0
673.53,175.0
673.6,165.0
673.66,135.0
673.72,131.0
673.78,139.0
673.85,114.0
673.91,111.0
673.97,116.0
674.04,107.0
674.1,144.0
674.16,141.0
674.23,131.0
674.29,126.0
674.35,141.0
674.41,147.0
674.48,123.0
674.54,144.0
674.6,152.0
674.67,139.0
674.73,142.0
674.79,147.0
674.86,140.0
674.92,146.0
674.98,163.0
675.04,186.0
675.11,167.0
675.17,165.0
675.23,164.0
675.3,167.0
675.36,172.0
675.42,181.0
675.49,176.0
675.55,174.0
675.61,174.0
675.67,177.0
675.74,166.0
675.8,174.0
675.86,157.0
675.93,163.0
675.99,170.0
676.05,163.0
676.12,177.0
676.18,182.0
676.24,153.0
676.3,178.0
676.37,163.0
676.43,147.0
676.49,151.0
676.56,161.0
676.62,165.0
676.68,167.0
676.75,171.0
676.81,155.0
676.87,172.0
676.93,164.0
677.0,163.0
677.06,172.0
677.12,173.0
677.19,170.0
677.25,175.0
677.31,158.0
677.38,165.0
677.44,164.0
677.5,176.0
677.56,195.0
677.63,182.0
677.69,165.0
677.75,181.0
677.82,175.0
677.88,156.0
677.94,155.0
678.01,179.0
678.07,178.0
678.13,190.0
678.19,178.0
678.26,166.0
678.32,163.0
678.38,188.0
678.45,193.0
678.51,199.0
678.57,179.0
678.64,189.0
678.7,183.0
678.76,200.0
678.82,199.0
678.89,188.0
678.95,204.0
679.01,181.0
679.08,179.0
679.14,179.0
679.2,178.0
679.27,201.0
679.33,190.0
679.39,172.0
679.45,163.0
679.52,155.0
679.58,162.0
679.64,144.0
679.71,150.0
679.77,185.0
679.83,161.0
679.9,159.0
679.96,182.0
680.02,178.0
680.08,176.0
680.15,174.0
680.21,171.0
680.27,177.0
680.34,186.0
680.4,181.0
680.46,188.0
680.53,202.0
680.59,211.0
680.65,196.0
680.71,215.0
680.78,214.0
680.84,227.0
680.9,238.0
680.97,218.0
681.03,223.0
681.09,232.0
681.16,229.0
681.22,226.0
681.28,222.0
681.34,229.0
681.41,208.0
681.47,213.0
681.53,202.0
681.6,208.0
681.66,190.0
681.72,185.0
681.79,186.0
681.85,190.0
681.91,196.0
681.97,187.0
682.04,204.0
682.1,208.0
682.16,193.0
682.23,191.0
682.29,189.0
682.35,190.0
682.42,188.0
682.48,170.0
682.54,164.0
682.6,179.0
682.67,168.0
682.73,169.0
682.79,163.0
682.86,138.0
682.92,153.0
682.98,155.0
683.05,157.0
683.11,181.0
683.17,163.0
683.23,183.0
683.3,182.0
683.36,163.0
683.42,155.0
683.49,170.0
683.55,167.0
683.61,162.0
683.68,150.0
683.74,157.0
683.8,163.0
683.86,150.0
683.93,160.0
683.99,174.0
684.05,171.0
684.12,171.0
684.18,164.0
684.24,157.0
684.31,142.0
684.37,143.0
684.43,145.0
684.49,163.0
684.56,164.0
684.62,158.0
684.68,155.0
684.75,155.0
684.81,150.0
684.87,155.0
684.94,146.0
685.0,142.0
685.06,142.0
685.12,141.0
685.19,140.0
685.25,118.0
685.31,125.0
685.38,132.0
685.44,126.0
685.5,128.0
685.57,126.0
685.63,115.0
685.69,109.0
685.75,105.0
685.82,111.0
685.88,111.0
685.94,88.0
686.01,103.0
686.07,76.0
686.13,64.0
686.2,83.0
686.26,102.0
686.32,103.0
686.38,106.0
686.45,114.0
686.51,103.0
686.57,98.0
686.64,101.0
686.7,116.0
686.76,113.0
686.83,88.0
686.89,103.0
686.95,89.0
687.01,74.0
687.08,88.0
687.14,91.0
687.2,98.0
687.27,92.0
687.33,91.0
687.39,99.0
687.46,80.0
687.52,94.0
687.58,76.0
687.64,94.0
687.71,87.0
687.77,65.0
687.83,84.0
687.9,76.0
687.96,72.0
688.02,78.0
688.09,82.0
688.15,63.0
688.21,67.0
688.27,74.0
688.34,62.0
688.4,88.0
688.46,67.0
688.53,64.0
688.59,83.0
688.65,68.0
688.72,75.0
688.78,94.0
688.84,90.0
688.9,107.0
688.97,105.0
689.03,98.0
689.09,111.0
689.16,89.0
689.22,120.0
689.28,108.0
689.35,108.0
689.41,101.0
689.47,111.0
689.53,107.0
689.6,100.0
689.66,123.0
689.72,126.0
689.79,107.0
689.85,102.0
689.91,119.0
689.98,95.0
690.04,107.0
690.1,120.0
690.16,119.0
690.23,119.0
690.29,115.0
690.35,120.0
690.42,122.0
690.48,119.0
690.54,120.0
690.61,105.0
690.67,116.0
690.73,113.0
690.79,105.0
690.86,100.0
690.92,58.0
690.98,56.0
691.05,77.0
691.11,72.0
691.17,65.0
691.24,72.0
691.3,89.0
691.36,67.0
691.42,81.0
691.49,93.0
691.55,90.0
691.61,83.0
691.68,86.0
691.74,103.0
691.8,92.0
691.87,107.0
691.93,100.0
691.99,89.0
692.05,87.0
692.12,94.0
692.18,101.0
692.24,108.0
692.31,117.0
692.37,121.0
692.43,112.0
692.5,139.0
692.56,110.0
692.62,113.0
692.68,104.0
692.75,124.0
692.81,105.0
692.87,116.0
692.94,117.0
693.0,119.0
693.06,105.0
693.13,94.0
693.19,120.0
693.25,90.0
693.31,74.0
693.38,73.0
693.44,78.0
693.5,61.0
693.57,73.0
693.63,53.0
693.69,54.0
693.76,64.0
693.82,50.0
693.88,54.0
693.94,54.0
694.01,74.0
694.07,60.0
694.13,78.0
694.2,63.0
694.26,64.0
694.32,64.0
694.39,54.0
694.45,54.0
694.51,49.0
694.57,49.0
694.64,43.0
694.7,45.0
694.76,54.0
694.83,26.0
694.89,43.0
694.95,37.0
695.02,21.0
695.08,48.0
695.14,42.0
695.2,19.0
695.27,16.0
695.33,14.0
695.39,35.0
695.46,40.0
695.52,30.0
695.58,20.0
695.65,22.0
695.71,48.0
695.77,48.0
695.83,29.0
695.9,32.0
695.96,34.0
696.02,33.0
696.09,61.0
696.15,61.0
696.21,72.0
696.28,83.0
696.34,80.0
696.4,64.0
696.46,87.0
696.53,92.0
696.59,71.0
696.65,70.0
696.72,92.0
696.78,102.0
696.84,135.0
696.91,106.0
696.97,98.0
697.03,107.0
697.09,91.0
697.16,98.0
697.22,87.0
697.28,58.0
697.35,82.0
697.41,88.0
697.47,111.0
697.54,99.0
697.6,91.0
697.66,97.0
697.72,98.0
697.79,103.0
697.85,117.0
697.91,122.0
697.98,132.0
698.04,132.0
698.1,128.0
698.17,126.0
698.23,132.0
698.29,131.0
698.35,136.0
698.42,168.0
698.48,150.0
698.54,141.0
698.61,150.0
698.67,142.0
698.73,160.0
698.8,150.0
698.86,138.0
698.92,133.0
698.98,129.0
699.05,142.0
699.11,134.0
699.17,154.0
699.24,145.0
699.3,136.0
699.36,163.0
699.43,146.0
699.49,164.0
699.55,193.0
699.61,166.0
699.68,164.0
699.74,161.0
699.8,169.0
699.87,182.0
699.93,165.0
699.99,160.0
700.06,169.0
700.12,152.0
700.18,173.0
700.24,167.0
700.31,161.0
700.37,160.0
700.43,176.0
700.5,185.0
700.56,162.0
700.62,178.0
700.69,178.0
700.75,182.0
700.81,197.0
700.87,174.0
700.94,190.0
701.0,172.0
701.06,189.0
701.13,182.0
701.19,185.0
701.25,193.0
701.32,173.0
701.38,171.0
701.44,170.0
701.5,170.0
701.57,169.0
701.63,169.0
701.69,156.0
701.76,142.0
701.82,170.0
701.88,150.0
701.95,133.0
702.01,155.0
702.07,137.0
702.13,160.0
702.2,151.0
702.26,157.0
702.32,168.0
702.39,137.0
702.45,162.0
702.51,156.0
702.58,151.0
702.64,165.0
702.7,155.0
702.76,149.0
702.83,145.0
702.89,148.0
702.95,149.0
703.02,134.0
703.08,151.0
703.14,155.0
703.21,168.0
703.27,161.0
703.33,169.0
703.39,169.0
703.46,148.0
703.52,153.0
703.58,149.0
703.65,153.0
703.71,152.0
703.77,127.0
703.84,137.0
703.9,138.0
703.96,153.0
704.02,147.0
704.09,134.0
704.15,116.0
704.21,120.0
704.28,109.0
704.34,123.0
704.4,132.0
704.47,138.0
704.53,122.0
704.59,105.0
704.65,115.0
704.72,109.0
704.78,121.0
704.84,120.0
704.91,115.0
704.97,130.0
705.03,129.0
705.1,119.0
705.16,137.0
705.22,146.0
705.28,148.0
705.35,145.0
705.41,125.0
705.47,134.0
705.54,139.0
705.6,137.0
705.66,149.0
705.73,143.0
705.79,141.0
705.85,126.0
705.91,128.0
705.98,138.0
706.04,123.0
706.1,138.0
706.17,144.0
706.23,129.0
706.29,138.0
706.36,121.0
706.42,116.0
706.48,130.0
706.54,142.0
706.61,125.0
706.67,133.0
706.73,146.0
706.8,138.0
706.86,139.0
706.92,145.0
706.99,179.0
707.05,159.0
707.11,160.0
707.17,189.0
707.24,175.0
707.3,188.0
707.36,185.0
707.43,186.0
707.49,193.0
707.55,187.0
707.62,183.0
707.68,168.0
707.74,193.0
707.8,175.0
707.87,187.0
707.93,200.0
707.99,202.0
708.06,184.0
708.12,180.0
708.18,207.0
708.25,194.0
708.31,195.0
708.37,188.0
708.43,197.0
708.5,200.0
708.56,192.0
708.62,211.0
708.69,208.0
708.75,225.0
708.81,228.0
708.88,223.0
708.94,196.0
709.0,207.0
709.06,206.0
709.13,208.0
709.19,186.0
709.25,168.0
709.32,179.0
709.38,193.0
709.44,193.0
709.51,190.0
709.57,201.0
709.63,184.0
709.69,180.0
709.76,197.0
709.82,204.0
709.88,193.0
709.95,182.0
710.01,181.0
710.07,188.0
710.14,189.0
710.2,173.0
710.26,177.0
710.32,187.0
710.39,164.0
710.45,162.0
710.51,162.0
710.58,146.0
710.64,148.0
710.7,137.0
710.77,121.0
710.83,138.0
710.89,143.0
710.95,144.0
711.02,138.0
711.08,127.0
711.14,129.0
711.21,145.0
711.27,123.0
711.33,135.0
711.4,130.0
711.46,142.0
711.52,114.0
711.58,111.0
711.65,123.0
711.71,106.0
711.77,98.0
711.84,98.0
711.9,95.0
711.96,102.0
712.03,120.0
712.09,89.0
712.15,96.0
712.21,93.0
712.28,90.0
712.34,72.0
712.4,88.0
712.47,89.0
712.53,76.0
712.59,78.0
712.66,72.0
712.72,77.0
712.78,84.0
712.84,94.0
712.91,95.0
712.97,94.0
713.03,78.0
713.1,70.0
713.16,73.0
713.22,67.0
713.29,60.0
713.35,62.0
713.41,94.0
713.47,83.0
713.54,62.0
713.6,61.0
713.66,79.0
713.73,83.0
713.79,81.0
713.85,91.0
713.92,90.0
713.98,84.0
714.04,83.0
714.1,99.0
714.17,69.0
714.23,74.0
714.29,80.0
714.36,64.0
714.42,49.0
714.48,51.0
714.55,64.0
714.61,50.0
714.67,62.0
714.73,64.0
714.8,59.0
714.86,61.0
714.92,78.0
714.99,62.0
715.05,87.0
715.11,64.0
715.18,53.0
715.24,80.0
715.3,64.0
715.36,69.0
715.43,96.0
715.49,104.0
715.55,86.0
715.62,76.0
715.68,87.0
715.74,76.0
715.81,75.0
715.87,77.0
715.93,73.0
715.99,79.0
716.06,58.0
716.12,56.0
716.18,50.0
716.25,86.0
716.31,76.0
716.37,83.0
716.44,98.0
716.5,80.0
716.56,56.0
716.62,84.0
716.69,76.0
716.75,80.0
716.81,69.0
716.88,70.0
716.94,82.0
717.0,81.0
717.07,97.0
717.13,89.0
717.19,86.0
717.25,83.0
717.32,78.0
717.38,100.0
717.44,95.0
717.51,81.0
717.57,91.0
717.63,83.0
717.7,91.0
717.76,98.0
717.82,83.0
717.88,88.0
717.95,105.0
718.01,95.0
718.07,92.0
718.14,92.0
718.2,96.0
718.26,95.0
718.33,73.0
718.39,77.0
718.45,72.0
718.51,80.0
718.58,75.0
718.64,58.0
718.7,76.0
718.77,67.0
718.83,56.0
718.89,54.0
718.96,80.0
719.02,68.0
719.08,39.0
719.14,58.0
719.21,62.0
719.27,37.0
719.33,37.0
719.4,46.0
719.46,75.0
719.52,48.0
719.59,52.0
719.65,65.0
719.71,95.0
719.77,87.0
719.84,76.0
719.9,62.0
719.96,61.0
720.03,48.0
720.09,70.0
720.15,64.0
720.22,50.0
720.28,41.0
720.34,43.0
720.4,51.0
720.47,49.0
720.53,59.0
720.59,26.0
720.66,38.0
720.72,47.0
720.78,29.0
720.85,30.0
720.91,27.0
720.97,29.0
721.03,45.0
721.1,32.0
721.16,36.0
721.22,37.0
721.29,60.0
721.35,49.0
721.41,32.0
721.48,36.0
721.54,37.0
721.6,45.0
721.66,51.0
721.73,50.0
721.79,30.0
721.85,29.0
721.92,24.0
721.98,45.0
722.04,47.0
722.11,47.0
722.17,54.0
722.23,68.0
722.29,77.0
722.36,80.0
722.42,85.0
722.48,78.0
722.55,65.0
722.61,69.0
722.67,94.0
722.74,83.0
722.8,97.0
722.86,84.0
722.92,86.0
722.99,103.0
723.05,105.0
723.11,96.0
723.18,97.0
723.24,97.0
723.3,95.0
723.37,89.0
723.43,84.0
723.49,133.0
723.55,140.0
723.62,120.0
723.68,141.0
723.74,146.0
723.81,156.0
723.87,128.0
723.93,145.0
724.0,153.0
724.06,155.0
724.12,163.0
724.18,168.0
724.25,170.0
724.31,147.0
724.37,128.0
724.44,135.0
724.5,157.0
724.56,152.0
724.63,122.0
724.69,145.0
724.75,149.0
724.81,157.0
724.88,176.0
724.94,180.0
725.0,167.0
725.07,175.0
725.13,194.0
725.19,203.0
725.26,183.0
725.32,186.0
725.38,189.0
725.44,180.0
725.51,193.0
725.57,196.0
725.63,206.0
725.7,191.0
725.76,204.0
725.82,224.0
725.89,223.0
725.95,221.0
726.01,226.0
726.07,211.0
726.14,226.0
726.2,208.0
726.26,241.0
726.33,252.0
726.39,229.0
726.45,222.0
726.52,207.0
726.58,229.0
726.64,225.0
726.7,222.0
726.77,214.0
726.83,196.0
726.89,200.0
726.96,194.0
727.02,210.0
727.08,210.0
727.15,197.0
727.21,200.0
727.27,190.0
727.33,183.0
727.4,188.0
727.46,188.0
727.52,214.0
727.59,205.0
727.65,170.0
727.71,181.0
727.78,194.0
727.84,175.0
727.9,178.0
727.96,153.0
728.03,163.0
728.09,165.0
728.15,178.0
728.22,177.0
728.28,191.0
728.34,185.0
728.41,175.0
728.47,178.0
728.53,200.0
728.59,200.0
728.66,185.0
728.72,219.0
728.78,200.0
728.85,233.0
728.91,221.0
728.97,212.0
729.04,237.0
729.1,226.0
729.16,202.0
729.22,208.0
729.29,216.0
729.35,228.0
729.41,211.0
729.48,218.0
729.54,192.0
729.6,193.0
729.67,200.0
729.73,213.0
729.79,204.0
729.85,211.0
729.92,205.0
729.98,189.0
730.04,194.0
730.11,192.0
730.17,204.0
730.23,191.0
730.3,213.0
730.36,213.0
730.42,197.0
730.48,215.0
730.55,210.0
730.61,197.0
730.67,220.0
730.74,219.0
730.8,215.0
730.86,190.0
730.93,222.0
730.99,216.0
731.05,203.0
731.11,209.0
731.18,216.0
731.24,219.0
731.3,204.0
731.37,200.0
731.43,199.0
731.49,215.0
731.56,197.0
731.62,199.0
731.68,227.0
731.74,226.0
731.81,219.0
731.87,221.0
731.93,214.0
732.0,223.0
732.06,215.0
732.12,208.0
732.19,206.0
732.25,222.0
732.31,212.0
732.37,216.0
732.44,241.0
732.5,219.0
732.56,210.0
732.63,211.0
732.69,239.0
732.75,222.0
732.82,229.0
732.88,229.0
732.94,210.0
733.0,219.0
733.07,227.0
733.13,217.0
733.19,209.0
733.26,204.0
733.32,197.0
733.38,221.0
733.45,205.0
733.51,191.0
733.57,193.0
733.63,204.0
733.7,200.0
733.76,201.0
733.82,201.0
733.89,215.0
733.95,238.0
734.01,215.0
734.08,203.0
734.14,213.0
734.2,198.0
734.26,213.0
734.33,201.0
734.39,189.0
734.45,199.0
734.52,188.0
734.58,200.0
734.64,196.0
734.71,197.0
734.77,209.0
734.83,191.0
734.89,197.0
734.96,205.0
735.02,193.0
735.08,175.0
735.15,175.0
735.21,187.0
735.27,200.0
735.34,191.0
735.4,197.0
735.46,184.0
735.52,186.0
735.59,174.0
735.65,178.0
735.71,180.0
735.78,160.0
735.84,164.0
735.9,153.0
735.97,165.0
736.03,163.0
736.09,163.0
736.15,153.0
736.22,142.0
736.28,152.0
736.34,153.0
736.41,127.0
736.47,143.0
736.53,142.0
736.6,131.0
736.66,139.0
736.72,138.0
736.78,139.0
736.85,144.0
736.91,138.0
736.97,125.0
737.04,104.0
737.1,124.0
737.16,120.0
737.23,126.0
737.29,114.0
737.35,112.0
737.41,119.0
737.48,111.0
737.54,114.0
737.6,120.0
737.67,122.0
737.73,149.0
737.79,121.0
737.86,134.0
737.92,145.0
737.98,136.0
738.04,158.0
738.11,150.0
738.17,142.0
738.23,98.0
738.3,107.0
738.36,136.0
738.42,118.0
738.49,140.0
738.55,140.0
738.61,117.0
738.67,134.0
738.74,132.0
738.8,134.0
738.86,129.0
738.93,134.0
738.99,153.0
739.05,138.0
739.12,142.0
739.18,141.0
739.24,128.0
739.3,135.0
739.37,156.0
739.43,169.0
739.49,142.0
739.56,144.0
739.62,166.0
739.68,140.0
739.75,141.0
739.81,158.0
739.87,152.0
739.93,136.0
740.0,136.0
740.06,141.0
740.12,165.0
740.19,161.0
740.25,166.0
740.31,173.0
740.38,177.0
740.44,163.0
740.5,169.0
740.56,190.0
740.63,174.0
740.69,182.0
740.75,201.0
740.82,188.0
740.88,172.0
740.94,183.0
741.01,190.0
741.07,178.0
741.13,155.0
741.19,166.0
741.26,175.0
741.32,158.0
741.38,154.0
741.45,162.0
741.51,143.0
741.57,147.0
741.64,139.0
741.7,138.0
741.76,154.0
741.82,158.0
741.89,144.0
741.95,161.0
742.01,173.0
742.08,142.0
742.14,145.0
742.2,147.0
742.27,133.0
742.33,135.0
742.39,150.0
742.45,153.0
742.52,148.0
742.58,153.0
742.64,141.0
742.71,144.0
742.77,138.0
742.83,131.0
742.9,152.0
742.96,145.0
743.02,158.0
743.08,155.0
743.15,150.0
743.21,142.0
743.27,135.0
743.34,138.0
743.4,143.0
743.46,120.0
743.53,115.0
743.59,138.0
743.65,130.0
743.71,111.0
743.78,121.0
743.84,107.0
743.9,97.0
743.97,100.0
744.03,94.0
744.09,93.0
744.16,81.0
744.22,80.0
744.28,76.0
744.34,75.0
744.41,77.0
744.47,61.0
744.53,71.0
744.6,72.0
744.66,65.0
744.72,87.0
744.79,70.0
744.85,83.0
744.91,85.0
744.97,70.0
745.04,69.0
745.1,60.0
745.16,61.0
745.23,65.0
745.29,75.0
745.35,58.0
745.42,42.0
745.48,50.0
745.54,68.0
745.6,62.0
745.67,40.0
745.73,48.0
745.79,46.0
745.86,29.0
745.92,28.0
745.98,30.0
746.05,41.0
746.11,56.0
746.17,34.0
746.23,15.0
746.3,13.0
746.36,23.0
746.42,18.0
746.49,15.0
746.55,23.0
746.61,17.0
746.68,23.0
746.74,27.0
746.8,15.0
746.86,24.0
746.93,30.0
746.99,-3.0
747.05,10.0
747.12,21.0
747.18,9.0
747.24,26.0
747.31,24.0
747.37,15.0
747.43,44.0
747.49,19.0
747.56,28.0
747.62,54.0
747.68,62.0
747.75,54.0
747.81,48.0
747.87,63.0
747.94,69.0
748.0,78.0
748.06,85.0
748.12,80.0
748.19,86.0
748.25,87.0
748.31,78.0
748.38,87.0
748.44,103.0
748.5,108.0
748.57,94.0
748.63,84.0
748.69,101.0
748.75,103.0
748.82,104.0
748.88,123.0
748.94,116.0
749.01,119.0
749.07,110.0
749.13,117.0
749.2,112.0
749.26,114.0
749.32,114.0
749.38,128.0
749.45,135.0
749.51,140.0
749.57,119.0
749.64,130.0
749.7,119.0
749.76,119.0
749.83,126.0
749.89,160.0
749.95,146.0
750.01,119.0
750.08,115.0
750.14,122.0
750.2,121.0
750.27,112.0
750.33,118.0
750.39,131.0
750.46,143.0
750.52,138.0
750.58,141.0
750.64,146.0
750.71,166.0
750.77,191.0
750.83,164.0
750.9,155.0
750.96,167.0
751.02,167.0
751.09,155.0
751.15,167.0
751.21,156.0
751.27,163.0
751.34,171.0
751.4,145.0
751.46,156.0
751.53,181.0
751.59,167.0
751.65,195.0
751.72,174.0
751.78,170.0
751.84,183.0
751.9,167.0
751.97,182.0
752.03,156.0
752.09,175.0
752.16,180.0
752.22,178.0
752.28,185.0
752.35,182.0
752.41,191.0
752.47,178.0
752.53,194.0
752.6,186.0
752.66,161.0
752.72,163.0
752.79,180.0
752.85,181.0
752.91,200.0
752.98,192.0
753.04,189.0
753.1,191.0
753.16,195.0
753.23,194.0
753.29,209.0
753.35,210.0
753.42,221.0
753.48,211.0
753.54,231.0
753.61,216.0
753.67,216.0
753.73,206.0
753.79,213.0
753.86,185.0
753.92,204.0
753.98,198.0
754.05,215.0
754.11,208.0
754.17,208.0
754.24,229.0
754.3,214.0
754.36,216.0
754.42,227.0
754.49,222.0
754.55,213.0
754.61,216.0
754.68,209.0
754.74,222.0
754.8,217.0
754.87,200.0
754.93,207.0
754.99,196.0
755.05,199.0
755.12,209.0
755.18,188.0
755.24,186.0
755.31,202.0
755.37,188.0
755.43,191.0
755.5,202.0
755.56,231.0
755.62,230.0
755.68,222.0
755.75,222.0
755.81,220.0
755.87,224.0
755.94,243.0
756.0,233.0
756.06,223.0
756.13,233.0
756.19,240.0
756.25,215.0
756.31,229.0
756.38,228.0
756.44,230.0
756.5,224.0
756.57,241.0
756.63,246.0
756.69,240.0
756.76,242.0
756.82,252.0
756.88,236.0
756.94,248.0
757.01,262.0
757.07,241.0
757.13,251.0
757.2,251.0
757.26,255.0
757.32,215.0
757.39,251.0
757.45,260.0
757.51,248.0
757.57,246.0
757.64,226.0
757.7,227.0
757.76,248.0
757.83,235.0
757.89,250.0
757.95,255.0
758.02,243.0
758.08,249.0
758.14,240.0
758.2,219.0
758.27,223.0
758.33,238.0
758.39,224.0
758.46,244.0
758.52,244.0
758.58,229.0
758.65,242.0
758.71,252.0
758.77,246.0
758.83,254.0
758.9,268.0
758.96,257.0
759.02,255.0
759.09,252.0
759.15,272.0
759.21,266.0
759.28,259.0
759.34,263.0
759.4,278.0
759.46,263.0
759.53,273.0
759.59,241.0
759.65,241.0
759.72,251.0
759.78,269.0
759.84,263.0
759.91,266.0
759.97,252.0
760.03,244.0
760.09,259.0
760.16,254.0
760.22,267.0
760.28,273.0
760.35,255.0
760.41,258.0
760.47,247.0
760.54,251.0
760.6,256.0
760.66,237.0
760.72,238.0
760.79,245.0
760.85,231.0
760.91,224.0
760.98,223.0
761.04,195.0
761.1,193.0
761.17,192.0
761.23,206.0
761.29,210.0
761.35,181.0
761.42,188.0
761.48,188.0
761.54,196.0
761.61,172.0
761.67,169.0
761.73,169.0
761.8,179.0
761.86,178.0
761.92,177.0
761.98,193.0
762.05,193.0
762.11,192.0
762.17,163.0
762.24,167.0
762.3,158.0
762.36,145.0
762.43,136.0
762.49,119.0
762.55,139.0
762.61,133.0
762.68,120.0
762.74,128.0
762.8,130.0
762.87,129.0
762.93,130.0
762.99,163.0
763.06,127.0
763.12,126.0
763.18,99.0
763.24,136.0
763.31,141.0
763.37,141.0
763.43,126.0
763.5,137.0
763.56,144.0
763.62,122.0
763.69,119.0
763.75,121.0
763.81,126.0
763.87,119.0
763.94,121.0
764.0,119.0
764.06,126.0
764.13,135.0
764.19,152.0
764.25,133.0
764.32,118.0
764.38,134.0
764.44,120.0
764.5,112.0
764.57,111.0
764.63,90.0
764.69,112.0
764.76,124.0
764.82,103.0
764.88,121.0
764.95,107.0
765.01,126.0
765.07,103.0
765.13,102.0
765.2,101.0
765.26,119.0
765.32,116.0
765.39,102.0
765.45,99.0
765.51,113.0
765.58,110.0
765.64,105.0
765.7,104.0
765.76,95.0
765.83,91.0
765.89,108.0
765.95,91.0
766.02,98.0
766.08,105.0
766.14,122.0
766.21,105.0
766.27,119.0
766.33,112.0
766.39,108.0
766.46,99.0
766.52,81.0
766.58,100.0
766.65,83.0
766.71,95.0
766.77,92.0
766.84,75.0
766.9,108.0
766.96,112.0
767.02,100.0
767.09,100.0
767.15,90.0
767.21,90.0
767.28,90.0
767.34,89.0
767.4,108.0
767.47,100.0
767.53,97.0
767.59,109.0
767.65,94.0
767.72,99.0
767.78,121.0
767.84,95.0
767.91,100.0
767.97,86.0
768.03,84.0
768.1,94.0
768.16,112.0
768.22,108.0
768.28,102.0
768.35,120.0
768.41,118.0
768.47,109.0
768.54,128.0
768.6,100.0
768.66,117.0
768.73,134.0
768.79,99.0
768.85,110.0
768.91,99.0
768.98,88.0
769.04,92.0
769.1,85.0
769.17,71.0
769.23,69.0
769.29,64.0
769.36,39.0
769.42,63.0
769.48,78.0
769.54,80.0
769.61,78.0
769.67,65.0
769.73,92.0
769.8,74.0
769.86,73.0
769.92,80.0
769.99,67.0
770.05,70.0
770.11,46.0
770.17,39.0
770.24,53.0
770.3,61.0
770.36,51.0
770.43,62.0
770.49,57.0
770.55,53.0
770.62,65.0
770.68,72.0
770.74,65.0
770.8,64.0
770.87,60.0
770.93,61.0
770.99,57.0
771.06,53.0
771.12,43.0
771.18,48.0
771.25,56.0
771.31,63.0
771.37,73.0
771.43,50.0
771.5,35.0
771.56,40.0
771.62,52.0
771.69,50.0
771.75,38.0
771.81,49.0
771.88,45.0
771.94,51.0
772.0,53.0
772.06,30.0
772.13,33.0
772.19,46.0
772.25,27.0
772.32,32.0
772.38,25.0
772.44,28.0
772.51,26.0
772.57,26.0
772.63,26.0
772.69,28.0
772.76,28.0
772.82,23.0
772.88,49.0
772.95,46.0
773.01,19.0
773.07,13.0
773.14,27.0
773.2,40.0
773.26,35.0
773.32,24.0
773.39,15.0
773.45,18.0
773.51,42.0
773.58,47.0
773.64,59.0
773.7,62.0
773.77,61.0
773.83,30.0
773.89,54.0
773.95,71.0
774.02,49.0
774.08,65.0
774.14,56.0
774.21,47.0
774.27,45.0
774.33,26.0
774.4,60.0
774.46,66.0
774.52,65.0
774.58,56.0
774.65,65.0
774.71,52.0
774.77,53.0
774.84,78.0
774.9,70.0
774.96,54.0
775.03,54.0
775.09,73.0
775.15,57.0
775.21,71.0
775.28,65.0
775.34,94.0
775.4,104.0
775.47,90.0
775.53,89.0
775.59,71.0
775.66,70.0
775.72,75.0
775.78,80.0
775.84,97.0
775.91,91.0
775.97,87.0
776.03,101.0
776.1,81.0
776.16,68.0
776.22,68.0
776.29,71.0
776.35,57.0
776.41,65.0
776.47,60.0
776.54,49.0
776.6,62.0
776.66,53.0
776.73,71.0
776.79,42.0
776.85,60.0
776.92,63.0
776.98,31.0
777.04,58.0
777.1,42.0
777.17,50.0
777.23,31.0
777.29,53.0
777.36,31.0
777.42,35.0
777.48,37.0
777.55,33.0
777.61,52.0
777.67,58.0
777.73,52.0
777.8,48.0
777.86,39.0
777.92,72.0
777.99,89.0
778.05,83.0
778.11,60.0
778.18,53.0
778.24,87.0
778.3,82.0
778.36,67.0
778.43,74.0
778.49,85.0
778.55,86.0
778.62,76.0
778.68,85.0
778.74,83.0
778.81,74.0
778.87,73.0
778.93,77.0
778.99,82.0
779.06,88.0
779.12,97.0
779.18,123.0
779.25,110.0
779.31,105.0
779.37,115.0
779.44,116.0
779.5,115.0
779.56,108.0
779.62,108.0
779.69,122.0
779.75,123.0
779.81,133.0
779.88,119.0
779.94,117.0
780.0,110.0
780.07,120.0
780.13,119.0
780.19,118.0
780.25,120.0
780.32,118.0
780.38,128.0
780.44,109.0
780.51,104.0
780.57,117.0
780.63,120.0
780.7,119.0
780.76,120.0
780.82,138.0
780.88,127.0
780.95,122.0
781.01,131.0
781.07,121.0
781.14,122.0
781.2,130.0
781.26,145.0
781.33,117.0
781.39,117.0
781.45,136.0
781.51,141.0
781.58,138.0
781.64,131.0
781.7,133.0
781.77,134.0
781.83,123.0
781.89,158.0
781.96,139.0
782.02,153.0
782.08,142.0
782.14,155.0
782.21,170.0
782.27,148.0
782.33,152.0
782.4,153.0
782.46,168.0
782.52,153.0
782.59,147.0
782.65,161.0
782.71,146.0
782.77,164.0
782.84,166.0
782.9,162.0
782.96,155.0
783.03,175.0
783.09,170.0
783.15,162.0
783.22,167.0
783.28,147.0
783.34,155.0
783.4,147.0
783.47,148.0
783.53,138.0
783.59,142.0
783.66,134.0
783.72,148.0
783.78,181.0
783.85,159.0
783.91,180.0
783.97,179.0
784.03,186.0
784.1,156.0
784.16,157.0
784.22,173.0
784.29,179.0
784.35,172.0
784.41,171.0
784.48,159.0
784.54,176.0
784.6,167.0
784.66,179.0
784.73,174.0
784.79,178.0
784.85,174.0
784.92,186.0
784.98,172.0
785.04,169.0
785.11,189.0
785.17,167.0
785.23,160.0
785.29,152.0
785.36,163.0
785.42,152.0
785.48,191.0
785.55,180.0
785.61,198.0
785.67,195.0
785.74,191.0
785.8,200.0
785.86,177.0
785.92,178.0
785.99,187.0
786.05,197.0
786.11,179.0
786.18,181.0
786.24,175.0
786.3,169.0
786.37,190.0
786.43,197.0
786.49,211.0
786.55,193.0
786.62,204.0
786.68,208.0
786.74,199.0
786.81,186.0
786.87,181.0
786.93,200.0
787.0,174.0
787.06,168.0
787.12,161.0
787.18,176.0
787.25,176.0
787.31,157.0
787.37,153.0
787.44,139.0
787.5,138.0
787.56,139.0
787.63,134.0
787.69,147.0
787.75,123.0
787.81,120.0
787.88,136.0
787.94,160.0
788.0,137.0
788.07,133.0
788.13,156.0
788.19,152.0
788.26,158.0
788.32,166.0
788.38,163.0
788.44,163.0
788.51,156.0
788.57,180.0
788.63,178.0
788.7,171.0
788.76,183.0
788.82,187.0
788.89,196.0
788.95,198.0
789.01,192.0
789.07,218.0
789.14,202.0
789.2,195.0
789.26,192.0
789.33,209.0
789.39,216.0
789.45,205.0
789.52,210.0
789.58,222.0
789.64,207.0
789.7,218.0
789.77,230.0
789.83,226.0
789.89,217.0
789.96,210.0
790.02,197.0
790.08,226.0
790.15,203.0
790.21,195.0
790.27,224.0
790.33,230.0
790.4,196.0
790.46,207.0
790.52,214.0
790.59,206.0
790.65,222.0
790.71,200.0
790.78,202.0
790.84,207.0
790.9,200.0
790.96,212.0
791.03,227.0
791.09,205.0
791.15,180.0
791.22,181.0
791.28,191.0
791.34,179.0
791.41,187.0
791.47,181.0
791.53,174.0
791.59,174.0
791.66,171.0
791.72,185.0
791.78,173.0
791.85,185.0
791.91,180.0
791.97,165.0
792.04,175.0
792.1,196.0
792.16,191.0
792.22,196.0
792.29,194.0
792.35,203.0
792.41,185.0
792.48,211.0
792.54,223.0
792.6,199.0
792.67,191.0
792.73,201.0
792.79,197.0
792.85,183.0
792.92,193.0
792.98,183.0
793.04,177.0
793.11,200.0
793.17,194.0
793.23,167.0
793.3,154.0
793.36,151.0
793.42,172.0
793.48,175.0
793.55,161.0
793.61,170.0
793.67,175.0
793.74,152.0
793.8,172.0
793.86,160.0
793.93,159.0
793.99,169.0
794.05,149.0
794.11,145.0
794.18,149.0
794.24,120.0
794.3,122.0
794.37,120.0
794.43,123.0
794.49,133.0
794.56,127.0
794.62,128.0
794.68,150.0
794.74,139.0
794.81,139.0
794.87,99.0
794.93,108.0
795.0,116.0
795.06,104.0
795.12,108.0
795.19,94.0
795.25,98.0
795.31,104.0
795.37,84.0
795.44,90.0
795.5,73.0
795.56,68.0
795.63,94.0
795.69,65.0
795.75,72.0
795.82,57.0
795.88,75.0
795.94,79.0
796.0,59.0
796.07,66.0
796.13,78.0
796.19,60.0
796.26,60.0
796.32,63.0
796.38,57.0
796.45,49.0
796.51,35.0
796.57,42.0
796.63,64.0
796.7,59.0
796.76,62.0
796.82,70.0
796.89,64.0
796.95,60.0
797.01,75.0
797.08,70.0
797.14,64.0
797.2,84.0
797.26,89.0
797.33,83.0
797.39,86.0
797.45,79.0
797.52,76.0
797.58,88.0
797.64,67.0
797.71,101.0
797.77,98.0
797.83,82.0
797.89,100.0
797.96,96.0
798.02,105.0
798.08,96.0
798.15,119.0
798.21,109.0
798.27,115.0
798.34,112.0
798.4,100.0
798.46,90.0
798.52,108.0
798.59,112.0
798.65,104.0
798.71,105.0
798.78,123.0
798.84,137.0
798.9,114.0
798.97,102.0
799.03,81.0
799.09,69.0
799.15,76.0
799.22,75.0
799.28,82.0
799.34,86.0
799.41,80.0
799.47,73.0
799.53,82.0
799.6,93.0
799.66,72.0
799.72,74.0
799.78,83.0
799.85,82.0
799.91,91.0
799.97,75.0
800.04,99.0
800.1,87.0
800.16,96.0
800.23,102.0
800.29,93.0
800.35,94.0
800.41,111.0
800.48,108.0
800.54,101.0
800.6,112.0
800.67,119.0
800.73,108.0
800.79,104.0
800.86,103.0
800.92,110.0
800.98,101.0
801.04,117.0
801.11,114.0
801.17,113.0
801.23,109.0
801.3,122.0
801.36,131.0
801.42,124.0
801.49,123.0
801.55,93.0
801.61,82.0
801.67,105.0
801.74,105.0
801.8,113.0
801.86,113.0
801.93,84.0
801.99,84.0
802.05,106.0
802.12,92.0
802.18,103.0
802.24,101.0
802.3,94.0
802.37,89.0
802.43,92.0
802.49,109.0
802.56,90.0
802.62,78.0
802.68,55.0
802.75,68.0
802.81,73.0
802.87,68.0
802.93,61.0
803.0,60.0
803.06,73.0
803.12,89.0
803.19,92.0
803.25,64.0
803.31,67.0
803.38,66.0
803.44,78.0
803.5,64.0
803.56,51.0
803.63,47.0
803.69,62.0
803.75,58.0
803.82,41.0
803.88,48.0
803.94,42.0
804.01,59.0
804.07,55.0
804.13,53.0
804.19,46.0
804.26,45.0
804.32,52.0
804.38,60.0
804.45,62.0
804.51,38.0
804.57,52.0
804.64,43.0
804.7,52.0
804.76,52.0
804.82,43.0
804.89,51.0
804.95,50.0
805.01,45.0
805.08,55.0
805.14,63.0
805.2,29.0
805.27,28.0
805.33,54.0
805.39,38.0
805.45,21.0
805.52,41.0
805.58,44.0
805.64,43.0
805.71,51.0
805.77,49.0
805.83,53.0
805.9,72.0
805.96,62.0
806.02,71.0
806.08,65.0
806.15,67.0
806.21,69.0
806.27,76.0
806.34,85.0
806.4,91.0
806.46,77.0
806.53,81.0
806.59,90.0
806.65,90.0
806.71,97.0
806.78,89.0
806.84,89.0
806.9,100.0
806.97,90.0
807.03,104.0
807.09,82.0
807.16,84.0
807.22,103.0
807.28,90.0
807.34,126.0
807.41,125.0
807.47,106.0
807.53,102.0
807.6,98.0
807.66,106.0
807.72,123.0
807.79,128.0
807.85,113.0
807.91,123.0
807.97,125.0
808.04,120.0
808.1,118.0
808.16,120.0
808.23,125.0
808.29,111.0
808.35,124.0
808.42,134.0
808.48,128.0
808.54,137.0
808.6,118.0
808.67,132.0
808.73,146.0
808.79,145.0
808.86,159.0
808.92,125.0
808.98,150.0
809.05,145.0
809.11,160.0
809.17,151.0
809.23,158.0
809.3,153.0
809.36,159.0
809.42,166.0
809.49,167.0
809.55,163.0
809.61,179.0
809.68,175.0
809.74,153.0
809.8,169.0
809.86,186.0
809.93,178.0
809.99,154.0
810.05,166.0
810.12,152.0
810.18,161.0
810.24,149.0
810.31,154.0
810.37,163.0
810.43,178.0
810.49,172.0
810.56,145.0
810.62,150.0
810.68,164.0
810.75,172.0
810.81,168.0
810.87,185.0
810.94,169.0
811.0,172.0
811.06,177.0
811.12,162.0
811.19,157.0
811.25,146.0
811.31,138.0
811.38,141.0
811.44,149.0
811.5,144.0
811.57,153.0
811.63,158.0
811.69,127.0
811.75,149.0
811.82,173.0
811.88,162.0
811.94,169.0
812.01,169.0
812.07,161.0
812.13,158.0
812.2,181.0
812.26,166.0
812.32,170.0
812.38,177.0
812.45,137.0
812.51,119.0
812.57,122.0
812.64,122.0
812.7,139.0
812.76,148.0
812.83,148.0
812.89,131.0
812.95,144.0
813.01,136.0
813.08,141.0
813.14,131.0
813.2,145.0
813.27,145.0
813.33,134.0
813.39,130.0
813.46,136.0
813.52,145.0
813.58,130.0
813.64,156.0
813.71,130.0
813.77,162.0
813.83,118.0
813.9,134.0
813.96,141.0
814.02,150.0
814.09,119.0
814.15,126.0
814.21,136.0
814.27,134.0
814.34,146.0
814.4,137.0
814.46,144.0
814.53,142.0
814.59,154.0
814.65,138.0
814.72,148.0
814.78,151.0
814.84,149.0
814.9,152.0
814.97,137.0
815.03,153.0
815.09,146.0
815.16,142.0
815.22,144.0
815.28,141.0
815.35,143.0
815.41,148.0
815.47,153.0
815.53,149.0
815.6,147.0
815.66,148.0
815.72,157.0
815.79,170.0
815.85,142.0
815.91,164.0
815.98,169.0
816.04,148.0
816.1,170.0
816.16,155.0
816.23,174.0
816.29,161.0
816.35,163.0
816.42,170.0
816.48,149.0
816.54,155.0
816.61,131.0
816.67,122.0
816.73,124.0
816.79,133.0
816.86,104.0
816.92,114.0
816.98,121.0
817.05,125.0
817.11,133.0
817.17,122.0
817.24,131.0
817.3,150.0
817.36,143.0
817.42,135.0
817.49,134.0
817.55,150.0
817.61,141.0
817.68,135.0
817.74,134.0
817.8,125.0
817.87,130.0
817.93,141.0
817.99,144.0
818.05,133.0
818.12,146.0
818.18,158.0
818.24,163.0
818.31,170.0
818.37,149.0
818.43,134.0
818.5,141.0
818.56,142.0
818.62,138.0
818.68,127.0
818.75,128.0
818.81,120.0
818.87,121.0
818.94,118.0
819.0,130.0
819.06,132.0
819.13,139.0
819.19,129.0
819.25,125.0
819.31,101.0
819.38,139.0
819.44,149.0
819.5,131.0
819.57,142.0
819.63,129.0
819.69,148.0
819.76,149.0
819.82,127.0
819.88,141.0
819.94,151.0
820.01,153.0
820.07,157.0
820.13,130.0
820.2,114.0
820.26,135.0
820.32,141.0
820.39,126.0
820.45,130.0
820.51,136.0
820.57,125.0
820.64,122.0
820.7,110.0
820.76,129.0
820.83,125.0
820.89,123.0
820.95,96.0
821.02,121.0
821.08,107.0
821.14,86.0
821.2,84.0
821.27,75.0
821.33,78.0
821.39,48.0
821.46,64.0
821.52,74.0
821.58,83.0
821.65,81.0
821.71,83.0
821.77,64.0
821.83,86.0
821.9,90.0
821.96,108.0
822.02,124.0
822.09,103.0
822.15,112.0
822.21,101.0
822.28,112.0
822.34,84.0
822.4,84.0
822.46,92.0
822.53,101.0
822.59,105.0
822.65,93.0
822.72,71.0
822.78,86.0
822.84,95.0
822.91,84.0
822.97,79.0
823.03,80.0
823.09,115.0
823.16,85.0
823.22,101.0
823.28,98.0
823.35,78.0
823.41,64.0
823.47,85.0
823.54,99.0
823.6,82.0
823.66,89.0
823.72,99.0
823.79,86.0
823.85,82.0
823.91,80.0
823.98,81.0
824.04,92.0
824.1,83.0
824.17,91.0
824.23,82.0
824.29,66.0
824.35,83.0
824.42,79.0
824.48,84.0
824.54,101.0
824.61,73.0
824.67,68.0
824.73,77.0
824.8,75.0
824.86,87.0
824.92,84.0
824.98,100.0
825.05,100.0
825.11,93.0
825.17,92.0
825.24,73.0
825.3,90.0
825.36,93.0
825.43,83.0
825.49,89.0
825.55,96.0
825.61,96.0
825.68,105.0
825.74,102.0
825.8,109.0
825.87,113.0
825.93,103.0
825.99,117.0
826.06,113.0
826.12,93.0
826.18,100.0
826.24,93.0
826.31,110.0
826.37,130.0
826.43,107.0
826.5,92.0
826.56,97.0
826.62,95.0
826.69,117.0
826.75,113.0
826.81,116.0
826.87,130.0
826.94,119.0
827.0,101.0
827.06,97.0
827.13,103.0
827.19,105.0
827.25,109.0
827.32,97.0
827.38,95.0
827.44,75.0
827.5,102.0
827.57,82.0
827.63,84.0
827.69,98.0
827.76,95.0
827.82,95.0
827.88,87.0
827.95,87.0
828.01,79.0
828.07,75.0
828.13,70.0
828.2,78.0
828.26,97.0
828.32,98.0
828.39,76.0
828.45,77.0
828.51,75.0
828.58,60.0
828.64,70.0
828.7,68.0
828.76,89.0
828.83,80.0
828.89,97.0
828.95,87.0
829.02,89.0
829.08,84.0
829.14,86.0
829.21,87.0
829.27,91.0
829.33,101.0
829.39,79.0
829.46,95.0
829.52,94.0
829.58,95.0
829.65,73.0
829.71,95.0
829.77,121.0
829.84,101.0
829.9,84.0
829.96,101.0
830.02,105.0
830.09,127.0
830.15,105.0
830.21,102.0
830.28,126.0
830.34,135.0
830.4,140.0
830.47,127.0
830.53,143.0
830.59,134.0
830.65,153.0
830.72,138.0
830.78,151.0
830.84,152.0
830.91,159.0
830.97,139.0
831.03,151.0
831.1,147.0
831.16,142.0
831.22,134.0
831.28,160.0
831.35,173.0
831.41,165.0
831.47,167.0
831.54,177.0
831.6,192.0
831.66,194.0
831.73,183.0
831.79,170.0
831.85,182.0
831.91,191.0
831.98,169.0
832.04,167.0
832.1,186.0
832.17,189.0
832.23,171.0
832.29,174.0
832.36,180.0
832.42,195.0
832.48,196.0
832.54,194.0
832.61,175.0
832.67,183.0
832.73,169.0
832.8,167.0
832.86,195.0
832.92,181.0
832.99,190.0
833.05,193.0
833.11,179.0
833.17,180.0
833.24,173.0
833.3,164.0
833.36,183.0
833.43,179.0
833.49,187.0
833.55,172.0
833.62,191.0
833.68,189.0
833.74,183.0
833.8,178.0
833.87,185.0
833.93,175.0
833.99,162.0
834.06,150.0
834.12,161.0
834.18,184.0
834.25,169.0
834.31,168.0
834.37,171.0
834.43,159.0
834.5,162.0
834.56,156.0
834.62,160.0
834.69,178.0
834.75,193.0
834.81,187.0
834.88,182.0
834.94,167.0
835.0,186.0
835.06,180.0
835.13,177.0
835.19,190.0
835.25,181.0
835.32,192.0
835.38,204.0
835.44,180.0
835.51,202.0
835.57,213.0
835.63,185.0
835.69,172.0
835.76,175.0
835.82,191.0
835.88,174.0
835.95,160.0
836.01,170.0
836.07,187.0
836.14,186.0
836.2,185.0
836.26,176.0
836.32,148.0
836.39,141.0
836.45,174.0
836.51,153.0
836.58,156.0
836.64,158.0
836.7,164.0
836.77,165.0
836.83,177.0
836.89,192.0
836.95,195.0
837.02,183.0
837.08,167.0
837.14,180.0
837.21,190.0
837.27,195.0
837.33,175.0
837.4,160.0
837.46,181.0
837.52,178.0
837.58,172.0
837.65,184.0
837.71,171.0
837.77,148.0
837.84,166.0
837.9,156.0
837.96,165.0
838.03,161.0
838.09,152.0
838.15,142.0
838.21,157.0
838.28,145.0
838.34,139.0
838.4,144.0
838.47,134.0
838.53,130.0
838.59,118.0
838.66,144.0
838.72,137.0
838.78,111.0
838.84,134.0
838.91,131.0
838.97,124.0
839.03,135.0
839.1,130.0
839.16,129.0
839.22,119.0
839.29,116.0
839.35,116.0
839.41,125.0
839.47,122.0
839.54,124.0
839.6,138.0
839.66,145.0
839.73,157.0
839.79,151.0
839.85,167.0
839.92,154.0
839.98,161.0
840.04,176.0
840.1,161.0
840.17,163.0
840.23,181.0
840.29,170.0
840.36,170.0
840.42,170.0
840.48,159.0
840.55,188.0
840.61,186.0
840.67,211.0
840.73,194.0
840.8,201.0
840.86,192.0
840.92,196.0
840.99,189.0
841.05,231.0
841.11,224.0
841.18,207.0
841.24,218.0
841.3,207.0
841.36,209.0
841.43,209.0
841.49,218.0
841.55,226.0
841.62,229.0
841.68,244.0
841.74,208.0
841.81,222.0
841.87,211.0
841.93,213.0
841.99,196.0
842.06,185.0
842.12,181.0
842.18,180.0
842.25,169.0
842.31,155.0
842.37,169.0
842.44,169.0
842.5,167.0
842.56,181.0
842.62,167.0
842.69,173.0
842.75,156.0
842.81,145.0
842.88,135.0
842.94,142.0
843.0,172.0
843.07,148.0
843.13,143.0
843.19,159.0
843.25,163.0
843.32,154.0
843.38,141.0
843.44,166.0
843.51,149.0
843.57,145.0
843.63,142.0
843.7,135.0
843.76,154.0
843.82,125.0
843.88,147.0
843.95,152.0
844.01,130.0
844.07,130.0
844.14,145.0
844.2,160.0
844.26,140.0
844.33,148.0
844.39,149.0
844.45,166.0
844.51,145.0
844.58,128.0
844.64,149.0
844.7,130.0
844.77,130.0
844.83,130.0
844.89,152.0
844.96,141.0
845.02,136.0
845.08,127.0
845.14,112.0
845.21,122.0
845.27,105.0
845.33,108.0
845.4,106.0
845.46,97.0
845.52,106.0
845.59,101.0
845.65,111.0
845.71,110.0
845.77,91.0
845.84,79.0
845.9,100.0
845.96,99.0
846.03,87.0
846.09,70.0
846.15,70.0
846.22,79.0
846.28,83.0
846.34,68.0
846.4,66.0
846.47,90.0
846.53,78.0
846.59,91.0
846.66,96.0
846.72,80.0
846.78,90.0
846.85,86.0
846.91,77.0
846.97,101.0
847.03,97.0
847.1,101.0
847.16,112.0
847.22,88.0
847.29,88.0
847.35,87.0
847.41,109.0
847.48,88.0
847.54,95.0
847.6,98.0
847.66,130.0
847.73,117.0
847.79,108.0
847.85,105.0
847.92,86.0
847.98,88.0
848.04,99.0
848.11,82.0
848.17,68.0
848.23,82.0
848.29,95.0
848.36,95.0
848.42,93.0
848.48,93.0
848.55,108.0
848.61,103.0
848.67,98.0
848.74,90.0
848.8,87.0
848.86,85.0
848.92,101.0
848.99,89.0
849.05,105.0
849.11,97.0
849.18,101.0
849.24,115.0
849.3,107.0
849.37,86.0
849.43,94.0
849.49,110.0
849.55,100.0
849.62,90.0
849.68,78.0
849.74,86.0
849.81,93.0
849.87,105.0
849.93,103.0
850.0,92.0
850.06,109.0
850.12,124.0
850.18,132.0
850.25,115.0
850.31,99.0
850.37,109.0
850.44,105.0
850.5,98.0
850.56,90.0
850.63,107.0
850.69,113.0
850.75,107.0
850.81,108.0
850.88,94.0
850.94,99.0
851.0,94.0
851.07,78.0
851.13,98.0
851.19,119.0
851.26,94.0
851.32,80.0
851.38,70.0
851.44,97.0
851.51,108.0
851.57,99.0
851.63,102.0
851.7,103.0
851.76,112.0
851.82,120.0
851.89,112.0
851.95,130.0
852.01,129.0
852.07,109.0
852.14,108.0
852.2,111.0
852.26,117.0
852.33,124.0
852.39,106.0
852.45,102.0
852.52,104.0
852.58,105.0
852.64,100.0
852.7,93.0
852.77,95.0
852.83,119.0
852.89,92.0
852.96,89.0
853.02,84.0
853.08,68.0
853.15,83.0
853.21,77.0
853.27,80.0
853.33,86.0
853.4,102.0
853.46,67.0
853.52,71.0
853.59,102.0
853.65,70.0
853.71,71.0
853.78,53.0
853.84,50.0
853.9,61.0
853.96,61.0
854.03,70.0
854.09,67.0
854.15,56.0
854.22,61.0
854.28,68.0
854.34,62.0
854.41,58.0
854.47,49.0
854.53,65.0
854.59,81.0
854.66,60.0
854.72,79.0
854.78,93.0
854.85,79.0
854.91,76.0
854.97,54.0
855.04,51.0
855.1,50.0
855.16,63.0
855.22,42.0
855.29,31.0
855.35,55.0
855.41,66.0
855.48,60.0
855.54,57.0
855.6,61.0
855.67,59.0
855.73,71.0
855.79,89.0
855.85,77.0
855.92,56.0
855.98,83.0
856.04,85.0
856.11,70.0
856.17,86.0
856.23,76.0
856.3,94.0
856.36,77.0
856.42,109.0
856.48,116.0
856.55,106.0
856.61,118.0
856.67,111.0
856.74,121.0
856.8,125.0
856.86,114.0
856.93,116.0
856.99,104.0
857.05,119.0
857.11,137.0
857.18,146.0
857.24,141.0
857.3,130.0
857.37,123.0
857.43,141.0
857.49,123.0
857.56,126.0
857.62,128.0
857.68,101.0
857.74,113.0
857.81,120.0
857.87,111.0
857.93,116.0
858.0,108.0
858.06,117.0
858.12,123.0
858.19,97.0
858.25,109.0
858.31,81.0
858.37,102.0
858.44,106.0
858.5,120.0
858.56,124.0
858.63,119.0
858.69,137.0
858.75,130.0
858.82,150.0
858.88,141.0
858.94,147.0
859.0,155.0
859.07,155.0
859.13,155.0
859.19,135.0
859.26,151.0
859.32,149.0
859.38,132.0
859.45,166.0
859.51,166.0
859.57,156.0
859.63,170.0
859.7,163.0
859.76,186.0
859.82,178.0
859.89,184.0
859.95,192.0
860.01,205.0
860.08,187.0
860.14,193.0
860.2,182.0
860.26,170.0
860.33,165.0
860.39,165.0
860.45,167.0
860.52,172.0
860.58,175.0
860.64,158.0
860.71,156.0
860.77,164.0
860.83,178.0
860.89,171.0
860.96,198.0
861.02,181.0
861.08,175.0
861.15,182.0
861.21,178.0
861.27,183.0
861.34,181.0
861.4,177.0
861.46,174.0
861.52,179.0
861.59,163.0
861.65,175.0
861.71,147.0
861.78,147.0
861.84,151.0
861.9,144.0
861.97,157.0
862.03,168.0
862.09,164.0
862.15,178.0
862.22,162.0
862.28,166.0
862.34,168.0
862.41,168.0
862.47,175.0
862.53,180.0
862.6,203.0
862.66,180.0
862.72,182.0
862.78,200.0
862.85,202.0
862.91,196.0
862.97,200.0
863.04,201.0
863.1,216.0
863.16,205.0
863.23,193.0
863.29,205.0
863.35,210.0
863.41,191.0
863.48,195.0
863.54,185.0
863.6,195.0
863.67,205.0
863.73,215.0
863.79,202.0
863.86,177.0
863.92,202.0
863.98,207.0
864.04,214.0
864.11,203.0
864.17,208.0
864.23,210.0
864.3,199.0
864.36,192.0
864.42,168.0
864.49,203.0
864.55,213.0
864.61,187.0
864.67,191.0
864.74,206.0
864.8,206.0
864.86,199.0
864.93,204.0
864.99,191.0
865.05,183.0
865.12,192.0
865.18,196.0
865.24,202.0
865.3,196.0
865.37,188.0
865.43,184.0
865.49,200.0
865.56,206.0
865.62,209.0
865.68,204.0
865.75,204.0
865.81,203.0
865.87,202.0
865.93,185.0
866.0,191.0
866.06,172.0
866.12,171.0
866.19,172.0
866.25,149.0
866.31,171.0
866.38,161.0
866.44,162.0
866.5,165.0
866.56,161.0
866.63,142.0
866.69,157.0
866.75,168.0
866.82,167.0
866.88,169.0
866.94,174.0
867.01,165.0
867.07,167.0
867.13,163.0
867.19,148.0
867.26,154.0
867.32,156.0
867.38,146.0
867.45,131.0
867.51,145.0
867.57,147.0
867.64,138.0
867.7,148.0
867.76,134.0
867.82,129.0
867.89,153.0
867.95,145.0
868.01,157.0
868.08,144.0
868.14,160.0
868.2,156.0
868.27,141.0
868.33,166.0
868.39,147.0
868.45,136.0
868.52,155.0
868.58,169.0
868.64,154.0
868.71,158.0
868.77,144.0
868.83,130.0
868.9,145.0
868.96,149.0
869.02,141.0
869.08,155.0
869.15,161.0
869.21,163.0
869.27,152.0
869.34,152.0
869.4,156.0
869.46,144.0
869.53,136.0
869.59,141.0
869.65,138.0
869.71,127.0
869.78,138.0
869.84,127.0
869.9,118.0
869.97,122.0
870.03,156.0
870.09,140.0
870.16,134.0
870.22,126.0
870.28,153.0
870.34,144.0
870.41,150.0
870.47,144.0
870.53,122.0
870.6,128.0
870.66,129.0
870.72,137.0
870.79,133.0
870.85,136.0
870.91,142.0
870.97,123.0
871.04,121.0
871.1,127.0
871.16,124.0
871.23,125.0
871.29,131.0
871.35,123.0
871.42,117.0
871.48,116.0
871.54,127.0
871.6,117.0
871.67,109.0
871.73,97.0
871.79,98.0
871.86,104.0
871.92,95.0
871.98,110.0
872.05,107.0
872.11,108.0
872.17,101.0
872.23,109.0
872.3,129.0
872.36,103.0
872.42,104.0
872.49,116.0
872.55,114.0
872.61,122.0
872.68,93.0
872.74,100.0
872.8,86.0
872.86,86.0
872.93,81.0
872.99,78.0
873.05,57.0
873.12,71.0
873.18,86.0
873.24,78.0
873.31,57.0
873.37,71.0
873.43,73.0
873.49,72.0
873.56,78.0
873.62,76.0
873.68,97.0
873.75,92.0
873.81,68.0
873.87,78.0
873.94,75.0
874.0,61.0
874.06,51.0
874.12,56.0
874.19,61.0
874.25,56.0
874.31,51.0
874.38,44.0
874.44,46.0
874.5,34.0
874.57,46.0
874.63,67.0
874.69,69.0
874.75,82.0
874.82,84.0
874.88,77.0
874.94,70.0
875.01,62.0
875.07,59.0
875.13,68.0
875.2,74.0
875.26,73.0
875.32,75.0
875.38,77.0
875.45,78.0
875.51,74.0
875.57,78.0
875.64,87.0
875.7,87.0
875.76,61.0
875.83,60.0
875.89,62.0
875.95,48.0
876.01,70.0
876.08,73.0
876.14,76.0
876.2,78.0
876.27,90.0
876.33,95.0
876.39,58.0
876.46,53.0
876.52,58.0
876.58,55.0
876.64,78.0
876.71,59.0
876.77,60.0
876.83,49.0
876.9,60.0
876.96,53.0
877.02,57.0
877.09,68.0
877.15,68.0
877.21,68.0
877.27,66.0
877.34,88.0
877.4,79.0
877.46,59.0
877.53,64.0
877.59,56.0
877.65,45.0
877.72,46.0
877.78,43.0
877.84,64.0
877.9,59.0
877.97,56.0
878.03,69.0
878.09,80.0
878.16,69.0
878.22,53.0
878.28,42.0
878.35,71.0
878.41,66.0
878.47,63.0
878.53,61.0
878.6,52.0
878.66,57.0
878.72,75.0
878.79,61.0
878.85,63.0
878.91,51.0
878.98,61.0
879.04,61.0
879.1,65.0
879.16,55.0
879.23,78.0
879.29,85.0
879.35,66.0
879.42,67.0
879.48,72.0
879.54,70.0
879.61,56.0
879.67,74.0
879.73,68.0
879.79,78.0
879.86,83.0
879.92,96.0
879.98,81.0
880.05,87.0
880.11,95.0
880.17,90.0
880.24,85.0
880.3,78.0
880.36,81.0
880.42,59.0
880.49,88.0
880.55,94.0
880.61,74.0
880.68,61.0
880.74,75.0
880.8,91.0
880.87,86.0
880.93,75.0
880.99,90.0
881.05,98.0
881.12,87.0
881.18,107.0
881.24,106.0
881.31,104.0
881.37,106.0
881.43,126.0
881.5,115.0
881.56,136.0
881.62,142.0
881.68,142.0
881.75,156.0
881.81,163.0
881.87,157.0
881.94,157.0
882.0,157.0
882.06,167.0
882.13,190.0
882.19,188.0
882.25,188.0
882.31,180.0
882.38,177.0
882.44,189.0
882.5,188.0
882.57,196.0
882.63,185.0
882.69,178.0
882.76,186.0
882.82,189.0
882.88,205.0
882.94,178.0
883.01,166.0
883.07,171.0
883.13,159.0
883.2,178.0
883.26,161.0
883.32,171.0
883.39,173.0
883.45,172.0
883.51,164.0
883.57,157.0
883.64,162.0
883.7,152.0
883.76,176.0
883.83,163.0
883.89,157.0
883.95,162.0
884.02,168.0
884.08,167.0
884.14,158.0
884.2,156.0
884.27,144.0
884.33,163.0
884.39,139.0
884.46,135.0
884.52,146.0
884.58,146.0
884.65,142.0
884.71,156.0
884.77,155.0
884.83,161.0
884.9,163.0
884.96,147.0
885.02,157.0
885.09,158.0
885.15,170.0
885.21,167.0
885.28,177.0
885.34,165.0
885.4,170.0
885.46,154.0
885.53,155.0
885.59,181.0
885.65,167.0
885.72,178.0
885.78,160.0
885.84,166.0
885.91,182.0
885.97,176.0
886.03,174.0
886.09,177.0
886.16,165.0
886.22,193.0
886.28,205.0
886.35,194.0
886.41,202.0
886.47,213.0
886.54,207.0
886.6,192.0
886.66,210.0
886.72,195.0
886.79,186.0
886.85,202.0
886.91,198.0
886.98,225.0
887.04,213.0
887.1,199.0
887.17,192.0
887.23,187.0
887.29,177.0
887.35,188.0
887.42,197.0
887.48,183.0
887.54,187.0
887.61,182.0
887.67,194.0
887.73,203.0
887.8,190.0
887.86,176.0
887.92,167.0
887.98,160.0
888.05,160.0
888.11,146.0
888.17,156.0
888.24,159.0
888.3,154.0
888.36,157.0
888.43,145.0
888.49,154.0
888.55,147.0
888.61,153.0
888.68,149.0
888.74,159.0
888.8,157.0
888.87,166.0
888.93,171.0
888.99,166.0
889.06,165.0
889.12,161.0
889.18,167.0
889.24,169.0
889.31,169.0
889.37,178.0
889.43,166.0
889.5,162.0
889.56,170.0
889.62,169.0
889.69,162.0
889.75,163.0
889.81,167.0
889.87,151.0
889.94,141.0
890.0,149.0
890.06,172.0
890.13,174.0
890.19,184.0
890.25,180.0
890.32,181.0
890.38,176.0
890.44,170.0
890.5,167.0
890.57,181.0
890.63,189.0
890.69,165.0
890.76,183.0
890.82,204.0
890.88,191.0
890.95,196.0
891.01,189.0
891.07,208.0
891.13,203.0
891.2,200.0
891.26,190.0
891.32,162.0
891.39,185.0
891.45,178.0
891.51,176.0
891.58,181.0
891.64,188.0
891.7,196.0
891.76,200.0
891.83,207.0
891.89,186.0
891.95,173.0
892.02,181.0
892.08,189.0
892.14,194.0
892.21,186.0
892.27,191.0
892.33,214.0
892.39,219.0
892.46,222.0
892.52,236.0
892.58,234.0
892.65,231.0
892.71,235.0
892.77,226.0
892.84,232.0
892.9,240.0
892.96,249.0
893.02,249.0
893.09,218.0
893.15,241.0
893.21,246.0
893.28,257.0
893.34,255.0
893.4,261.0
893.47,260.0
893.53,251.0
893.59,249.0
893.65,229.0
893.72,248.0
893.78,244.0
893.84,243.0
893.91,226.0
893.97,207.0
894.03,218.0
894.1,216.0
894.16,224.0
894.22,200.0
894.28,203.0
894.35,192.0
894.41,196.0
894.47,199.0
894.54,179.0
894.6,192.0
894.66,180.0
894.73,208.0
894.79,197.0
894.85,189.0
894.91,215.0
894.98,192.0
895.04,172.0
895.1,188.0
895.17,188.0
895.23,200.0
895.29,187.0
895.36,164.0
895.42,149.0
895.48,143.0
895.54,152.0
895.61,159.0
895.67,165.0
895.73,163.0
895.8,154.0
895.86,141.0
895.92,153.0
895.99,119.0
896.05,171.0
896.11,145.0
896.17,156.0
896.24,152.0
896.3,160.0
896.36,167.0
896.43,148.0
896.49,138.0
896.55,135.0
896.62,136.0
896.68,106.0
896.74,125.0
896.8,142.0
896.87,143.0
896.93,153.0
896.99,152.0
897.06,164.0
897.12,152.0
897.18,144.0
897.25,136.0
897.31,135.0
897.37,162.0
897.43,159.0
897.5,154.0
897.56,134.0
897.62,143.0
897.69,142.0
897.75,139.0
897.81,128.0
897.88,112.0
897.94,123.0
898.0,127.0
898.06,131.0
898.13,133.0
898.19,133.0
898.25,147.0
898.32,147.0
898.38,116.0
898.44,130.0
898.51,133.0
898.57,125.0
898.63,111.0
898.69,108.0
898.76,109.0
898.82,115.0
898.88,130.0
898.95,116.0
899.01,92.0
899.07,90.0
899.14,114.0
899.2,105.0
899.26,118.0
899.32,115.0
899.39,104.0
899.45,106.0
899.51,109.0
899.58,102.0
899.64,109.0
899.7,118.0
899.77,130.0
899.83,102.0
899.89,102.0
899.95,78.0
900.02,94.0
900.08,107.0
900.14,71.0
900.21,96.0
900.27,68.0
900.33,88.0
900.4,108.0
900.46,115.0
900.52,123.0
900.58,120.0
900.65,111.0
900.71,109.0
900.77,100.0
900.84,117.0
900.9,117.0
900.96,125.0
901.03,111.0
901.09,108.0
901.15,121.0
901.21,132.0
901.28,150.0
901.34,147.0
901.4,114.0
901.47,144.0
901.53,145.0
901.59,148.0
901.66,149.0
901.72,115.0
901.78,166.0
901.84,157.0
901.91,126.0
901.97,144.0
902.03,133.0
902.1,131.0
902.16,133.0
902.22,120.0
902.29,134.0
902.35,136.0
902.41,146.0
902.47,138.0
902.54,158.0
902.6,153.0
902.66,133.0
902.73,113.0
902.79,127.0
902.85,130.0
902.92,129.0
902.98,122.0
903.04,128.0
903.1,131.0
903.17,127.0
903.23,121.0
903.29,128.0
903.36,121.0
903.42,119.0
903.48,137.0
903.55,110.0
903.61,90.0
903.67,103.0
903.73,109.0
903.8,85.0
903.86,83.0
903.92,92.0
903.99,94.0
904.05,84.0
904.11,77.0
904.18,72.0
904.24,75.0
904.3,86.0
904.36,69.0
904.43,91.0
904.49,76.0
904.55,108.0
904.62,112.0
904.68,90.0
904.74,86.0
904.81,89.0
904.87,91.0
904.93,89.0
904.99,76.0
905.06,95.0
905.12,72.0
905.18,72.0
905.25,75.0
905.31,65.0
905.37,54.0
905.44,65.0
905.5,60.0
905.56,53.0
905.62,70.0
905.69,62.0
905.75,32.0
905.81,12.0
905.88,26.0
905.94,23.0
906.0,21.0
906.07,12.0
906.13,6.0
906.19,26.0
906.25,26.0
906.32,43.0
906.38,46.0
906.44,35.0
906.51,55.0
906.57,42.0
906.63,34.0
906.7,26.0
906.76,22.0
906.82,21.0
906.88,16.0
906.95,20.0
907.01,16.0
907.07,30.0
907.14,13.0
907.2,14.0
907.26,26.0
907.33,21.0
907.39,37.0
907.45,42.0
907.51,37.0
907.58,35.0
907.64,33.0
907.7,33.0
907.77,49.0
907.83,50.0
907.89,35.0
907.96,57.0
908.02,76.0
908.08,55.0
908.14,66.0
908.21,64.0
908.27,69.0
908.33,60.0
908.4,68.0
908.46,82.0
908.52,42.0
908.59,49.0
908.65,57.0
908.71,59.0
908.77,57.0
908.84,62.0
908.9,42.0
908.96,43.0
909.03,51.0
909.09,51.0
909.15,57.0
909.22,59.0
909.28,59.0
909.34,68.0
909.4,50.0
909.47,50.0
909.53,54.0
909.59,71.0
909.66,72.0
909.72,57.0
909.78,54.0
909.85,37.0
909.91,38.0
909.97,61.0
910.03,70.0
910.1,77.0
910.16,65.0
910.22,59.0
910.29,64.0
910.35,61.0
910.41,73.0
910.48,77.0
910.54,77.0
910.6,94.0
910.66,90.0
910.73,81.0
910.79,88.0
910.85,75.0
910.92,92.0
910.98,68.0
911.04,79.0
911.11,81.0
911.17,72.0
911.23,95.0
911.29,77.0
911.36,79.0
911.42,74.0
911.48,85.0
911.55,79.0
911.61,60.0
911.67,72.0
911.74,68.0
911.8,80.0
911.86,78.0
911.92,76.0
911.99,72.0
912.05,87.0
912.11,84.0
912.18,90.0
912.24,91.0
912.3,92.0
912.37,82.0
912.43,68.0
912.49,49.0
912.55,66.0
912.62,58.0
912.68,70.0
912.74,86.0
912.81,85.0
912.87,104.0
912.93,90.0
913.0,89.0
913.06,78.0
913.12,70.0
913.18,83.0
913.25,78.0
913.31,69.0
913.37,97.0
913.44,94.0
913.5,97.0
913.56,114.0
913.63,112.0
913.69,107.0
913.75,93.0
913.81,80.0
913.88,82.0
913.94,101.0
914.0,85.0
914.07,87.0
914.13,92.0
914.19,82.0
914.26,91.0
914.32,101.0
914.38,101.0
914.44,101.0
914.51,123.0
914.57,131.0
914.63,134.0
914.7,134.0
914.76,120.0
914.82,132.0
914.89,118.0
914.95,123.0
915.01,113.0
915.07,112.0
915.14,112.0
915.2,107.0
915.26,97.0
915.33,108.0
915.39,120.0
915.45,119.0
915.52,103.0
915.58,113.0
915.64,108.0
915.7,101.0
915.77,117.0
915.83,117.0
915.89,110.0
915.96,119.0
916.02,111.0
916.08,101.0
916.15,117.0
916.21,122.0
916.27,105.0
916.33,123.0
916.4,92.0
916.46,114.0
916.52,132.0
916.59,134.0
916.65,118.0
916.71,114.0
916.78,117.0
916.84,112.0
916.9,103.0
916.96,101.0
917.03,121.0
917.09,128.0
917.15,112.0
917.22,123.0
917.28,130.0
917.34,138.0
917.41,140.0
917.47,133.0
917.53,124.0
917.59,126.0
917.66,123.0
917.72,127.0
917.78,124.0
917.85,125.0
917.91,117.0
917.97,137.0
918.04,137.0
918.1,135.0
918.16,139.0
918.22,133.0
918.29,141.0
918.35,119.0
918.41,139.0
918.48,142.0
918.54,145.0
918.6,159.0
918.67,159.0
918.73,165.0
918.79,161.0
918.85,157.0
918.92,175.0
918.98,170.0
919.04,161.0
919.11,160.0
919.17,172.0
919.23,176.0
919.3,188.0
919.36,188.0
919.42,182.0
919.48,196.0
919.55,186.0
919.61,187.0
919.67,215.0
919.74,201.0
919.8,200.0
919.86,203.0
919.93,190.0
919.99,194.0
920.05,175.0
920.11,170.0
920.18,169.0
920.24,170.0
920.3,180.0
920.37,167.0
920.43,180.0
920.49,164.0
920.56,162.0
920.62,171.0
920.68,182.0
920.74,193.0
920.81,193.0
920.87,193.0
920.93,172.0
921.0,167.0
921.06,156.0
921.12,161.0
921.19,158.0
921.25,134.0
921.31,141.0
921.37,132.0
921.44,129.0
921.5,139.0
921.56,146.0
921.63,141.0
921.69,137.0
921.75,134.0
921.82,147.0
921.88,118.0
921.94,109.0
922.0,140.0
922.07,145.0
922.13,138.0
922.19,116.0
922.26,123.0
922.32,127.0
922.38,123.0
922.45,115.0
922.51,123.0
922.57,145.0
922.63,129.0
922.7,103.0
922.76,86.0
922.82,102.0
922.89,101.0
922.95,97.0
923.01,111.0
923.08,118.0
923.14,119.0
923.2,106.0
923.26,106.0
923.33,105.0
923.39,101.0
923.45,126.0
923.52,113.0
923.58,125.0
923.64,121.0
923.71,106.0
923.77,133.0
923.83,120.0
923.89,114.0
923.96,129.0
924.02,122.0
924.08,104.0
924.15,112.0
924.21,113.0
924.27,103.0
924.34,104.0
924.4,114.0
924.46,93.0
924.52,97.0
924.59,101.0
924.65,95.0
924.71,96.0
924.78,112.0
924.84,101.0
924.9,98.0
924.97,106.0
925.03,125.0
925.09,121.0
925.15,103.0
925.22,108.0
925.28,108.0
925.34,127.0
925.41,119.0
925.47,97.0
925.53,99.0
925.6,109.0
925.66,112.0
925.72,85.0
925.78,83.0
925.85,94.0
925.91,99.0
925.97,109.0
926.04,106.0
926.1,106.0
926.16,115.0
926.23,90.0
926.29,100.0
926.35,95.0
926.41,108.0
926.48,113.0
926.54,114.0
926.6,113.0
926.67,112.0
926.73,115.0
926.79,79.0
926.86,84.0
926.92,84.0
926.98,92.0
927.04,91.0
927.11,114.0
927.17,94.0
927.23,98.0
927.3,110.0
927.36,100.0
927.42,114.0
927.49,95.0
927.55,100.0
927.61,106.0
927.67,102.0
927.74,109.0
927.8,108.0
927.86,123.0
927.93,111.0
927.99,104.0
928.05,108.0
928.12,107.0
928.18,102.0
928.24,108.0
928.3,113.0
928.37,107.0
928.43,95.0
928.49,92.0
928.56,112.0
928.62,90.0
928.68,97.0
928.75,96.0
928.81,100.0
928.87,82.0
928.93,68.0
929.0,86.0
929.06,97.0
929.12,105.0
929.19,99.0
929.25,106.0
929.31,98.0
929.38,98.0
929.44,76.0
929.5,96.0
929.56,99.0
929.63,68.0
929.69,68.0
929.75,86.0
929.82,64.0
929.88,77.0
929.94,83.0
930.01,84.0
930.07,78.0
930.13,83.0
930.19,96.0
930.26,105.0
930.32,102.0
930.38,119.0
930.45,118.0
930.51,119.0
930.57,117.0
930.64,103.0
930.7,102.0
930.76,120.0
930.82,127.0
930.89,128.0
930.95,139.0
931.01,119.0
931.08,104.0
931.14,106.0
931.2,121.0
931.27,133.0
931.33,125.0
931.39,134.0
931.45,145.0
931.52,147.0
931.58,127.0
931.64,138.0
931.71,134.0
931.77,121.0
931.83,118.0
931.9,103.0
931.96,119.0
932.02,143.0
932.08,147.0
932.15,159.0
932.21,156.0
932.27,138.0
932.34,152.0
932.4,144.0
932.46,141.0
932.53,127.0
932.59,145.0
932.65,132.0
932.71,160.0
932.78,153.0
932.84,145.0
932.9,161.0
932.97,133.0
933.03,153.0
933.09,141.0
933.16,163.0
933.22,179.0
933.28,170.0
933.34,155.0
933.41,163.0
933.47,160.0
933.53,164.0
933.6,175.0
933.66,184.0
933.72,183.0
933.79,187.0
933.85,179.0
933.91,163.0
933.97,176.0
934.04,186.0
934.1,190.0
934.16,162.0
934.23,168.0
934.29,178.0
934.35,164.0
934.42,159.0
934.48,166.0
934.54,151.0
934.6,163.0
934.67,154.0
934.73,165.0
934.79,172.0
934.86,171.0
934.92,155.0
934.98,158.0
935.05,154.0
935.11,153.0
935.17,159.0
935.23,164.0
935.3,174.0
935.36,176.0
935.42,176.0
935.49,183.0
935.55,168.0
935.61,166.0
935.68,141.0
935.74,157.0
935.8,174.0
935.86,160.0
935.93,152.0
935.99,148.0
936.05,144.0
936.12,140.0
936.18,158.0
936.24,133.0
936.31,108.0
936.37,123.0
936.43,129.0
936.49,105.0
936.56,110.0
936.62,123.0
936.68,115.0
936.75,105.0
936.81,116.0
936.87,104.0
936.94,115.0
937.0,124.0
937.06,130.0
937.12,119.0
937.19,117.0
937.25,123.0
937.31,122.0
937.38,124.0
937.44,129.0
937.5,146.0
937.57,130.0
937.63,119.0
937.69,134.0
937.75,130.0
937.82,123.0
937.88,126.0
937.94,123.0
938.01,116.0
938.07,130.0
938.13,140.0
938.2,120.0
938.26,112.0
938.32,110.0
938.38,114.0
938.45,101.0
938.51,65.0
938.57,90.0
938.64,86.0
938.7,64.0
938.76,75.0
938.83,79.0
938.89,80.0
938.95,57.0
939.01,60.0
939.08,63.0
939.14,52.0
939.2,46.0
939.27,71.0
939.33,60.0
939.39,53.0
939.46,82.0
939.52,70.0
939.58,60.0
939.64,79.0
939.71,94.0
939.77,88.0
939.83,78.0
939.9,74.0
939.96,66.0
940.02,80.0
940.09,68.0
940.15,75.0
940.21,73.0
940.27,76.0
940.34,85.0
940.4,84.0
940.46,101.0
940.53,91.0
940.59,96.0
940.65,93.0
940.72,105.0
940.78,72.0
940.84,76.0
940.9,87.0
940.97,92.0
941.03,84.0
941.09,71.0
941.16,92.0
941.22,87.0
941.28,104.0
941.35,91.0
941.41,97.0
941.47,96.0
941.53,103.0
941.6,97.0
941.66,102.0
941.72,115.0
941.79,103.0
941.85,106.0
941.91,122.0
941.98,110.0
942.04,125.0
942.1,123.0
942.16,122.0
942.23,134.0
942.29,125.0
942.35,120.0
942.42,137.0
942.48,145.0
942.54,155.0
942.61,166.0
942.67,168.0
942.73,154.0
942.79,150.0
942.86,148.0
942.92,161.0
942.98,144.0
943.05,142.0
943.11,154.0
943.17,157.0
943.24,171.0
943.3,164.0
943.36,183.0
943.42,169.0
943.49,159.0
943.55,149.0
943.61,148.0
943.68,148.0
943.74,139.0
943.8,161.0
943.87,156.0
943.93,169.0
943.99,144.0
944.05,147.0
944.12,163.0
944.18,166.0
944.24,169.0
944.31,177.0
944.37,166.0
944.43,170.0
944.5,174.0
944.56,187.0
944.62,165.0
944.68,161.0
944.75,175.0
944.81,157.0
944.87,167.0
944.94,161.0
945.0,173.0
945.06,163.0
945.13,160.0
945.19,164.0
945.25,163.0
945.31,177.0
945.38,165.0
945.44,170.0
945.5,162.0
945.57,188.0
945.63,177.0
945.69,176.0
945.76,172.0
945.82,174.0
945.88,182.0
945.94,164.0
946.01,149.0
946.07,139.0
946.13,142.0
946.2,134.0
946.26,130.0
946.32,115.0
946.39,116.0
946.45,112.0
946.51,105.0
946.57,105.0
946.64,105.0
946.7,119.0
946.76,116.0
946.83,101.0
946.89,103.0
946.95,92.0
947.02,78.0
947.08,90.0
947.14,84.0
947.2,61.0
947.27,71.0
947.33,73.0
947.39,70.0
947.46,51.0
947.52,75.0
947.58,86.0
947.65,67.0
947.71,84.0
947.77,98.0
947.83,80.0
947.9,84.0
947.96,61.0
948.02,59.0
948.09,60.0
948.15,50.0
948.21,46.0
948.28,38.0
948.34,49.0
948.4,52.0
948.46,57.0
948.53,63.0
948.59,36.0
948.65,43.0
948.72,64.0
948.78,68.0
948.84,72.0
948.91,81.0
948.97,89.0
949.03,60.0
949.09,80.0
949.16,71.0
949.22,70.0
949.28,64.0
949.35,60.0
949.41,90.0
949.47,83.0
949.54,105.0
949.6,93.0
949.66,91.0
949.72,103.0
949.79,111.0
949.85,116.0
949.91,109.0
949.98,111.0
950.04,115.0
950.1,103.0
950.17,103.0
950.23,112.0
950.29,103.0
950.35,104.0
950.42,91.0
950.48,93.0
950.54,101.0
950.61,95.0
950.67,77.0
950.73,88.0
950.8,88.0
950.86,105.0
950.92,90.0
950.98,94.0
951.05,86.0
951.11,89.0
951.17,109.0
951.24,79.0
951.3,115.0
951.36,108.0
951.43,123.0
951.49,118.0
951.55,119.0
951.61,108.0
951.68,107.0
951.74,120.0
951.8,114.0
951.87,135.0
951.93,140.0
951.99,148.0
952.06,122.0
952.12,123.0
952.18,133.0
952.24,142.0
952.31,133.0
952.37,105.0
952.43,138.0
952.5,139.0
952.56,135.0
952.62,124.0
952.69,109.0
952.75,127.0
952.81,126.0
952.87,139.0
952.94,166.0
953.0,175.0
953.06,171.0
953.13,157.0
953.19,178.0
953.25,194.0
953.32,170.0
953.38,156.0
953.44,183.0
953.5,180.0
953.57,187.0
953.63,186.0
953.69,194.0
953.76,182.0
953.82,186.0
953.88,186.0
953.95,174.0
954.01,177.0
954.07,166.0
954.13,163.0
954.2,149.0
954.26,167.0
954.32,173.0
954.39,160.0
954.45,156.0
954.51,150.0
954.58,161.0
954.64,153.0
954.7,155.0
954.76,161.0
954.83,161.0
954.89,152.0
954.95,154.0
955.02,174.0
955.08,170.0
955.14,138.0
955.21,135.0
955.27,150.0
955.33,126.0
955.39,116.0
955.46,126.0
955.52,120.0
955.58,100.0
955.65,115.0
955.71,139.0
955.77,122.0
955.84,112.0
955.9,121.0
955.96,127.0
956.02,125.0
956.09,125.0
956.15,118.0
956.21,141.0
956.28,126.0
956.34,122.0
956.4,132.0
956.47,123.0
956.53,134.0
956.59,120.0
956.65,117.0
956.72,128.0
956.78,131.0
956.84,115.0
956.91,110.0
956.97,121.0
957.03,141.0
957.1,123.0
957.16,115.0
957.22,143.0
957.28,140.0
957.35,131.0
957.41,142.0
957.47,149.0
957.54,134.0
957.6,128.0
957.66,141.0
957.73,133.0
957.79,132.0
957.85,130.0
957.91,133.0
957.98,126.0
958.04,148.0
958.1,141.0
958.17,134.0
958.23,134.0
958.29,159.0
958.36,149.0
958.42,141.0
958.48,150.0
958.54,152.0
958.61,164.0
958.67,140.0
958.73,151.0
958.8,145.0
958.86,129.0
958.92,131.0
958.99,148.0
959.05,147.0
959.11,138.0
959.17,138.0
959.24,143.0
959.3,134.0
959.36,125.0
959.43,145.0
959.49,141.0
959.55,132.0
959.62,152.0
959.68,156.0
959.74,149.0
959.8,146.0
959.87,138.0
959.93,153.0
959.99,165.0
960.06,170.0
960.12,185.0
960.18,160.0
960.25,172.0
960.31,173.0
960.37,148.0
960.43,149.0
960.5,150.0
960.56,166.0
960.62,168.0
960.69,162.0
960.75,158.0
960.81,150.0
960.88,178.0
960.94,152.0
961.0,159.0
961.06,136.0
961.13,141.0
961.19,143.0
961.25,153.0
961.32,148.0
961.38,137.0
961.44,131.0
961.51,136.0
961.57,157.0
961.63,150.0
961.69,140.0
961.76,151.0
961.82,163.0
961.88,159.0
961.95,152.0
962.01,156.0
962.07,160.0
962.14,170.0
962.2,157.0
962.26,156.0
962.32,164.0
962.39,165.0
962.45,150.0
962.51,152.0
962.58,143.0
962.64,133.0
962.7,142.0
962.77,144.0
962.83,156.0
962.89,133.0
962.95,125.0
963.02,116.0
963.08,120.0
963.14,133.0
963.21,141.0
963.27,141.0
963.33,137.0
963.4,141.0
963.46,138.0
963.52,141.0
963.58,126.0
963.65,134.0
963.71,146.0
963.77,142.0
963.84,137.0
963.9,120.0
963.96,121.0
964.03,136.0
964.09,147.0
964.15,150.0
964.21,167.0
964.28,154.0
964.34,139.0
964.4,141.0
964.47,134.0
964.53,139.0
964.59,122.0
964.66,112.0
964.72,136.0
964.78,141.0
964.84,155.0
964.91,149.0
964.97,146.0
965.03,152.0
965.1,163.0
965.16,146.0
965.22,150.0
965.29,155.0
965.35,149.0
965.41,139.0
965.47,136.0
965.54,142.0
965.6,143.0
965.66,169.0
965.73,151.0
965.79,145.0
965.85,147.0
965.92,157.0
965.98,138.0
966.04,138.0
966.1,141.0
966.17,159.0
966.23,155.0
966.29,152.0
966.36,152.0
966.42,131.0
966.48,167.0
966.55,169.0
966.61,155.0
966.67,141.0
966.73,142.0
966.8,140.0
966.86,131.0
966.92,144.0
966.99,130.0
967.05,129.0
967.11,154.0
967.18,153.0
967.24,142.0
967.3,130.0
967.36,115.0
967.43,112.0
967.49,117.0
967.55,119.0
967.62,115.0
967.68,130.0
967.74,130.0
967.81,148.0
967.87,132.0
967.93,128.0
967.99,138.0
968.06,156.0
968.12,156.0
968.18,142.0
968.25,151.0
968.31,149.0
968.37,141.0
968.44,152.0
968.5,159.0
968.56,166.0
968.62,169.0
968.69,179.0
968.75,189.0
968.81,161.0
968.88,170.0
968.94,168.0
969.0,176.0
969.07,180.0
969.13,169.0
969.19,152.0
969.25,158.0
969.32,175.0
969.38,162.0
969.44,159.0
969.51,137.0
969.57,167.0
969.63,150.0
969.7,155.0
969.76,153.0
969.82,138.0
969.88,168.0
969.95,156.0
970.01,159.0
970.07,152.0
970.14,154.0
970.2,181.0
970.26,177.0
970.33,181.0
970.39,164.0
970.45,163.0
970.51,169.0
970.58,154.0
970.64,148.0
970.7,165.0
970.77,172.0
970.83,161.0
970.89,174.0
970.96,170.0
971.02,184.0
971.08,175.0
971.14,167.0
971.21,156.0
971.27,170.0
971.33,164.0
971.4,163.0
971.46,148.0
971.52,142.0
971.59,149.0
971.65,149.0
971.71,138.0
971.77,122.0
971.84,118.0
971.9,117.0
971.96,122.0
972.03,127.0
972.09,133.0
972.15,116.0
972.22,115.0
972.28,119.0
972.34,118.0
972.4,131.0
972.47,152.0
972.53,130.0
972.59,121.0
972.66,135.0
972.72,120.0
972.78,119.0
972.85,108.0
972.91,118.0
972.97,125.0
973.03,119.0
973.1,124.0
973.16,145.0
973.22,108.0
973.29,106.0
973.35,139.0
973.41,131.0
973.48,142.0
973.54,133.0
973.6,122.0
973.66,119.0
973.73,114.0
973.79,122.0
973.85,119.0
973.92,114.0
973.98,103.0
974.04,115.0
974.11,96.0
974.17,103.0
974.23,105.0
974.29,97.0
974.36,119.0
974.42,97.0
974.48,104.0
974.55,101.0
974.61,106.0
974.67,119.0
974.74,120.0
974.8,116.0
974.86,130.0
974.92,134.0
974.99,120.0
975.05,105.0
975.11,115.0
975.18,106.0
975.24,100.0
975.3,112.0
975.37,118.0
975.43,130.0
975.49,125.0
975.55,106.0
975.62,93.0
975.68,97.0
975.74,92.0
975.81,89.0
975.87,94.0
975.93,99.0
976.0,79.0
976.06,86.0
976.12,104.0
976.18,90.0
976.25,119.0
976.31,127.0
976.37,105.0
976.44,109.0
976.5,91.0
976.56,93.0
976.63,96.0
976.69,103.0
976.75,93.0
976.81,97.0
976.88,100.0
976.94,113.0
977.0,112.0
977.07,98.0
977.13,80.0
977.19,87.0
977.26,84.0
977.32,90.0
977.38,83.0
977.44,72.0
977.51,73.0
977.57,79.0
977.63,66.0
977.7,97.0
977.76,86.0
977.82,84.0
977.89,79.0
977.95,87.0
978.01,71.0
978.07,75.0
978.14,64.0
978.2,61.0
978.26,82.0
978.33,70.0
978.39,76.0
978.45,93.0
978.52,82.0
978.58,91.0
978.64,93.0
978.7,98.0
978.77,81.0
978.83,82.0
978.89,97.0
978.96,93.0
979.02,94.0
979.08,81.0
979.15,91.0
979.21,83.0
979.27,73.0
979.33,64.0
979.4,62.0
979.46,94.0
979.52,57.0
979.59,81.0
979.65,57.0
979.71,77.0
979.78,67.0
979.84,44.0
979.9,61.0
979.96,67.0
980.03,79.0
980.09,86.0
980.15,69.0
980.22,58.0
980.28,74.0
980.34,90.0
980.41,68.0
980.47,65.0
980.53,79.0
980.59,85.0
980.66,64.0
980.72,57.0
980.78,71.0
980.85,62.0
980.91,72.0
980.97,69.0
981.04,68.0
981.1,60.0
981.16,48.0
981.22,56.0
981.29,48.0
981.35,52.0
981.41,41.0
981.48,61.0
981.54,84.0
981.6,61.0
981.67,42.0
981.73,23.0
981.79,26.0
981.85,47.0
981.92,35.0
981.98,58.0
982.04,82.0
982.11,70.0
982.17,57.0
982.23,63.0
982.3,63.0
982.36,56.0
982.42,63.0
982.48,64.0
982.55,44.0
982.61,78.0
982.67,98.0
982.74,100.0
982.8,89.0
982.86,67.0
982.93,82.0
982.99,99.0
983.05,81.0
983.11,94.0
983.18,91.0
983.24,102.0
983.3,109.0
983.37,111.0
983.43,123.0
983.49,128.0
983.56,126.0
983.62,109.0
983.68,128.0
983.74,139.0
983.81,135.0
983.87,127.0
983.93,145.0
984.0,151.0
984.06,148.0
984.12,144.0
984.19,143.0
984.25,134.0
984.31,150.0
984.37,135.0
984.44,130.0
984.5,133.0
984.56,136.0
984.63,140.0
984.69,128.0
984.75,116.0
984.82,146.0
984.88,127.0
984.94,126.0
985.0,139.0
985.07,151.0
985.13,152.0
985.19,168.0
985.26,166.0
985.32,174.0
985.38,171.0
985.45,175.0
985.51,193.0
985.57,178.0
985.63,178.0
985.7,174.0
985.76,213.0
985.82,193.0
985.89,203.0
985.95,199.0
986.01,197.0
986.08,186.0
986.14,152.0
986.2,153.0
986.26,158.0
986.33,160.0
986.39,159.0
986.45,156.0
986.52,172.0
986.58,153.0
986.64,141.0
986.71,141.0
986.77,148.0
986.83,156.0
986.89,169.0
986.96,185.0
987.02,167.0
987.08,170.0
987.15,189.0
987.21,170.0
987.27,171.0
987.34,171.0
987.4,166.0
987.46,158.0
987.52,187.0
987.59,173.0
987.65,178.0
987.71,161.0
987.78,176.0
987.84,181.0
987.9,172.0
987.97,187.0
988.03,189.0
988.09,167.0
988.15,169.0
988.22,198.0
988.28,196.0
988.34,192.0
988.41,182.0
988.47,163.0
988.53,185.0
988.6,186.0
988.66,181.0
988.72,180.0
988.78,182.0
988.85,172.0
988.91,164.0
988.97,172.0
989.04,164.0
989.1,152.0
989.16,133.0
989.23,155.0
989.29,144.0
989.35,145.0
989.41,143.0
989.48,127.0
989.54,125.0
989.6,138.0
989.67,148.0
989.73,141.0
989.79,156.0
989.86,171.0
989.92,195.0
989.98,177.0
990.04,167.0
990.11,159.0
990.17,163.0
990.23,176.0
990.3,156.0
990.36,152.0
990.42,160.0
990.49,137.0
990.55,167.0
990.61,175.0
990.67,162.0
990.74,149.0
990.8,142.0
990.86,145.0
990.93,161.0
990.99,145.0
991.05,141.0
991.12,165.0
991.18,168.0
991.24,156.0
991.3,149.0
991.37,158.0
991.43,180.0
991.49,175.0
991.56,190.0
991.62,186.0
991.68,170.0
991.75,158.0
991.81,185.0
991.87,189.0
991.93,155.0
992.0,164.0
992.06,153.0
992.12,163.0
992.19,178.0
992.25,159.0
992.31,169.0
992.38,147.0
992.44,154.0
992.5,174.0
992.56,156.0
992.63,167.0
992.69,159.0
992.75,163.0
992.82,173.0
992.88,186.0
992.94,172.0
993.01,179.0
993.07,188.0
993.13,182.0
993.19,187.0
993.26,172.0
993.32,176.0
993.38,168.0
993.45,165.0
993.51,175.0
993.57,172.0
993.64,186.0
993.7,188.0
993.76,177.0
993.82,181.0
993.89,186.0
993.95,180.0
994.01,174.0
994.08,189.0
994.14,197.0
994.2,186.0
994.27,200.0
994.33,198.0
994.39,192.0
994.45,198.0
994.52,178.0
994.58,172.0
994.64,169.0
994.71,157.0
994.77,207.0
994.83,177.0
994.9,148.0
994.96,159.0
995.02,170.0
995.08,178.0
995.15,171.0
995.21,148.0
995.27,143.0
995.34,169.0
995.4,182.0
995.46,156.0
995.53,163.0
995.59,158.0
995.65,155.0
995.71,149.0
995.78,147.0
995.84,127.0
995.9,149.0
995.97,145.0
996.03,149.0
996.09,160.0
996.16,156.0
996.22,146.0
996.28,129.0
996.34,145.0
996.41,164.0
996.47,145.0
996.53,153.0
996.6,149.0
996.66,139.0
996.72,137.0
996.79,108.0
996.85,97.0
996.91,108.0
996.97,112.0
997.04,128.0
997.1,112.0
997.16,110.0
997.23,107.0
997.29,120.0
997.35,133.0
997.42,135.0
997.48,114.0
997.54,125.0
997.6,119.0
997.67,146.0
997.73,136.0
997.79,114.0
997.86,130.0
997.92,142.0
997.98,136.0
998.05,146.0
998.11,151.0
998.17,158.0
998.23,139.0
998.3,124.0
998.36,126.0
998.42,124.0
998.49,135.0
998.55,143.0
998.61,136.0
998.68,132.0
998.74,130.0
998.8,141.0
998.86,133.0
998.93,128.0
998.99,130.0
999.05,115.0
999.12,123.0
999.18,111.0
999.24,123.0
999.31,123.0
999.37,109.0
999.43,110.0
999.49,107.0
999.56,109.0
999.62,116.0
999.68,100.0
999.75,114.0
999.81,133.0
999.87,118.0
