timestamp,intensity
0,-305.0
0.06,-331.0
0.13,-319.0
0.19,-323.0
0.25,-322.0
0.32,-293.0
0.38,-302.0
0.44,-290.0
0.5,-306.0
0.57,-331.0
0.63,-321.0
0.69,-324.0
0.76,-309.0
0.82,-312.0
0.88,-299.0
0.94,-302.0
1.01,-313.0
1.07,-320.0
1.13,-311.0
1.2,-313.0
1.26,-316.0
1.32,-319.0
1.39,-305.0
1.45,-312.0
1.51,-306.0
1.57,-314.0
1.64,-328.0
1.7,-302.0
1.76,-292.0
1.83,-299.0
1.89,-292.0
1.95,-290.0
2.02,-286.0
2.08,-286.0
2.14,-276.0
2.2,-278.0
2.27,-296.0
2.33,-279.0
2.39,-292.0
2.46,-305.0
2.52,-308.0
2.58,-303.0
2.65,-301.0
2.71,-268.0
2.77,-267.0
2.84,-294.0
2.9,-285.0
2.96,-283.0
3.02,-288.0
3.09,-305.0
3.15,-287.0
3.21,-277.0
3.28,-287.0
3.34,-282.0
3.4,-280.0
3.47,-262.0
3.53,-266.0
3.59,-277.0
3.65,-267.0
3.72,-255.0
3.78,-262.0
3.84,-270.0
3.91,-262.0
3.97,-250.0
4.03,-263.0
4.1,-279.0
4.16,-270.0
4.22,-273.0
4.28,-274.0
4.35,-269.0
4.41,-260.0
4.47,-260.0
4.54,-263.0
4.6,-257.0
4.66,-248.0
4.73,-265.0
4.79,-261.0
4.85,-263.0
4.91,-249.0
4.98,-256.0
5.04,-240.0
5.1,-236.0
5.17,-244.0
5.23,-246.0
5.29,-242.0
5.35,-262.0
5.42,-234.0
5.48,-270.0
5.54,-266.0
5.61,-255.0
5.67,-279.0
5.73,-255.0
5.8,-261.0
5.86,-257.0
5.92,-265.0
5.98,-273.0
6.05,-265.0
6.11,-264.0
6.17,-271.0
6.24,-262.0
6.3,-272.0
6.36,-270.0
6.43,-276.0
6.49,-275.0
6.55,-280.0
6.61,-277.0
6.68,-263.0
6.74,-274.0
6.8,-292.0
6.87,-293.0
6.93,-283.0
6.99,-308.0
7.06,-287.0
7.12,-277.0
7.18,-267.0
7.24,-273.0
7.31,-300.0
7.37,-286.0
7.43,-277.0
7.5,-251.0
7.56,-254.0
7.62,-267.0
7.69,-277.0
7.75,-265.0
7.81,-264.0
7.87,-248.0
7.94,-258.0
8.0,-237.0
8.06,-247.0
8.13,-252.0
8.19,-241.0
8.25,-242.0
8.32,-251.0
8.38,-257.0
8.44,-238.0
8.5,-242.0
8.57,-249.0
8.63,-240.0
8.69,-217.0
8.76,-223.0
8.82,-243.0
8.88,-222.0
8.95,-230.0
9.01,-233.0
9.07,-212.0
9.13,-204.0
9.2,-189.0
9.26,-199.0
9.32,-201.0
9.39,-189.0
9.45,-203.0
9.51,-172.0
9.58,-178.0
9.64,-173.0
9.7,-171.0
9.77,-147.0
9.83,-156.0
9.89,-157.0
9.95,-171.0
10.02,-158.0
10.08,-147.0
10.14,-148.0
10.21,-158.0
10.27,-163.0
10.33,-131.0
10.4,-146.0
10.46,-154.0
10.52,-148.0
10.58,-148.0
10.65,-140.0
10.71,-140.0
10.77,-148.0
10.84,-139.0
10.9,-153.0
10.96,-156.0
11.03,-132.0
11.09,-144.0
11.15,-142.0
11.21,-143.0
11.28,-145.0
11.34,-162.0
11.4,-154.0
11.47,-142.0
11.53,-152.0
11.59,-160.0
11.66,-169.0
11.72,-147.0
11.78,-144.0
11.84,-145.0
11.91,-159.0
11.97,-164.0
12.03,-175.0
12.1,-175.0
12.16,-167.0
12.22,-184.0
12.29,-170.0
12.35,-179.0
12.41,-164.0
12.47,-164.0
12.54,-169.0
12.6,-180.0
12.66,-188.0
12.73,-193.0
12.79,-197.0
12.85,-198.0
12.92,-189.0
12.98,-182.0
13.04,-204.0
13.1,-199.0
13.17,-194.0
13.23,-192.0
13.29,-198.0
13.36,-208.0
13.42,-205.0
13.48,-192.0
13.55,-180.0
13.61,-174.0
13.67,-199.0
13.73,-194.0
13.8,-190.0
13.86,-214.0
13.92,-217.0
13.99,-225.0
14.05,-218.0
14.11,-209.0
14.18,-214.0
14.24,-188.0
14.3,-198.0
14.36,-209.0
14.43,-223.0
14.49,-219.0
14.55,-212.0
14.62,-221.0
14.68,-219.0
14.74,-234.0
14.81,-237.0
14.87,-228.0
14.93,-225.0
14.99,-246.0
15.06,-241.0
15.12,-230.0
15.18,-223.0
15.25,-222.0
15.31,-222.0
15.37,-216.0
15.44,-198.0
15.5,-216.0
15.56,-219.0
15.62,-196.0
15.69,-198.0
15.75,-224.0
15.81,-230.0
15.88,-223.0
15.94,-210.0
16.0,-217.0
16.07,-210.0
16.13,-204.0
16.19,-210.0
16.25,-216.0
16.32,-196.0
16.38,-193.0
16.44,-193.0
16.51,-184.0
16.57,-196.0
16.63,-202.0
16.7,-167.0
16.76,-174.0
16.82,-192.0
16.88,-205.0
16.95,-192.0
17.01,-185.0
17.07,-181.0
17.14,-179.0
17.2,-190.0
17.26,-190.0
17.33,-181.0
17.39,-180.0
17.45,-188.0
17.51,-179.0
17.58,-180.0
17.64,-191.0
17.7,-175.0
17.77,-183.0
17.83,-193.0
17.89,-210.0
17.96,-220.0
18.02,-196.0
18.08,-193.0
18.14,-195.0
18.21,-189.0
18.27,-183.0
18.33,-199.0
18.4,-186.0
18.46,-189.0
18.52,-205.0
18.59,-213.0
18.65,-201.0
18.71,-206.0
18.77,-195.0
18.84,-179.0
18.9,-182.0
18.96,-193.0
19.03,-186.0
19.09,-194.0
19.15,-174.0
19.22,-180.0
19.28,-202.0
19.34,-195.0
19.4,-198.0
19.47,-178.0
19.53,-182.0
19.59,-168.0
19.66,-177.0
19.72,-172.0
19.78,-177.0
19.84,-184.0
19.91,-169.0
19.97,-186.0
20.03,-190.0
20.1,-200.0
20.16,-200.0
20.22,-196.0
20.29,-205.0
20.35,-216.0
20.41,-214.0
20.47,-195.0
20.54,-200.0
20.6,-203.0
20.66,-202.0
20.73,-195.0
20.79,-202.0
20.85,-207.0
20.92,-212.0
20.98,-223.0
21.04,-216.0
21.1,-214.0
21.17,-222.0
21.23,-232.0
21.29,-219.0
21.36,-230.0
21.42,-234.0
21.48,-222.0
21.55,-202.0
21.61,-225.0
21.67,-242.0
21.73,-228.0
21.8,-239.0
21.86,-231.0
21.92,-239.0
21.99,-233.0
22.05,-227.0
22.11,-232.0
22.18,-234.0
22.24,-237.0
22.3,-229.0
22.36,-215.0
22.43,-217.0
22.49,-225.0
22.55,-220.0
22.62,-222.0
22.68,-216.0
22.74,-229.0
22.81,-247.0
22.87,-227.0
22.93,-248.0
22.99,-234.0
23.06,-227.0
23.12,-246.0
23.18,-231.0
23.25,-249.0
23.31,-224.0
23.37,-226.0
23.44,-259.0
23.5,-249.0
23.56,-259.0
23.62,-267.0
23.69,-270.0
23.75,-267.0
23.81,-275.0
23.88,-274.0
23.94,-268.0
24.0,-275.0
24.07,-271.0
24.13,-256.0
24.19,-283.0
24.25,-261.0
24.32,-232.0
24.38,-241.0
24.44,-238.0
24.51,-249.0
24.57,-233.0
24.63,-222.0
24.7,-213.0
24.76,-234.0
24.82,-215.0
24.88,-206.0
24.95,-197.0
25.01,-174.0
25.07,-194.0
25.14,-209.0
25.2,-190.0
25.26,-187.0
25.33,-178.0
25.39,-190.0
25.45,-172.0
25.51,-177.0
25.58,-182.0
25.64,-184.0
25.7,-173.0
25.77,-152.0
25.83,-174.0
25.89,-170.0
25.96,-172.0
26.02,-177.0
26.08,-163.0
26.14,-160.0
26.21,-134.0
26.27,-143.0
26.33,-144.0
26.4,-118.0
26.46,-122.0
26.52,-120.0
26.59,-113.0
26.65,-148.0
26.71,-154.0
26.77,-151.0
26.84,-139.0
26.9,-153.0
26.96,-145.0
27.03,-156.0
27.09,-180.0
27.15,-156.0
27.22,-143.0
27.28,-158.0
27.34,-147.0
27.4,-175.0
27.47,-163.0
27.53,-137.0
27.59,-145.0
27.66,-136.0
27.72,-141.0
27.78,-143.0
27.85,-145.0
27.91,-137.0
27.97,-140.0
28.03,-143.0
28.1,-148.0
28.16,-161.0
28.22,-131.0
28.29,-142.0
28.35,-136.0
28.41,-155.0
28.48,-143.0
28.54,-150.0
28.6,-145.0
28.66,-171.0
28.73,-154.0
28.79,-152.0
28.85,-138.0
28.92,-144.0
28.98,-161.0
29.04,-142.0
29.11,-162.0
29.17,-176.0
29.23,-171.0
29.29,-159.0
29.36,-163.0
29.42,-125.0
29.48,-130.0
29.55,-150.0
29.61,-142.0
29.67,-153.0
29.74,-140.0
29.8,-151.0
29.86,-148.0
29.92,-150.0
29.99,-131.0
30.05,-140.0
30.11,-147.0
30.18,-151.0
30.24,-150.0
30.3,-125.0
30.37,-146.0
30.43,-141.0
30.49,-148.0
30.55,-154.0
30.62,-163.0
30.68,-162.0
30.74,-168.0
30.81,-139.0
30.87,-147.0
30.93,-138.0
31.0,-161.0
31.06,-166.0
31.12,-156.0
31.18,-155.0
31.25,-181.0
31.31,-171.0
31.37,-175.0
31.44,-172.0
31.5,-167.0
31.56,-158.0
31.63,-156.0
31.69,-146.0
31.75,-155.0
31.81,-155.0
31.88,-157.0
31.94,-152.0
32.0,-167.0
32.07,-174.0
32.13,-181.0
32.19,-176.0
32.26,-169.0
32.32,-177.0
32.38,-182.0
32.44,-183.0
32.51,-166.0
32.57,-171.0
32.63,-178.0
32.7,-159.0
32.76,-146.0
32.82,-165.0
32.89,-167.0
32.95,-165.0
33.01,-162.0
33.07,-165.0
33.14,-168.0
33.2,-171.0
33.26,-159.0
33.33,-173.0
33.39,-152.0
33.45,-132.0
33.52,-131.0
33.58,-148.0
33.64,-165.0
33.7,-140.0
33.77,-143.0
33.83,-135.0
33.89,-151.0
33.96,-168.0
34.02,-165.0
34.08,-148.0
34.15,-146.0
34.21,-152.0
34.27,-134.0
34.33,-145.0
34.4,-148.0
34.46,-141.0
34.52,-141.0
34.59,-132.0
34.65,-125.0
34.71,-122.0
34.78,-104.0
34.84,-118.0
34.9,-128.0
34.96,-138.0
35.03,-124.0
35.09,-116.0
35.15,-125.0
35.22,-128.0
35.28,-107.0
35.34,-127.0
35.41,-111.0
35.47,-110.0
35.53,-123.0
35.59,-128.0
35.66,-127.0
35.72,-126.0
35.78,-136.0
35.85,-112.0
35.91,-128.0
35.97,-144.0
36.04,-146.0
36.1,-148.0
36.16,-114.0
36.22,-120.0
36.29,-104.0
36.35,-84.0
36.41,-98.0
36.48,-79.0
36.54,-67.0
36.6,-74.0
36.67,-88.0
36.73,-80.0
36.79,-93.0
36.85,-84.0
36.92,-90.0
36.98,-91.0
37.04,-65.0
37.11,-73.0
37.17,-87.0
37.23,-74.0
37.3,-66.0
37.36,-85.0
37.42,-67.0
37.48,-69.0
37.55,-67.0
37.61,-104.0
37.67,-97.0
37.74,-91.0
37.8,-94.0
37.86,-88.0
37.93,-95.0
37.99,-65.0
38.05,-74.0
38.12,-88.0
38.18,-82.0
38.24,-75.0
38.3,-76.0
38.37,-71.0
38.43,-78.0
38.49,-87.0
38.56,-77.0
38.62,-72.0
38.68,-65.0
38.75,-61.0
38.81,-90.0
38.87,-102.0
38.93,-91.0
39.0,-81.0
39.06,-69.0
39.12,-77.0
39.19,-70.0
39.25,-82.0
39.31,-92.0
39.38,-100.0
39.44,-99.0
39.5,-105.0
39.56,-108.0
39.63,-88.0
39.69,-96.0
39.75,-112.0
39.82,-131.0
39.88,-119.0
39.94,-139.0
40.01,-124.0
40.07,-122.0
40.13,-122.0
40.19,-117.0
40.26,-106.0
40.32,-112.0
40.38,-110.0
40.45,-104.0
40.51,-118.0
40.57,-104.0
40.64,-112.0
40.7,-106.0
40.76,-106.0
40.82,-95.0
40.89,-110.0
40.95,-107.0
41.01,-116.0
41.08,-137.0
41.14,-116.0
41.2,-115.0
41.27,-129.0
41.33,-117.0
41.39,-114.0
41.45,-105.0
41.52,-114.0
41.58,-107.0
41.64,-92.0
41.71,-105.0
41.77,-108.0
41.83,-121.0
41.9,-104.0
41.96,-121.0
42.02,-112.0
42.08,-124.0
42.15,-125.0
42.21,-108.0
42.27,-124.0
42.34,-118.0
42.4,-118.0
42.46,-109.0
42.53,-110.0
42.59,-115.0
42.65,-109.0
42.71,-117.0
42.78,-113.0
42.84,-117.0
42.9,-114.0
42.97,-100.0
43.03,-103.0
43.09,-98.0
43.16,-88.0
43.22,-81.0
43.28,-87.0
43.34,-86.0
43.41,-79.0
43.47,-70.0
43.53,-86.0
43.6,-85.0
43.66,-78.0
43.72,-76.0
43.79,-68.0
43.85,-83.0
43.91,-77.0
43.97,-58.0
44.04,-64.0
44.1,-58.0
44.16,-66.0
44.23,-70.0
44.29,-74.0
44.35,-68.0
44.42,-58.0
44.48,-30.0
44.54,-37.0
44.6,-27.0
44.67,-30.0
44.73,-15.0
44.79,1.0
44.86,-25.0
44.92,-25.0
44.98,-32.0
45.05,-11.0
45.11,-21.0
45.17,-19.0
45.23,-33.0
45.3,-41.0
45.36,-38.0
45.42,-48.0
45.49,-44.0
45.55,-38.0
45.61,-55.0
45.68,-43.0
45.74,-40.0
45.8,-41.0
45.86,-35.0
45.93,-34.0
45.99,-52.0
46.05,-65.0
46.12,-58.0
46.18,-64.0
46.24,-75.0
46.31,-58.0
46.37,-44.0
46.43,-52.0
46.49,-43.0
46.56,-46.0
46.62,-55.0
46.68,-44.0
46.75,-51.0
46.81,-61.0
46.87,-69.0
46.94,-67.0
47.0,-57.0
47.06,-71.0
47.12,-84.0
47.19,-94.0
47.25,-77.0
47.31,-85.0
47.38,-96.0
47.44,-85.0
47.5,-108.0
47.57,-97.0
47.63,-89.0
47.69,-100.0
47.75,-91.0
47.82,-87.0
47.88,-93.0
47.94,-99.0
48.01,-106.0
48.07,-109.0
48.13,-106.0
48.2,-103.0
48.26,-88.0
48.32,-106.0
48.38,-111.0
48.45,-118.0
48.51,-97.0
48.57,-96.0
48.64,-99.0
48.7,-108.0
48.76,-116.0
48.83,-117.0
48.89,-134.0
48.95,-101.0
49.01,-103.0
49.08,-86.0
49.14,-108.0
49.2,-112.0
49.27,-99.0
49.33,-102.0
49.39,-111.0
49.46,-117.0
49.52,-109.0
49.58,-103.0
49.64,-134.0
49.71,-134.0
49.77,-125.0
49.83,-138.0
49.9,-135.0
49.96,-142.0
50.02,-123.0
50.09,-128.0
50.15,-118.0
50.21,-137.0
50.27,-129.0
50.34,-116.0
50.4,-101.0
50.46,-107.0
50.53,-118.0
50.59,-107.0
50.65,-105.0
50.72,-103.0
50.78,-119.0
50.84,-114.0
50.9,-79.0
50.97,-85.0
51.03,-99.0
51.09,-95.0
51.16,-95.0
51.22,-98.0
51.28,-98.0
51.35,-101.0
51.41,-98.0
51.47,-83.0
51.53,-87.0
51.6,-73.0
51.66,-62.0
51.72,-88.0
51.79,-100.0
51.85,-90.0
51.91,-102.0
51.98,-83.0
52.04,-108.0
52.1,-94.0
52.16,-102.0
52.23,-101.0
52.29,-68.0
52.35,-84.0
52.42,-89.0
52.48,-87.0
52.54,-89.0
52.61,-69.0
52.67,-59.0
52.73,-74.0
52.79,-34.0
52.86,-49.0
52.92,-77.0
52.98,-60.0
53.05,-52.0
53.11,-76.0
53.17,-85.0
53.24,-80.0
53.3,-71.0
53.36,-82.0
53.42,-79.0
53.49,-72.0
53.55,-79.0
53.61,-65.0
53.68,-83.0
53.74,-73.0
53.8,-96.0
53.87,-80.0
53.93,-93.0
53.99,-86.0
54.05,-61.0
54.12,-74.0
54.18,-60.0
54.24,-71.0
54.31,-71.0
54.37,-77.0
54.43,-67.0
54.5,-69.0
54.56,-79.0
54.62,-90.0
54.68,-82.0
54.75,-73.0
54.81,-80.0
54.87,-76.0
54.94,-67.0
55.0,-76.0
55.06,-77.0
55.13,-88.0
55.19,-64.0
55.25,-78.0
55.31,-81.0
55.38,-75.0
55.44,-82.0
55.5,-81.0
55.57,-70.0
55.63,-58.0
55.69,-84.0
55.76,-67.0
55.82,-66.0
55.88,-67.0
55.94,-47.0
56.01,-54.0
56.07,-40.0
56.13,-78.0
56.2,-48.0
56.26,-57.0
56.32,-61.0
56.39,-52.0
56.45,-45.0
56.51,-53.0
56.57,-72.0
56.64,-72.0
56.7,-74.0
56.76,-83.0
56.83,-56.0
56.89,-98.0
56.95,-96.0
57.02,-92.0
57.08,-103.0
57.14,-115.0
57.2,-119.0
57.27,-115.0
57.33,-115.0
57.39,-119.0
57.46,-126.0
57.52,-102.0
57.58,-97.0
57.65,-97.0
57.71,-94.0
57.77,-76.0
57.83,-88.0
57.9,-73.0
57.96,-80.0
58.02,-82.0
58.09,-65.0
58.15,-76.0
58.21,-55.0
58.28,-39.0
58.34,-61.0
58.4,-65.0
58.46,-63.0
58.53,-46.0
58.59,-72.0
58.65,-65.0
58.72,-73.0
58.78,-65.0
58.84,-51.0
58.91,-70.0
58.97,-67.0
59.03,-80.0
59.09,-62.0
59.16,-74.0
59.22,-59.0
59.28,-56.0
59.35,-53.0
59.41,-57.0
59.47,-33.0
59.54,-28.0
59.6,-15.0
59.66,-7.0
59.72,-20.0
59.79,-18.0
59.85,-19.0
59.91,-3.0
59.98,-29.0
60.04,-20.0
60.1,-17.0
60.17,-18.0
60.23,-9.0
60.29,-6.0
60.35,-11.0
60.42,-21.0
60.48,-8.0
60.54,-8.0
60.61,3.0
60.67,22.0
60.73,21.0
60.8,15.0
60.86,23.0
60.92,34.0
60.98,39.0
61.05,32.0
61.11,15.0
61.17,25.0
61.24,25.0
61.3,17.0
61.36,23.0
61.43,17.0
61.49,25.0
61.55,19.0
61.61,26.0
61.68,33.0
61.74,23.0
61.8,14.0
61.87,8.0
61.93,23.0
61.99,14.0
62.06,5.0
62.12,11.0
62.18,11.0
62.24,20.0
62.31,8.0
62.37,32.0
62.43,31.0
62.5,24.0
62.56,30.0
62.62,27.0
62.69,22.0
62.75,1.0
62.81,-5.0
62.87,10.0
62.94,7.0
63.0,-9.0
63.06,-23.0
63.13,-1.0
63.19,12.0
63.25,-3.0
63.32,-5.0
63.38,-12.0
63.44,5.0
63.5,7.0
63.57,1.0
63.63,14.0
63.69,11.0
63.76,10.0
63.82,10.0
63.88,8.0
63.95,10.0
64.01,14.0
64.07,13.0
64.13,3.0
64.2,20.0
64.26,32.0
64.32,28.0
64.39,30.0
64.45,18.0
64.51,-6.0
64.58,6.0
64.64,22.0
64.7,9.0
64.76,5.0
64.83,7.0
64.89,15.0
64.95,-11.0
65.02,-37.0
65.08,-15.0
65.14,-18.0
65.21,-18.0
65.27,-7.0
65.33,-2.0
65.39,-12.0
65.46,-11.0
65.52,-13.0
65.58,-18.0
65.65,-16.0
65.71,-1.0
65.77,-19.0
65.84,-19.0
65.9,-13.0
65.96,-23.0
66.02,-13.0
66.09,-16.0
66.15,5.0
66.21,-8.0
66.28,-8.0
66.34,2.0
66.4,-6.0
66.47,-26.0
66.53,-30.0
66.59,-10.0
66.65,-32.0
66.72,-18.0
66.78,-25.0
66.84,-29.0
66.91,-24.0
66.97,-37.0
67.03,-26.0
67.1,-6.0
67.16,-13.0
67.22,-34.0
67.28,-35.0
67.35,-32.0
67.41,-26.0
67.47,-15.0
67.54,-48.0
67.6,-49.0
67.66,-51.0
67.73,-59.0
67.79,-60.0
67.85,-42.0
67.91,-80.0
67.98,-71.0
68.04,-62.0
68.1,-61.0
68.17,-52.0
68.23,-42.0
68.29,-52.0
68.36,-58.0
68.42,-69.0
68.48,-67.0
68.54,-60.0
68.61,-43.0
68.67,-33.0
68.73,-41.0
68.8,-37.0
68.86,-53.0
68.92,-57.0
68.99,-42.0
69.05,-60.0
69.11,-42.0
69.17,-52.0
69.24,-46.0
69.3,-55.0
69.36,-63.0
69.43,-30.0
69.49,-49.0
69.55,-40.0
69.62,-24.0
69.68,-31.0
69.74,-19.0
69.8,-23.0
69.87,-29.0
69.93,-27.0
69.99,-17.0
70.06,-10.0
70.12,-4.0
70.18,-7.0
70.25,-18.0
70.31,-11.0
70.37,-1.0
70.43,1.0
70.5,11.0
70.56,-3.0
70.62,5.0
70.69,7.0
70.75,-1.0
70.81,-16.0
70.88,-7.0
70.94,0.0
71.0,-8.0
71.06,0.0
71.13,1.0
71.19,-4.0
71.25,6.0
71.32,0.0
71.38,-5.0
71.44,10.0
71.51,-6.0
71.57,1.0
71.63,1.0
71.69,-5.0
71.76,-2.0
71.82,-10.0
71.88,-2.0
71.95,-4.0
72.01,-22.0
72.07,-22.0
72.14,-30.0
72.2,-38.0
72.26,-46.0
72.32,-36.0
72.39,-4.0
72.45,-24.0
72.51,-15.0
72.58,-14.0
72.64,-24.0
72.7,-14.0
72.77,-47.0
72.83,-45.0
72.89,-61.0
72.95,-44.0
73.02,-48.0
73.08,-46.0
73.14,-57.0
73.21,-72.0
73.27,-52.0
73.33,-49.0
73.4,-58.0
73.46,-63.0
73.52,-72.0
73.58,-84.0
73.65,-68.0
73.71,-54.0
73.77,-63.0
73.84,-59.0
73.9,-41.0
73.96,-41.0
74.03,-34.0
74.09,-41.0
74.15,-42.0
74.21,-25.0
74.28,-40.0
74.34,-35.0
74.4,-46.0
74.47,-41.0
74.53,-49.0
74.59,-35.0
74.66,-46.0
74.72,-41.0
74.78,-28.0
74.84,-46.0
74.91,-38.0
74.97,-45.0
75.03,-53.0
75.1,-8.0
75.16,-15.0
75.22,-18.0
75.29,-39.0
75.35,-40.0
75.41,-37.0
75.47,-52.0
75.54,-41.0
75.6,-48.0
75.66,-35.0
75.73,-9.0
75.79,-37.0
75.85,-23.0
75.92,-39.0
75.98,-19.0
76.04,-33.0
76.1,-43.0
76.17,-30.0
76.23,-18.0
76.29,0.0
76.36,-10.0
76.42,-21.0
76.48,-8.0
76.55,-19.0
76.61,-12.0
76.67,-15.0
76.73,-21.0
76.8,-16.0
76.86,0.0
76.92,-4.0
76.99,17.0
77.05,21.0
77.11,11.0
77.18,20.0
77.24,8.0
77.3,27.0
77.36,28.0
77.43,24.0
77.49,11.0
77.55,8.0
77.62,13.0
77.68,30.0
77.74,19.0
77.81,22.0
77.87,19.0
77.93,28.0
77.99,33.0
78.06,39.0
78.12,43.0
78.18,54.0
78.25,49.0
78.31,32.0
78.37,54.0
78.44,41.0
78.5,53.0
78.56,48.0
78.62,39.0
78.69,62.0
78.75,51.0
78.81,36.0
78.88,51.0
78.94,33.0
79.0,18.0
79.07,21.0
79.13,24.0
79.19,27.0
79.25,30.0
79.32,21.0
79.38,17.0
79.44,17.0
79.51,16.0
79.57,24.0
79.63,32.0
79.7,27.0
79.76,25.0
79.82,13.0
79.88,19.0
79.95,34.0
80.01,-5.0
80.07,28.0
80.14,42.0
80.2,38.0
80.26,45.0
80.33,46.0
80.39,42.0
80.45,43.0
80.51,54.0
80.58,53.0
80.64,66.0
80.7,52.0
80.77,63.0
80.83,46.0
80.89,60.0
80.96,86.0
81.02,64.0
81.08,64.0
81.14,49.0
81.21,60.0
81.27,71.0
81.33,39.0
81.4,21.0
81.46,58.0
81.52,43.0
81.59,33.0
81.65,47.0
81.71,31.0
81.77,53.0
81.84,55.0
81.9,40.0
81.96,46.0
82.03,31.0
82.09,40.0
82.15,28.0
82.22,32.0
82.28,30.0
82.34,31.0
82.4,46.0
82.47,22.0
82.53,24.0
82.59,43.0
82.66,24.0
82.72,32.0
82.78,23.0
82.85,20.0
82.91,20.0
82.97,25.0
83.03,19.0
83.1,23.0
83.16,11.0
83.22,25.0
83.29,12.0
83.35,11.0
83.41,29.0
83.48,30.0
83.54,31.0
83.6,4.0
83.66,19.0
83.73,13.0
83.79,8.0
83.85,-11.0
83.92,-24.0
83.98,-3.0
84.04,-8.0
84.11,-8.0
84.17,-17.0
84.23,-15.0
84.29,1.0
84.36,-12.0
84.42,-11.0
84.48,-13.0
84.55,-9.0
84.61,9.0
84.67,12.0
84.74,7.0
84.8,-5.0
84.86,19.0
84.92,27.0
84.99,21.0
85.05,21.0
85.11,16.0
85.18,34.0
85.24,17.0
85.3,17.0
85.37,37.0
85.43,31.0
85.49,40.0
85.55,32.0
85.62,42.0
85.68,36.0
85.74,38.0
85.81,40.0
85.87,52.0
85.93,31.0
86.0,30.0
86.06,38.0
86.12,61.0
86.18,42.0
86.25,35.0
86.31,45.0
86.37,60.0
86.44,61.0
86.5,31.0
86.56,54.0
86.63,49.0
86.69,54.0
86.75,48.0
86.81,50.0
86.88,30.0
86.94,31.0
87.0,58.0
87.07,47.0
87.13,32.0
87.19,51.0
87.26,42.0
87.32,15.0
87.38,37.0
87.44,39.0
87.51,30.0
87.57,44.0
87.63,55.0
87.7,38.0
87.76,49.0
87.82,69.0
87.89,66.0
87.95,51.0
88.01,73.0
88.07,93.0
88.14,82.0
88.2,74.0
88.26,49.0
88.33,63.0
88.39,68.0
88.45,82.0
88.52,73.0
88.58,64.0
88.64,63.0
88.7,63.0
88.77,83.0
88.83,89.0
88.89,99.0
88.96,76.0
89.02,70.0
89.08,96.0
89.15,95.0
89.21,102.0
89.27,80.0
89.33,70.0
89.4,60.0
89.46,49.0
89.52,65.0
89.59,69.0
89.65,74.0
89.71,86.0
89.78,75.0
89.84,56.0
89.9,58.0
89.96,65.0
90.03,64.0
90.09,78.0
90.15,72.0
90.22,69.0
90.28,60.0
90.34,66.0
90.41,58.0
90.47,80.0
90.53,64.0
90.59,50.0
90.66,71.0
90.72,56.0
90.78,44.0
90.85,27.0
90.91,14.0
90.97,42.0
91.04,55.0
91.1,46.0
91.16,25.0
91.22,30.0
91.29,37.0
91.35,14.0
91.41,23.0
91.48,29.0
91.54,12.0
91.6,20.0
91.67,20.0
91.73,28.0
91.79,23.0
91.85,12.0
91.92,29.0
91.98,9.0
92.04,11.0
92.11,11.0
92.17,14.0
92.23,-3.0
92.3,-9.0
92.36,-12.0
92.42,-9.0
92.48,10.0
92.55,-11.0
92.61,-7.0
92.67,-2.0
92.74,-15.0
92.8,8.0
92.86,1.0
92.93,-15.0
92.99,-2.0
93.05,6.0
93.11,9.0
93.18,2.0
93.24,12.0
93.3,24.0
93.37,16.0
93.43,24.0
93.49,23.0
93.56,5.0
93.62,31.0
93.68,32.0
93.74,36.0
93.81,49.0
93.87,25.0
93.93,31.0
94.0,26.0
94.06,35.0
94.12,45.0
94.19,70.0
94.25,36.0
94.31,42.0
94.37,45.0
94.44,43.0
94.5,59.0
94.56,49.0
94.63,35.0
94.69,41.0
94.75,71.0
94.82,63.0
94.88,79.0
94.94,69.0
95.0,63.0
95.07,55.0
95.13,85.0
95.19,71.0
95.26,57.0
95.32,58.0
95.38,73.0
95.45,72.0
95.51,89.0
95.57,63.0
95.63,79.0
95.7,95.0
95.76,82.0
95.82,94.0
95.89,84.0
95.95,95.0
96.01,114.0
96.08,112.0
96.14,99.0
96.2,103.0
96.26,107.0
96.33,110.0
96.39,113.0
96.45,104.0
96.52,96.0
96.58,108.0
96.64,118.0
96.71,117.0
96.77,117.0
96.83,99.0
96.89,112.0
96.96,93.0
97.02,77.0
97.08,90.0
97.15,82.0
97.21,95.0
97.27,100.0
97.34,97.0
97.4,76.0
97.46,67.0
97.52,91.0
97.59,71.0
97.65,88.0
97.71,65.0
97.78,62.0
97.84,61.0
97.9,68.0
97.97,52.0
98.03,49.0
98.09,46.0
98.15,41.0
98.22,60.0
98.28,85.0
98.34,83.0
98.41,79.0
98.47,62.0
98.53,53.0
98.6,62.0
98.66,69.0
98.72,63.0
98.78,47.0
98.85,56.0
98.91,46.0
98.97,49.0
99.04,32.0
99.1,26.0
99.16,35.0
99.23,47.0
99.29,54.0
99.35,42.0
99.41,55.0
99.48,55.0
99.54,42.0
99.6,42.0
99.67,36.0
99.73,37.0
99.79,36.0
99.86,38.0
99.92,30.0
99.98,40.0
100.04,36.0
100.11,27.0
100.17,48.0
100.23,48.0
100.3,33.0
100.36,50.0
100.42,36.0
100.49,34.0
100.55,24.0
100.61,46.0
100.67,58.0
100.74,64.0
100.8,54.0
100.86,40.0
100.93,61.0
100.99,62.0
101.05,56.0
101.12,28.0
101.18,30.0
101.24,42.0
101.3,47.0
101.37,43.0
101.43,27.0
101.49,46.0
101.56,41.0
101.62,27.0
101.68,17.0
101.75,-9.0
101.81,8.0
101.87,9.0
101.93,18.0
102.0,28.0
102.06,27.0
102.12,41.0
102.19,22.0
102.25,24.0
102.31,1.0
102.38,6.0
102.44,-19.0
102.5,-11.0
102.56,-15.0
102.63,-9.0
102.69,-7.0
102.75,6.0
102.82,-4.0
102.88,-5.0
102.94,-8.0
103.01,-10.0
103.07,13.0
103.13,17.0
103.19,21.0
103.26,30.0
103.32,23.0
103.38,10.0
103.45,14.0
103.51,18.0
103.57,20.0
103.64,6.0
103.7,13.0
103.76,15.0
103.82,23.0
103.89,29.0
103.95,23.0
104.01,17.0
104.08,13.0
104.14,22.0
104.2,8.0
104.27,7.0
104.33,-2.0
104.39,-21.0
104.45,1.0
104.52,-9.0
104.58,5.0
104.64,8.0
104.71,1.0
104.77,-8.0
104.83,-11.0
104.9,10.0
104.96,3.0
105.02,25.0
105.08,48.0
105.15,61.0
105.21,47.0
105.27,28.0
105.34,11.0
105.4,-1.0
105.46,2.0
105.53,3.0
105.59,22.0
105.65,21.0
105.71,25.0
105.78,22.0
105.84,22.0
105.9,31.0
105.97,16.0
106.03,18.0
106.09,29.0
106.16,42.0
106.22,9.0
106.28,3.0
106.34,12.0
106.41,0.0
106.47,-2.0
106.53,6.0
106.6,-3.0
106.66,-8.0
106.72,-1.0
106.79,-15.0
106.85,-11.0
106.91,-13.0
106.97,-13.0
107.04,4.0
107.1,-20.0
107.16,2.0
107.23,3.0
107.29,-4.0
107.35,-8.0
107.42,-40.0
107.48,-39.0
107.54,-27.0
107.6,-22.0
107.67,-26.0
107.73,-19.0
107.79,-13.0
107.86,-11.0
107.92,-29.0
107.98,-14.0
108.05,-3.0
108.11,-12.0
108.17,-6.0
108.23,2.0
108.3,-22.0
108.36,-26.0
108.42,-33.0
108.49,-19.0
108.55,-11.0
108.61,-15.0
108.68,-17.0
108.74,-37.0
108.8,-31.0
108.86,-60.0
108.93,-57.0
108.99,-41.0
109.05,-33.0
109.12,-47.0
109.18,-35.0
109.24,-29.0
109.31,-27.0
109.37,-13.0
109.43,-18.0
109.49,-5.0
109.56,-3.0
109.62,-8.0
109.68,-4.0
109.75,-13.0
109.81,-23.0
109.87,-12.0
109.94,-35.0
110.0,-18.0
110.06,-14.0
110.12,-30.0
110.19,-9.0
110.25,-11.0
110.31,-1.0
110.38,19.0
110.44,28.0
110.5,-2.0
110.57,18.0
110.63,21.0
110.69,12.0
110.75,29.0
110.82,22.0
110.88,37.0
110.94,20.0
111.01,31.0
111.07,26.0
111.13,12.0
111.2,9.0
111.26,26.0
111.32,30.0
111.38,29.0
111.45,39.0
111.51,18.0
111.57,35.0
111.64,30.0
111.7,43.0
111.76,49.0
111.83,41.0
111.89,59.0
111.95,57.0
112.01,48.0
112.08,40.0
112.14,52.0
112.2,56.0
112.27,57.0
112.33,53.0
112.39,55.0
112.46,52.0
112.52,54.0
112.58,47.0
112.64,80.0
112.71,70.0
112.77,68.0
112.83,76.0
112.9,77.0
112.96,76.0
113.02,77.0
113.09,92.0
113.15,82.0
113.21,94.0
113.27,107.0
113.34,112.0
113.4,89.0
113.46,87.0
113.53,99.0
113.59,106.0
113.65,112.0
113.72,110.0
113.78,121.0
113.84,118.0
113.9,107.0
113.97,113.0
114.03,113.0
114.09,110.0
114.16,104.0
114.22,111.0
114.28,92.0
114.35,106.0
114.41,116.0
114.47,115.0
114.53,104.0
114.6,125.0
114.66,133.0
114.72,118.0
114.79,129.0
114.85,115.0
114.91,116.0
114.98,128.0
115.04,133.0
115.1,123.0
115.16,110.0
115.23,111.0
115.29,115.0
115.35,106.0
115.42,98.0
115.48,111.0
115.54,93.0
115.61,108.0
115.67,94.0
115.73,82.0
115.79,89.0
115.86,82.0
115.92,107.0
115.98,88.0
116.05,87.0
116.11,85.0
116.17,76.0
116.24,80.0
116.3,58.0
116.36,66.0
116.42,72.0
116.49,70.0
116.55,82.0
116.61,77.0
116.68,81.0
116.74,99.0
116.8,70.0
116.87,70.0
116.93,84.0
116.99,75.0
117.05,88.0
117.12,63.0
117.18,81.0
117.24,74.0
117.31,66.0
117.37,70.0
117.43,60.0
117.5,59.0
117.56,66.0
117.62,70.0
117.68,60.0
117.75,48.0
117.81,45.0
117.87,55.0
117.94,53.0
118.0,57.0
118.06,53.0
118.13,48.0
118.19,43.0
118.25,46.0
118.31,36.0
118.38,33.0
118.44,13.0
118.5,5.0
118.57,30.0
118.63,28.0
118.69,37.0
118.76,25.0
118.82,41.0
118.88,38.0
118.94,43.0
119.01,49.0
119.07,52.0
119.13,49.0
119.2,36.0
119.26,26.0
119.32,46.0
119.39,46.0
119.45,38.0
119.51,44.0
119.57,30.0
119.64,28.0
119.7,34.0
119.76,26.0
119.83,35.0
119.89,26.0
119.95,33.0
120.02,32.0
120.08,38.0
120.14,9.0
120.2,13.0
120.27,25.0
120.33,29.0
120.39,26.0
120.46,24.0
120.52,49.0
120.58,37.0
120.65,39.0
120.71,52.0
120.77,47.0
120.83,51.0
120.9,51.0
120.96,31.0
121.02,44.0
121.09,54.0
121.15,30.0
121.21,35.0
121.28,44.0
121.34,43.0
121.4,33.0
121.46,45.0
121.53,48.0
121.59,53.0
121.65,42.0
121.72,35.0
121.78,22.0
121.84,35.0
121.91,26.0
121.97,47.0
122.03,16.0
122.09,24.0
122.16,30.0
122.22,38.0
122.28,34.0
122.35,30.0
122.41,49.0
122.47,73.0
122.54,63.0
122.6,76.0
122.66,51.0
122.72,44.0
122.79,23.0
122.85,45.0
122.91,62.0
122.98,41.0
123.04,52.0
123.1,40.0
123.17,41.0
123.23,35.0
123.29,52.0
123.35,36.0
123.42,28.0
123.48,30.0
123.54,31.0
123.61,31.0
123.67,40.0
123.73,23.0
123.8,30.0
123.86,39.0
123.92,7.0
123.98,10.0
124.05,10.0
124.11,14.0
124.17,-5.0
124.24,-14.0
124.3,-22.0
124.36,-12.0
124.43,-12.0
124.49,-10.0
124.55,-14.0
124.61,-16.0
124.68,-20.0
124.74,-19.0
124.8,-22.0
124.87,-46.0
124.93,-28.0
124.99,-32.0
125.06,-34.0
125.12,-23.0
125.18,-41.0
125.24,-41.0
125.31,-66.0
125.37,-41.0
125.43,-55.0
125.5,-56.0
125.56,-56.0
125.62,-30.0
125.69,-35.0
125.75,-23.0
125.81,-23.0
125.87,-33.0
125.94,-15.0
126.0,-22.0
126.06,-32.0
126.13,-18.0
126.19,-29.0
126.25,-22.0
126.32,-26.0
126.38,-31.0
126.44,-16.0
126.5,-3.0
126.57,12.0
126.63,11.0
126.69,9.0
126.76,11.0
126.82,23.0
126.88,3.0
126.95,17.0
127.01,-3.0
127.07,21.0
127.13,27.0
127.2,1.0
127.26,17.0
127.32,30.0
127.39,26.0
127.45,24.0
127.51,37.0
127.58,48.0
127.64,30.0
127.7,21.0
127.76,35.0
127.83,40.0
127.89,32.0
127.95,31.0
128.02,32.0
128.08,40.0
128.14,28.0
128.21,22.0
128.27,31.0
128.33,26.0
128.39,46.0
128.46,40.0
128.52,37.0
128.58,28.0
128.65,29.0
128.71,41.0
128.77,41.0
128.84,47.0
128.9,56.0
128.96,58.0
129.02,53.0
129.09,55.0
129.15,59.0
129.21,47.0
129.28,39.0
129.34,51.0
129.4,47.0
129.47,34.0
129.53,52.0
129.59,62.0
129.65,44.0
129.72,39.0
129.78,19.0
129.84,39.0
129.91,57.0
129.97,61.0
130.03,59.0
130.1,40.0
130.16,43.0
130.22,36.0
130.28,43.0
130.35,48.0
130.41,62.0
130.47,61.0
130.54,83.0
130.6,75.0
130.66,76.0
130.73,70.0
130.79,94.0
130.85,81.0
130.91,69.0
130.98,72.0
131.04,65.0
131.1,73.0
131.17,91.0
131.23,81.0
131.29,81.0
131.36,69.0
131.42,67.0
131.48,78.0
131.54,74.0
131.61,59.0
131.67,61.0
131.73,78.0
131.8,66.0
131.86,77.0
131.92,83.0
131.99,72.0
132.05,72.0
132.11,48.0
132.17,69.0
132.24,73.0
132.3,75.0
132.36,87.0
132.43,83.0
132.49,64.0
132.55,67.0
132.62,86.0
132.68,83.0
132.74,65.0
132.8,77.0
132.87,66.0
132.93,66.0
132.99,61.0
133.06,62.0
133.12,66.0
133.18,65.0
133.25,71.0
133.31,74.0
133.37,66.0
133.43,89.0
133.5,78.0
133.56,61.0
133.62,84.0
133.69,95.0
133.75,74.0
133.81,55.0
133.88,57.0
133.94,71.0
134.0,63.0
134.06,72.0
134.13,62.0
134.19,59.0
134.25,81.0
134.32,61.0
134.38,61.0
134.44,51.0
134.51,64.0
134.57,86.0
134.63,81.0
134.69,82.0
134.76,97.0
134.82,103.0
134.88,96.0
134.95,93.0
135.01,88.0
135.07,97.0
135.14,85.0
135.2,80.0
135.26,82.0
135.32,92.0
135.39,86.0
135.45,81.0
135.51,81.0
135.58,62.0
135.64,55.0
135.7,65.0
135.77,50.0
135.83,48.0
135.89,39.0
135.95,55.0
136.02,61.0
136.08,44.0
136.14,50.0
136.21,62.0
136.27,53.0
136.33,62.0
136.4,58.0
136.46,18.0
136.52,39.0
136.58,65.0
136.65,68.0
136.71,62.0
136.77,64.0
136.84,65.0
136.9,65.0
136.96,65.0
137.03,65.0
137.09,74.0
137.15,56.0
137.21,81.0
137.28,77.0
137.34,78.0
137.4,84.0
137.47,91.0
137.53,80.0
137.59,75.0
137.66,97.0
137.72,96.0
137.78,84.0
137.84,97.0
137.91,100.0
137.97,98.0
138.03,85.0
138.1,106.0
138.16,96.0
138.22,81.0
138.29,86.0
138.35,84.0
138.41,80.0
138.47,71.0
138.54,77.0
138.6,85.0
138.66,79.0
138.73,102.0
138.79,99.0
138.85,104.0
138.92,107.0
138.98,110.0
139.04,80.0
139.1,76.0
139.17,89.0
139.23,78.0
139.29,80.0
139.36,104.0
139.42,86.0
139.48,94.0
139.55,86.0
139.61,89.0
139.67,99.0
139.73,75.0
139.8,80.0
139.86,73.0
139.92,59.0
139.99,77.0
140.05,92.0
140.11,70.0
140.18,70.0
140.24,58.0
140.3,62.0
140.36,63.0
140.43,49.0
140.49,59.0
140.55,59.0
140.62,68.0
140.68,58.0
140.74,52.0
140.81,58.0
140.87,48.0
140.93,43.0
140.99,53.0
141.06,36.0
141.12,39.0
141.18,41.0
141.25,16.0
141.31,39.0
141.37,24.0
141.44,6.0
141.5,33.0
141.56,37.0
141.62,26.0
141.69,38.0
141.75,62.0
141.81,20.0
141.88,25.0
141.94,42.0
142.0,46.0
142.07,47.0
142.13,50.0
142.19,36.0
142.25,24.0
142.32,33.0
142.38,29.0
142.44,30.0
142.51,35.0
142.57,33.0
142.63,36.0
142.7,41.0
142.76,38.0
142.82,36.0
142.88,29.0
142.95,28.0
143.01,28.0
143.07,31.0
143.14,50.0
143.2,42.0
143.26,29.0
143.33,34.0
143.39,44.0
143.45,54.0
143.51,53.0
143.58,48.0
143.64,64.0
143.7,45.0
143.77,52.0
143.83,40.0
143.89,44.0
143.96,68.0
144.02,67.0
144.08,49.0
144.14,70.0
144.21,66.0
144.27,48.0
144.33,56.0
144.4,70.0
144.46,88.0
144.52,55.0
144.59,81.0
144.65,77.0
144.71,81.0
144.77,93.0
144.84,86.0
144.9,89.0
144.96,81.0
145.03,99.0
145.09,88.0
145.15,87.0
145.22,87.0
145.28,96.0
145.34,101.0
145.4,99.0
145.47,91.0
145.53,82.0
145.59,77.0
145.66,63.0
145.72,66.0
145.78,61.0
145.85,59.0
145.91,63.0
145.97,104.0
146.03,105.0
146.1,97.0
146.16,86.0
146.22,81.0
146.29,118.0
146.35,96.0
146.41,105.0
146.47,108.0
146.54,110.0
146.6,118.0
146.66,118.0
146.73,126.0
146.79,124.0
146.85,109.0
146.92,120.0
146.98,132.0
147.04,100.0
147.1,94.0
147.17,94.0
147.23,107.0
147.29,116.0
147.36,124.0
147.42,140.0
147.48,114.0
147.55,121.0
147.61,116.0
147.67,120.0
147.73,125.0
147.8,140.0
147.86,154.0
147.92,140.0
147.99,137.0
148.05,119.0
148.11,116.0
148.18,126.0
148.24,106.0
148.3,132.0
148.36,121.0
148.43,117.0
148.49,125.0
148.55,115.0
148.62,113.0
148.68,125.0
148.74,128.0
148.81,111.0
148.87,123.0
148.93,117.0
148.99,96.0
149.06,105.0
149.12,84.0
149.18,72.0
149.25,76.0
149.31,54.0
149.37,64.0
149.44,61.0
149.5,70.0
149.56,74.0
149.62,64.0
149.69,46.0
149.75,54.0
149.81,59.0
149.88,44.0
149.94,52.0
150.0,44.0
150.07,52.0
150.13,44.0
150.19,56.0
150.25,68.0
150.32,47.0
150.38,58.0
150.44,60.0
150.51,54.0
150.57,72.0
150.63,49.0
150.7,58.0
150.76,63.0
150.82,51.0
150.88,61.0
150.95,55.0
151.01,62.0
151.07,65.0
151.14,65.0
151.2,69.0
151.26,49.0
151.33,55.0
151.39,39.0
151.45,44.0
151.51,33.0
151.58,52.0
151.64,66.0
151.7,48.0
151.77,74.0
151.83,63.0
151.89,64.0
151.96,70.0
152.02,65.0
152.08,58.0
152.14,37.0
152.21,55.0
152.27,44.0
152.33,26.0
152.4,38.0
152.46,48.0
152.52,50.0
152.59,51.0
152.65,45.0
152.71,53.0
152.77,53.0
152.84,19.0
152.9,39.0
152.96,50.0
153.03,34.0
153.09,59.0
153.15,55.0
153.22,33.0
153.28,38.0
153.34,62.0
153.4,24.0
153.47,53.0
153.53,37.0
153.59,21.0
153.66,59.0
153.72,29.0
153.78,25.0
153.85,64.0
153.91,50.0
153.97,45.0
154.03,30.0
154.1,49.0
154.16,39.0
154.22,10.0
154.29,52.0
154.35,35.0
154.41,33.0
154.48,83.0
154.54,77.0
154.6,75.0
154.66,69.0
154.73,78.0
154.79,83.0
154.85,85.0
154.92,76.0
154.98,61.0
155.04,61.0
155.11,61.0
155.17,84.0
155.23,74.0
155.29,95.0
155.36,95.0
155.42,86.0
155.48,86.0
155.55,74.0
155.61,86.0
155.67,86.0
155.74,105.0
155.8,79.0
155.86,90.0
155.92,89.0
155.99,86.0
156.05,81.0
156.11,68.0
156.18,52.0
156.24,55.0
156.3,75.0
156.37,61.0
156.43,74.0
156.49,96.0
156.55,81.0
156.62,70.0
156.68,55.0
156.74,52.0
156.81,72.0
156.87,56.0
156.93,52.0
157.0,72.0
157.06,61.0
157.12,60.0
157.18,61.0
157.25,53.0
157.31,61.0
157.37,45.0
157.44,46.0
157.5,37.0
157.56,6.0
157.63,22.0
157.69,40.0
157.75,39.0
157.81,37.0
157.88,32.0
157.94,32.0
158.0,20.0
158.07,26.0
158.13,18.0
158.19,-3.0
158.26,11.0
158.32,-18.0
158.38,-12.0
158.44,2.0
158.51,6.0
158.57,7.0
158.63,-16.0
158.7,27.0
158.76,7.0
158.82,0.0
158.89,18.0
158.95,4.0
159.01,5.0
159.07,12.0
159.14,15.0
159.2,6.0
159.26,10.0
159.33,28.0
159.39,19.0
159.45,18.0
159.52,48.0
159.58,22.0
159.64,33.0
159.7,19.0
159.77,16.0
159.83,18.0
159.89,7.0
159.96,-4.0
160.02,-6.0
160.08,-3.0
160.15,7.0
160.21,12.0
160.27,-20.0
160.33,-11.0
160.4,-13.0
160.46,5.0
160.52,5.0
160.59,-11.0
160.65,-12.0
160.71,1.0
160.78,11.0
160.84,7.0
160.9,30.0
160.96,15.0
161.03,6.0
161.09,26.0
161.15,16.0
161.22,1.0
161.28,4.0
161.34,23.0
161.41,34.0
161.47,32.0
161.53,40.0
161.59,7.0
161.66,16.0
161.72,32.0
161.78,26.0
161.85,33.0
161.91,31.0
161.97,17.0
162.04,8.0
162.1,25.0
162.16,23.0
162.22,32.0
162.29,42.0
162.35,34.0
162.41,35.0
162.48,22.0
162.54,38.0
162.6,44.0
162.67,30.0
162.73,47.0
162.79,45.0
162.85,36.0
162.92,41.0
162.98,42.0
163.04,31.0
163.11,46.0
163.17,47.0
163.23,51.0
163.3,44.0
163.36,47.0
163.42,58.0
163.48,53.0
163.55,39.0
163.61,54.0
163.67,60.0
163.74,62.0
163.8,72.0
163.86,64.0
163.93,55.0
163.99,73.0
164.05,77.0
164.11,67.0
164.18,58.0
164.24,69.0
164.3,63.0
164.37,59.0
164.43,71.0
164.49,61.0
164.56,76.0
164.62,58.0
164.68,64.0
164.74,67.0
164.81,69.0
164.87,78.0
164.93,80.0
165.0,75.0
165.06,62.0
165.12,48.0
165.19,88.0
165.25,58.0
165.31,62.0
165.37,47.0
165.44,49.0
165.5,88.0
165.56,47.0
165.63,51.0
165.69,66.0
165.75,47.0
165.82,72.0
165.88,51.0
165.94,51.0
166.0,69.0
166.07,75.0
166.13,95.0
166.19,83.0
166.26,94.0
166.32,87.0
166.38,59.0
166.45,86.0
166.51,68.0
166.57,71.0
166.63,81.0
166.7,98.0
166.76,88.0
166.82,84.0
166.89,87.0
166.95,79.0
167.01,108.0
167.08,92.0
167.14,81.0
167.2,90.0
167.26,76.0
167.33,78.0
167.39,81.0
167.45,70.0
167.52,67.0
167.58,69.0
167.64,62.0
167.71,59.0
167.77,62.0
167.83,64.0
167.89,65.0
167.96,66.0
168.02,54.0
168.08,73.0
168.15,84.0
168.21,76.0
168.27,63.0
168.34,60.0
168.4,48.0
168.46,67.0
168.52,51.0
168.59,43.0
168.65,39.0
168.71,47.0
168.78,43.0
168.84,56.0
168.9,16.0
168.97,27.0
169.03,36.0
169.09,36.0
169.15,39.0
169.22,34.0
169.28,50.0
169.34,58.0
169.41,44.0
169.47,50.0
169.53,51.0
169.6,37.0
169.66,41.0
169.72,72.0
169.78,57.0
169.85,62.0
169.91,56.0
169.97,33.0
170.04,42.0
170.1,66.0
170.16,67.0
170.23,57.0
170.29,50.0
170.35,54.0
170.41,42.0
170.48,54.0
170.54,51.0
170.6,48.0
170.67,61.0
170.73,51.0
170.79,57.0
170.86,55.0
170.92,54.0
170.98,73.0
171.04,58.0
171.11,52.0
171.17,33.0
171.23,68.0
171.3,61.0
171.36,51.0
171.42,53.0
171.49,55.0
171.55,83.0
171.61,76.0
171.67,79.0
171.74,76.0
171.8,65.0
171.86,75.0
171.93,69.0
171.99,59.0
172.05,59.0
172.12,68.0
172.18,78.0
172.24,57.0
172.3,62.0
172.37,60.0
172.43,53.0
172.49,56.0
172.56,56.0
172.62,66.0
172.68,72.0
172.75,43.0
172.81,58.0
172.87,67.0
172.93,58.0
173.0,63.0
173.06,65.0
173.12,66.0
173.19,45.0
173.25,49.0
173.31,50.0
173.38,61.0
173.44,49.0
173.5,53.0
173.56,59.0
173.63,48.0
173.69,56.0
173.75,35.0
173.82,23.0
173.88,32.0
173.94,45.0
174.01,26.0
174.07,16.0
174.13,14.0
174.19,16.0
174.26,21.0
174.32,13.0
174.38,13.0
174.45,31.0
174.51,-1.0
174.57,11.0
174.64,25.0
174.7,24.0
174.76,15.0
174.82,2.0
174.89,3.0
174.95,-4.0
175.01,0.0
175.08,8.0
175.14,2.0
175.2,-6.0
175.27,-4.0
175.33,-7.0
175.39,-11.0
175.45,-8.0
175.52,7.0
175.58,3.0
175.64,0.0
175.71,-1.0
175.77,-7.0
175.83,-16.0
175.9,-24.0
175.96,-12.0
176.02,-1.0
176.08,-3.0
176.15,-17.0
176.21,-13.0
176.27,-27.0
176.34,-14.0
176.4,-30.0
176.46,-24.0
176.53,-36.0
176.59,-26.0
176.65,-4.0
176.71,-18.0
176.78,-10.0
176.84,-25.0
176.9,-21.0
176.97,-23.0
177.03,-7.0
177.09,0.0
177.16,-5.0
177.22,4.0
177.28,20.0
177.34,7.0
177.41,-13.0
177.47,-12.0
177.53,17.0
177.6,10.0
177.66,19.0
177.72,7.0
177.79,3.0
177.85,23.0
177.91,32.0
177.97,42.0
178.04,51.0
178.1,17.0
178.16,7.0
178.23,-2.0
178.29,18.0
178.35,40.0
178.42,34.0
178.48,44.0
178.54,47.0
178.6,42.0
178.67,33.0
178.73,40.0
178.79,56.0
178.86,69.0
178.92,69.0
178.98,37.0
179.05,48.0
179.11,38.0
179.17,54.0
179.23,49.0
179.3,59.0
179.36,69.0
179.42,45.0
179.49,56.0
179.55,74.0
179.61,66.0
179.68,86.0
179.74,94.0
179.8,80.0
179.86,70.0
179.93,98.0
179.99,115.0
180.05,104.0
180.12,85.0
180.18,73.0
180.24,88.0
180.31,93.0
180.37,100.0
180.43,97.0
180.49,83.0
180.56,92.0
180.62,85.0
180.68,82.0
180.75,102.0
180.81,117.0
180.87,122.0
180.94,131.0
181.0,137.0
181.06,142.0
181.12,124.0
181.19,153.0
181.25,133.0
181.31,119.0
181.38,99.0
181.44,117.0
181.5,118.0
181.57,110.0
181.63,118.0
181.69,119.0
181.75,114.0
181.82,120.0
181.88,94.0
181.94,87.0
182.01,96.0
182.07,82.0
182.13,102.0
182.2,89.0
182.26,84.0
182.32,94.0
182.38,88.0
182.45,100.0
182.51,105.0
182.57,96.0
182.64,92.0
182.7,87.0
182.76,113.0
182.83,105.0
182.89,105.0
182.95,100.0
183.01,110.0
183.08,102.0
183.14,88.0
183.2,94.0
183.27,77.0
183.33,72.0
183.39,85.0
183.46,70.0
183.52,88.0
183.58,100.0
183.64,90.0
183.71,109.0
183.77,105.0
183.83,106.0
183.9,101.0
183.96,91.0
184.02,99.0
184.09,114.0
184.15,117.0
184.21,116.0
184.27,105.0
184.34,104.0
184.4,95.0
184.46,82.0
184.53,86.0
184.59,101.0
184.65,83.0
184.72,85.0
184.78,75.0
184.84,83.0
184.9,78.0
184.97,56.0
185.03,84.0
185.09,56.0
185.16,66.0
185.22,62.0
185.28,43.0
185.35,56.0
185.41,55.0
185.47,57.0
185.53,58.0
185.6,55.0
185.66,68.0
185.72,66.0
185.79,44.0
185.85,53.0
185.91,48.0
185.98,40.0
186.04,21.0
186.1,7.0
186.16,26.0
186.23,26.0
186.29,21.0
186.35,19.0
186.42,16.0
186.48,15.0
186.54,31.0
186.61,23.0
186.67,37.0
186.73,28.0
186.79,53.0
186.86,47.0
186.92,77.0
186.98,36.0
187.05,53.0
187.11,45.0
187.17,15.0
187.24,43.0
187.3,32.0
187.36,32.0
187.42,40.0
187.49,41.0
187.55,40.0
187.61,27.0
187.68,33.0
187.74,38.0
187.8,21.0
187.87,21.0
187.93,18.0
187.99,23.0
188.05,35.0
188.12,20.0
188.18,22.0
188.24,28.0
188.31,42.0
188.37,23.0
188.43,35.0
188.5,47.0
188.56,51.0
188.62,61.0
188.68,69.0
188.75,72.0
188.81,59.0
188.87,75.0
188.94,53.0
189.0,62.0
189.06,78.0
189.13,69.0
189.19,58.0
189.25,80.0
189.31,94.0
189.38,90.0
189.44,89.0
189.5,55.0
189.57,60.0
189.63,79.0
189.69,80.0
189.76,71.0
189.82,75.0
189.88,64.0
189.94,61.0
190.01,54.0
190.07,45.0
190.13,54.0
190.2,45.0
190.26,64.0
190.32,79.0
190.39,65.0
190.45,63.0
190.51,67.0
190.57,51.0
190.64,68.0
190.7,69.0
190.76,58.0
190.83,64.0
190.89,61.0
190.95,56.0
191.02,69.0
191.08,64.0
191.14,60.0
191.2,56.0
191.27,59.0
191.33,61.0
191.39,63.0
191.46,40.0
191.52,59.0
191.58,50.0
191.65,31.0
191.71,43.0
191.77,27.0
191.83,43.0
191.9,14.0
191.96,10.0
192.02,45.0
192.09,18.0
192.15,15.0
192.21,-11.0
192.28,-13.0
192.34,-17.0
192.4,-9.0
192.46,18.0
192.53,7.0
192.59,-6.0
192.65,17.0
192.72,-5.0
192.78,19.0
192.84,21.0
192.91,27.0
192.97,47.0
193.03,43.0
193.09,65.0
193.16,61.0
193.22,53.0
193.28,71.0
193.35,70.0
193.41,57.0
193.47,71.0
193.54,79.0
193.6,87.0
193.66,67.0
193.72,63.0
193.79,90.0
193.85,57.0
193.91,73.0
193.98,81.0
194.04,76.0
194.1,80.0
194.17,99.0
194.23,83.0
194.29,96.0
194.35,82.0
194.42,101.0
194.48,120.0
194.54,107.0
194.61,116.0
194.67,106.0
194.73,108.0
194.8,91.0
194.86,110.0
194.92,101.0
194.98,113.0
195.05,96.0
195.11,88.0
195.17,98.0
195.24,117.0
195.3,117.0
195.36,104.0
195.43,103.0
195.49,136.0
195.55,110.0
195.61,103.0
195.68,100.0
195.74,100.0
195.8,104.0
195.87,100.0
195.93,89.0
195.99,56.0
196.06,78.0
196.12,101.0
196.18,100.0
196.24,96.0
196.31,109.0
196.37,105.0
196.43,101.0
196.5,112.0
196.56,80.0
196.62,88.0
196.69,109.0
196.75,87.0
196.81,79.0
196.87,98.0
196.94,100.0
197.0,95.0
197.06,116.0
197.13,110.0
197.19,122.0
197.25,116.0
197.32,115.0
197.38,137.0
197.44,109.0
197.5,101.0
197.57,81.0
197.63,101.0
197.69,124.0
197.76,133.0
197.82,143.0
197.88,135.0
197.95,139.0
198.01,131.0
198.07,127.0
198.13,118.0
198.2,107.0
198.26,109.0
198.32,121.0
198.39,119.0
198.45,126.0
198.51,104.0
198.58,96.0
198.64,110.0
198.7,107.0
198.76,116.0
198.83,98.0
198.89,120.0
198.95,130.0
199.02,123.0
199.08,138.0
199.14,135.0
199.21,132.0
199.27,140.0
199.33,144.0
199.39,141.0
199.46,153.0
199.52,145.0
199.58,137.0
199.65,142.0
199.71,132.0
199.77,137.0
199.84,142.0
199.9,139.0
199.96,142.0
200.02,151.0
200.09,158.0
200.15,135.0
200.21,144.0
200.28,123.0
200.34,154.0
200.4,140.0
200.47,143.0
200.53,138.0
200.59,150.0
200.65,165.0
200.72,151.0
200.78,141.0
200.84,110.0
200.91,104.0
200.97,121.0
201.03,116.0
201.1,131.0
201.16,126.0
201.22,118.0
201.28,111.0
201.35,126.0
201.41,123.0
201.47,129.0
201.54,118.0
201.6,135.0
201.66,135.0
201.73,142.0
201.79,124.0
201.85,130.0
201.91,143.0
201.98,133.0
202.04,121.0
202.1,119.0
202.17,123.0
202.23,138.0
202.29,128.0
202.36,131.0
202.42,108.0
202.48,106.0
202.54,117.0
202.61,104.0
202.67,113.0
202.73,112.0
202.8,133.0
202.86,113.0
202.92,102.0
202.99,105.0
203.05,102.0
203.11,93.0
203.17,83.0
203.24,83.0
203.3,71.0
203.36,80.0
203.43,67.0
203.49,80.0
203.55,69.0
203.62,71.0
203.68,66.0
203.74,70.0
203.8,60.0
203.87,70.0
203.93,59.0
203.99,76.0
204.06,61.0
204.12,61.0
204.18,65.0
204.25,79.0
204.31,76.0
204.37,69.0
204.43,76.0
204.5,77.0
204.56,78.0
204.62,67.0
204.69,58.0
204.75,63.0
204.81,64.0
204.88,78.0
204.94,74.0
205.0,51.0
205.06,80.0
205.13,77.0
205.19,80.0
205.25,73.0
205.32,66.0
205.38,54.0
205.44,55.0
205.51,69.0
205.57,78.0
205.63,93.0
205.69,82.0
205.76,85.0
205.82,88.0
205.88,97.0
205.95,102.0
206.01,121.0
206.07,116.0
206.14,115.0
206.2,109.0
206.26,116.0
206.32,97.0
206.39,119.0
206.45,109.0
206.51,107.0
206.58,106.0
206.64,88.0
206.7,80.0
206.77,76.0
206.83,86.0
206.89,91.0
206.95,66.0
207.02,71.0
207.08,78.0
207.14,73.0
207.21,72.0
207.27,80.0
207.33,66.0
207.4,71.0
207.46,62.0
207.52,68.0
207.58,81.0
207.65,54.0
207.71,63.0
207.77,61.0
207.84,68.0
207.9,57.0
207.96,67.0
208.03,78.0
208.09,60.0
208.15,52.0
208.21,67.0
208.28,47.0
208.34,60.0
208.4,65.0
208.47,49.0
208.53,59.0
208.59,67.0
208.66,65.0
208.72,55.0
208.78,50.0
208.84,39.0
208.91,45.0
208.97,20.0
209.03,47.0
209.1,54.0
209.16,26.0
209.22,31.0
209.29,14.0
209.35,10.0
209.41,11.0
209.47,17.0
209.54,3.0
209.6,4.0
209.66,11.0
209.73,18.0
209.79,8.0
209.85,13.0
209.92,9.0
209.98,24.0
210.04,10.0
210.1,9.0
210.17,8.0
210.23,12.0
210.29,21.0
210.36,8.0
210.42,11.0
210.48,35.0
210.55,49.0
210.61,33.0
210.67,55.0
210.73,53.0
210.8,50.0
210.86,50.0
210.92,47.0
210.99,55.0
211.05,51.0
211.11,71.0
211.18,56.0
211.24,35.0
211.3,80.0
211.36,42.0
211.43,32.0
211.49,21.0
211.55,5.0
211.62,26.0
211.68,17.0
211.74,19.0
211.81,32.0
211.87,32.0
211.93,28.0
211.99,39.0
212.06,31.0
212.12,21.0
212.18,18.0
212.25,12.0
212.31,18.0
212.37,12.0
212.44,33.0
212.5,3.0
212.56,-6.0
212.62,11.0
212.69,9.0
212.75,-5.0
212.81,14.0
212.88,16.0
212.94,17.0
213.0,15.0
213.07,5.0
213.13,9.0
213.19,27.0
213.25,8.0
213.32,20.0
213.38,25.0
213.44,14.0
213.51,8.0
213.57,10.0
213.63,21.0
213.7,-3.0
213.76,-25.0
213.82,-12.0
213.88,-5.0
213.95,6.0
214.01,12.0
214.07,2.0
214.14,7.0
214.2,1.0
214.26,-4.0
214.33,-9.0
214.39,-9.0
214.45,4.0
214.51,-5.0
214.58,-1.0
214.64,-5.0
214.7,22.0
214.77,3.0
214.83,16.0
214.89,16.0
214.96,28.0
215.02,35.0
215.08,58.0
215.14,46.0
215.21,46.0
215.27,32.0
215.33,13.0
215.4,47.0
215.46,41.0
215.52,39.0
215.59,39.0
215.65,34.0
215.71,57.0
215.77,55.0
215.84,43.0
215.9,40.0
215.96,57.0
216.03,50.0
216.09,47.0
216.15,57.0
216.22,57.0
216.28,63.0
216.34,60.0
216.4,36.0
216.47,49.0
216.53,39.0
216.59,41.0
216.66,45.0
216.72,41.0
216.78,57.0
216.85,59.0
216.91,58.0
216.97,47.0
217.03,56.0
217.1,70.0
217.16,51.0
217.22,52.0
217.29,61.0
217.35,84.0
217.41,76.0
217.48,75.0
217.54,58.0
217.6,47.0
217.66,72.0
217.73,76.0
217.79,78.0
217.85,60.0
217.92,79.0
217.98,69.0
218.04,65.0
218.11,57.0
218.17,49.0
218.23,66.0
218.29,60.0
218.36,77.0
218.42,71.0
218.48,57.0
218.55,61.0
218.61,62.0
218.67,77.0
218.74,73.0
218.8,82.0
218.86,77.0
218.92,68.0
218.99,88.0
219.05,46.0
219.11,42.0
219.18,57.0
219.24,69.0
219.3,68.0
219.37,44.0
219.43,57.0
219.49,64.0
219.55,76.0
219.62,83.0
219.68,70.0
219.74,78.0
219.81,89.0
219.87,74.0
219.93,86.0
220.0,74.0
220.06,80.0
220.12,97.0
220.18,108.0
220.25,112.0
220.31,97.0
220.37,111.0
220.44,95.0
220.5,100.0
220.56,104.0
220.63,106.0
220.69,112.0
220.75,119.0
220.81,115.0
220.88,101.0
220.94,100.0
221.0,100.0
221.07,105.0
221.13,106.0
221.19,94.0
221.26,99.0
221.32,86.0
221.38,92.0
221.44,90.0
221.51,86.0
221.57,75.0
221.63,73.0
221.7,85.0
221.76,79.0
221.82,77.0
221.89,66.0
221.95,80.0
222.01,92.0
222.07,97.0
222.14,92.0
222.2,94.0
222.26,102.0
222.33,75.0
222.39,85.0
222.45,101.0
222.52,94.0
222.58,83.0
222.64,80.0
222.7,94.0
222.77,109.0
222.83,116.0
222.89,101.0
222.96,113.0
223.02,104.0
223.08,124.0
223.15,132.0
223.21,117.0
223.27,101.0
223.33,116.0
223.4,119.0
223.46,100.0
223.52,103.0
223.59,93.0
223.65,90.0
223.71,112.0
223.78,101.0
223.84,102.0
223.9,89.0
223.96,81.0
224.03,90.0
224.09,92.0
224.15,83.0
224.22,72.0
224.28,75.0
224.34,76.0
224.41,77.0
224.47,86.0
224.53,57.0
224.59,49.0
224.66,51.0
224.72,42.0
224.78,58.0
224.85,56.0
224.91,46.0
224.97,79.0
225.04,96.0
225.1,79.0
225.16,79.0
225.22,70.0
225.29,68.0
225.35,79.0
225.41,81.0
225.48,83.0
225.54,91.0
225.6,74.0
225.67,68.0
225.73,79.0
225.79,68.0
225.85,63.0
225.92,60.0
225.98,65.0
226.04,52.0
226.11,47.0
226.17,64.0
226.23,42.0
226.3,47.0
226.36,47.0
226.42,30.0
226.48,32.0
226.55,32.0
226.61,17.0
226.67,24.0
226.74,30.0
226.8,46.0
226.86,27.0
226.93,27.0
226.99,24.0
227.05,35.0
227.11,43.0
227.18,40.0
227.24,41.0
227.3,61.0
227.37,45.0
227.43,53.0
227.49,77.0
227.56,57.0
227.62,70.0
227.68,47.0
227.74,58.0
227.81,58.0
227.87,68.0
227.93,72.0
228.0,31.0
228.06,39.0
228.12,50.0
228.19,36.0
228.25,54.0
228.31,43.0
228.37,47.0
228.44,48.0
228.5,45.0
228.56,55.0
228.63,33.0
228.69,47.0
228.75,41.0
228.82,50.0
228.88,49.0
228.94,45.0
229.0,40.0
229.07,52.0
229.13,46.0
229.19,45.0
229.26,47.0
229.32,65.0
229.38,56.0
229.45,47.0
229.51,64.0
229.57,62.0
229.63,60.0
229.7,45.0
229.76,46.0
229.82,49.0
229.89,52.0
229.95,34.0
230.01,52.0
230.08,37.0
230.14,46.0
230.2,51.0
230.26,39.0
230.33,48.0
230.39,46.0
230.45,51.0
230.52,52.0
230.58,41.0
230.64,51.0
230.71,50.0
230.77,41.0
230.83,43.0
230.89,50.0
230.96,47.0
231.02,68.0
231.08,43.0
231.15,34.0
231.21,54.0
231.27,66.0
231.34,83.0
231.4,66.0
231.46,52.0
231.52,65.0
231.59,74.0
231.65,49.0
231.71,68.0
231.78,66.0
231.84,88.0
231.9,93.0
231.97,94.0
232.03,75.0
232.09,58.0
232.15,57.0
232.22,50.0
232.28,55.0
232.34,57.0
232.41,54.0
232.47,67.0
232.53,79.0
232.6,71.0
232.66,66.0
232.72,68.0
232.78,77.0
232.85,90.0
232.91,78.0
232.97,60.0
233.04,61.0
233.1,76.0
233.16,96.0
233.23,71.0
233.29,91.0
233.35,66.0
233.41,69.0
233.48,94.0
233.54,81.0
233.6,90.0
233.67,77.0
233.73,88.0
233.79,71.0
233.86,54.0
233.92,59.0
233.98,85.0
234.04,62.0
234.11,61.0
234.17,74.0
234.23,91.0
234.3,100.0
234.36,86.0
234.42,75.0
234.49,61.0
234.55,64.0
234.61,76.0
234.67,74.0
234.74,55.0
234.8,59.0
234.86,65.0
234.93,49.0
234.99,47.0
235.05,31.0
235.12,18.0
235.18,27.0
235.24,24.0
235.3,26.0
235.37,44.0
235.43,41.0
235.49,44.0
235.56,35.0
235.62,47.0
235.68,46.0
235.75,20.0
235.81,30.0
235.87,25.0
235.93,29.0
236.0,46.0
236.06,51.0
236.12,47.0
236.19,46.0
236.25,34.0
236.31,40.0
236.38,31.0
236.44,43.0
236.5,36.0
236.56,55.0
236.63,67.0
236.69,64.0
236.75,54.0
236.82,66.0
236.88,53.0
236.94,48.0
237.01,39.0
237.07,43.0
237.13,44.0
237.19,17.0
237.26,17.0
237.32,30.0
237.38,35.0
237.45,52.0
237.51,25.0
237.57,19.0
237.64,29.0
237.7,33.0
237.76,63.0
237.82,46.0
237.89,42.0
237.95,55.0
238.01,53.0
238.08,35.0
238.14,36.0
238.2,67.0
238.27,47.0
238.33,48.0
238.39,39.0
238.45,34.0
238.52,75.0
238.58,67.0
238.64,73.0
238.71,71.0
238.77,58.0
238.83,49.0
238.9,42.0
238.96,32.0
239.02,35.0
239.08,37.0
239.15,60.0
239.21,46.0
239.27,44.0
239.34,46.0
239.4,63.0
239.46,52.0
239.53,37.0
239.59,47.0
239.65,50.0
239.71,35.0
239.78,38.0
239.84,49.0
239.9,55.0
239.97,57.0
240.03,38.0
240.09,37.0
240.16,39.0
240.22,43.0
240.28,26.0
240.34,21.0
240.41,37.0
240.47,31.0
240.53,15.0
240.6,9.0
240.66,32.0
240.72,20.0
240.79,20.0
240.85,13.0
240.91,-2.0
240.97,20.0
241.04,37.0
241.1,47.0
241.16,46.0
241.23,42.0
241.29,32.0
241.35,14.0
241.42,36.0
241.48,49.0
241.54,42.0
241.6,30.0
241.67,31.0
241.73,45.0
241.79,39.0
241.86,25.0
241.92,50.0
241.98,39.0
242.05,45.0
242.11,53.0
242.17,34.0
242.23,27.0
242.3,26.0
242.36,33.0
242.42,37.0
242.49,18.0
242.55,20.0
242.61,17.0
242.68,6.0
242.74,20.0
242.8,19.0
242.86,28.0
242.93,32.0
242.99,35.0
243.05,38.0
243.12,45.0
243.18,46.0
243.24,38.0
243.31,53.0
243.37,28.0
243.43,42.0
243.49,41.0
243.56,47.0
243.62,42.0
243.68,58.0
243.75,54.0
243.81,57.0
243.87,53.0
243.94,33.0
244.0,38.0
244.06,34.0
244.12,12.0
244.19,24.0
244.25,44.0
244.31,40.0
244.38,44.0
244.44,34.0
244.5,47.0
244.57,39.0
244.63,28.0
244.69,34.0
244.75,35.0
244.82,31.0
244.88,28.0
244.94,38.0
245.01,38.0
245.07,68.0
245.13,40.0
245.2,49.0
245.26,79.0
245.32,70.0
245.38,89.0
245.45,100.0
245.51,79.0
245.57,96.0
245.64,89.0
245.7,78.0
245.76,71.0
245.83,58.0
245.89,66.0
245.95,72.0
246.01,82.0
246.08,82.0
246.14,96.0
246.2,107.0
246.27,105.0
246.33,87.0
246.39,95.0
246.46,88.0
246.52,85.0
246.58,94.0
246.64,102.0
246.71,80.0
246.77,99.0
246.83,97.0
246.9,86.0
246.96,86.0
247.02,86.0
247.09,88.0
247.15,88.0
247.21,76.0
247.27,105.0
247.34,110.0
247.4,106.0
247.46,114.0
247.53,104.0
247.59,111.0
247.65,105.0
247.72,116.0
247.78,129.0
247.84,115.0
247.9,128.0
247.97,104.0
248.03,105.0
248.09,103.0
248.16,111.0
248.22,125.0
248.28,136.0
248.35,127.0
248.41,150.0
248.47,125.0
248.53,124.0
248.6,134.0
248.66,126.0
248.72,136.0
248.79,126.0
248.85,137.0
248.91,132.0
248.98,155.0
249.04,169.0
249.1,167.0
249.16,144.0
249.23,132.0
249.29,156.0
249.35,163.0
249.42,171.0
249.48,175.0
249.54,146.0
249.61,145.0
249.67,148.0
249.73,139.0
249.79,158.0
249.86,155.0
249.92,162.0
249.98,133.0
250.05,144.0
250.11,165.0
250.17,154.0
250.24,148.0
250.3,139.0
250.36,146.0
250.42,137.0
250.49,138.0
250.55,126.0
250.61,122.0
250.68,124.0
250.74,126.0
250.8,116.0
250.87,119.0
250.93,132.0
250.99,133.0
251.05,144.0
251.12,126.0
251.18,136.0
251.24,103.0
251.31,126.0
251.37,108.0
251.43,140.0
251.5,121.0
251.56,90.0
251.62,114.0
251.68,119.0
251.75,126.0
251.81,133.0
251.87,144.0
251.94,140.0
252.0,158.0
252.06,152.0
252.13,140.0
252.19,135.0
252.25,135.0
252.31,119.0
252.38,135.0
252.44,149.0
252.5,152.0
252.57,157.0
252.63,150.0
252.69,145.0
252.76,141.0
252.82,129.0
252.88,118.0
252.94,131.0
253.01,122.0
253.07,116.0
253.13,126.0
253.2,125.0
253.26,130.0
253.32,140.0
253.39,133.0
253.45,129.0
253.51,120.0
253.57,151.0
253.64,130.0
253.7,140.0
253.76,126.0
253.83,135.0
253.89,146.0
253.95,141.0
254.02,147.0
254.08,132.0
254.14,130.0
254.2,132.0
254.27,136.0
254.33,125.0
254.39,122.0
254.46,121.0
254.52,137.0
254.58,139.0
254.65,141.0
254.71,145.0
254.77,97.0
254.83,99.0
254.9,117.0
254.96,117.0
255.02,117.0
255.09,130.0
255.15,123.0
255.21,123.0
255.28,116.0
255.34,110.0
255.4,110.0
255.46,103.0
255.53,95.0
255.59,89.0
255.65,108.0
255.72,84.0
255.78,100.0
255.84,110.0
255.91,106.0
255.97,112.0
256.03,123.0
256.09,107.0
256.16,124.0
256.22,127.0
256.28,119.0
256.35,138.0
256.41,127.0
256.47,129.0
256.54,126.0
256.6,122.0
256.66,107.0
256.72,114.0
256.79,125.0
256.85,88.0
256.91,110.0
256.98,101.0
257.04,96.0
257.1,107.0
257.17,86.0
257.23,113.0
257.29,108.0
257.35,97.0
257.42,103.0
257.48,90.0
257.54,86.0
257.61,72.0
257.67,60.0
257.73,60.0
257.8,63.0
257.86,54.0
257.92,56.0
257.98,63.0
258.05,56.0
258.11,48.0
258.17,45.0
258.24,47.0
258.3,42.0
258.36,40.0
258.43,38.0
258.49,33.0
258.55,70.0
258.61,55.0
258.68,33.0
258.74,28.0
258.8,34.0
258.87,37.0
258.93,20.0
258.99,29.0
259.06,46.0
259.12,24.0
259.18,31.0
259.24,17.0
259.31,31.0
259.37,40.0
259.43,20.0
259.5,-2.0
259.56,36.0
259.62,30.0
259.69,28.0
259.75,33.0
259.81,25.0
259.87,41.0
259.94,42.0
260.0,46.0
260.06,52.0
260.13,57.0
260.19,33.0
260.25,42.0
260.32,50.0
260.38,51.0
260.44,71.0
260.5,39.0
260.57,45.0
260.63,31.0
260.69,42.0
260.76,39.0
260.82,43.0
260.88,56.0
260.95,60.0
261.01,58.0
261.07,53.0
261.13,45.0
261.2,38.0
261.26,53.0
261.32,25.0
261.39,33.0
261.45,45.0
261.51,52.0
261.58,60.0
261.64,51.0
261.7,52.0
261.76,34.0
261.83,37.0
261.89,65.0
261.95,55.0
262.02,39.0
262.08,42.0
262.14,38.0
262.21,17.0
262.27,17.0
262.33,33.0
262.39,26.0
262.46,28.0
262.52,16.0
262.58,34.0
262.65,21.0
262.71,19.0
262.77,12.0
262.84,14.0
262.9,14.0
262.96,16.0
263.02,17.0
263.09,23.0
263.15,25.0
263.21,16.0
263.28,11.0
263.34,-8.0
263.4,6.0
263.47,19.0
263.53,8.0
263.59,14.0
263.65,1.0
263.72,28.0
263.78,11.0
263.84,2.0
263.91,4.0
263.97,22.0
264.03,30.0
264.1,23.0
264.16,18.0
264.22,7.0
264.28,-2.0
264.35,18.0
264.41,5.0
264.47,14.0
264.54,-2.0
264.6,15.0
264.66,10.0
264.73,17.0
264.79,23.0
264.85,28.0
264.91,31.0
264.98,10.0
265.04,24.0
265.1,27.0
265.17,19.0
265.23,23.0
265.29,12.0
265.36,6.0
265.42,-4.0
265.48,14.0
265.54,7.0
265.61,16.0
265.67,20.0
265.73,7.0
265.8,12.0
265.86,9.0
265.92,36.0
265.99,24.0
266.05,28.0
266.11,40.0
266.17,24.0
266.24,31.0
266.3,38.0
266.36,30.0
266.43,14.0
266.49,0.0
266.55,5.0
266.62,17.0
266.68,6.0
266.74,2.0
266.8,18.0
266.87,-2.0
266.93,10.0
266.99,11.0
267.06,29.0
267.12,18.0
267.18,15.0
267.25,16.0
267.31,9.0
267.37,9.0
267.43,4.0
267.5,17.0
267.56,-2.0
267.62,10.0
267.69,30.0
267.75,37.0
267.81,35.0
267.88,23.0
267.94,8.0
268.0,29.0
268.06,17.0
268.13,25.0
268.19,40.0
268.25,41.0
268.32,33.0
268.38,30.0
268.44,51.0
268.51,51.0
268.57,39.0
268.63,49.0
268.69,26.0
268.76,26.0
268.82,15.0
268.88,22.0
268.95,17.0
269.01,9.0
269.07,19.0
269.14,7.0
269.2,22.0
269.26,30.0
269.32,31.0
269.39,12.0
269.45,7.0
269.51,18.0
269.58,12.0
269.64,8.0
269.7,10.0
269.77,19.0
269.83,6.0
269.89,17.0
269.95,8.0
270.02,43.0
270.08,30.0
270.14,8.0
270.21,23.0
270.27,45.0
270.33,32.0
270.4,48.0
270.46,48.0
270.52,32.0
270.58,43.0
270.65,25.0
270.71,41.0
270.77,47.0
270.84,37.0
270.9,46.0
270.96,47.0
271.03,55.0
271.09,66.0
271.15,60.0
271.21,57.0
271.28,56.0
271.34,54.0
271.4,70.0
271.47,65.0
271.53,59.0
271.59,67.0
271.66,57.0
271.72,59.0
271.78,57.0
271.84,63.0
271.91,60.0
271.97,59.0
272.03,68.0
272.1,66.0
272.16,50.0
272.22,69.0
272.29,71.0
272.35,63.0
272.41,64.0
272.47,70.0
272.54,66.0
272.6,55.0
272.66,46.0
272.73,52.0
272.79,30.0
272.85,31.0
272.92,54.0
272.98,61.0
273.04,63.0
273.1,53.0
273.17,54.0
273.23,63.0
273.29,63.0
273.36,68.0
273.42,56.0
273.48,66.0
273.55,65.0
273.61,75.0
273.67,66.0
273.73,72.0
273.8,79.0
273.86,71.0
273.92,78.0
273.99,78.0
274.05,78.0
274.11,71.0
274.18,71.0
274.24,65.0
274.3,53.0
274.36,63.0
274.43,66.0
274.49,62.0
274.55,63.0
274.62,73.0
274.68,69.0
274.74,62.0
274.81,59.0
274.87,61.0
274.93,82.0
274.99,77.0
275.06,77.0
275.12,67.0
275.18,79.0
275.25,92.0
275.31,77.0
275.37,70.0
275.44,83.0
275.5,95.0
275.56,78.0
275.62,75.0
275.69,81.0
275.75,81.0
275.81,86.0
275.88,64.0
275.94,64.0
276.0,98.0
276.07,88.0
276.13,88.0
276.19,93.0
276.25,77.0
276.32,79.0
276.38,82.0
276.44,68.0
276.51,72.0
276.57,81.0
276.63,72.0
276.7,63.0
276.76,76.0
276.82,68.0
276.88,74.0
276.95,74.0
277.01,83.0
277.07,77.0
277.14,80.0
277.2,65.0
277.26,55.0
277.33,84.0
277.39,83.0
277.45,84.0
277.51,60.0
277.58,68.0
277.64,85.0
277.7,85.0
277.77,99.0
277.83,87.0
277.89,81.0
277.96,78.0
278.02,70.0
278.08,88.0
278.14,85.0
278.21,92.0
278.27,88.0
278.33,103.0
278.4,92.0
278.46,92.0
278.52,103.0
278.59,103.0
278.65,106.0
278.71,111.0
278.77,92.0
278.84,114.0
278.9,109.0
278.96,96.0
279.03,109.0
279.09,112.0
279.15,101.0
279.22,110.0
279.28,103.0
279.34,112.0
279.4,104.0
279.47,91.0
279.53,90.0
279.59,95.0
279.66,107.0
279.72,99.0
279.78,99.0
279.85,109.0
279.91,107.0
279.97,96.0
280.03,79.0
280.1,67.0
280.16,53.0
280.22,76.0
280.29,92.0
280.35,71.0
280.41,60.0
280.48,68.0
280.54,67.0
280.6,64.0
280.66,41.0
280.73,18.0
280.79,13.0
280.85,8.0
280.92,41.0
280.98,51.0
281.04,38.0
281.11,40.0
281.17,64.0
281.23,48.0
281.29,65.0
281.36,56.0
281.42,79.0
281.48,49.0
281.55,53.0
281.61,51.0
281.67,52.0
281.74,59.0
281.8,56.0
281.86,66.0
281.92,72.0
281.99,92.0
282.05,74.0
282.11,77.0
282.18,103.0
282.24,96.0
282.3,76.0
282.37,76.0
282.43,99.0
282.49,84.0
282.55,92.0
282.62,102.0
282.68,73.0
282.74,82.0
282.81,70.0
282.87,84.0
282.93,76.0
283.0,83.0
283.06,81.0
283.12,60.0
283.18,63.0
283.25,74.0
283.31,76.0
283.37,63.0
283.44,63.0
283.5,64.0
283.56,69.0
283.63,77.0
283.69,62.0
283.75,70.0
283.81,68.0
283.88,67.0
283.94,62.0
284.0,53.0
284.07,42.0
284.13,41.0
284.19,68.0
284.26,59.0
284.32,57.0
284.38,51.0
284.44,46.0
284.51,37.0
284.57,24.0
284.63,37.0
284.7,50.0
284.76,54.0
284.82,42.0
284.89,45.0
284.95,30.0
285.01,27.0
285.07,37.0
285.14,45.0
285.2,49.0
285.26,54.0
285.33,35.0
285.39,31.0
285.45,37.0
285.52,58.0
285.58,41.0
285.64,51.0
285.7,52.0
285.77,52.0
285.83,62.0
285.89,72.0
285.96,59.0
286.02,48.0
286.08,46.0
286.15,65.0
286.21,63.0
286.27,43.0
286.33,52.0
286.4,62.0
286.46,66.0
286.52,53.0
286.59,54.0
286.65,57.0
286.71,58.0
286.78,58.0
286.84,62.0
286.9,74.0
286.96,83.0
287.03,90.0
287.09,84.0
287.15,88.0
287.22,91.0
287.28,68.0
287.34,86.0
287.41,90.0
287.47,73.0
287.53,85.0
287.59,89.0
287.66,89.0
287.72,94.0
287.78,69.0
287.85,76.0
287.91,49.0
287.97,51.0
288.04,66.0
288.1,60.0
288.16,68.0
288.22,74.0
288.29,58.0
288.35,54.0
288.41,51.0
288.48,43.0
288.54,24.0
288.6,37.0
288.67,28.0
288.73,33.0
288.79,45.0
288.85,42.0
288.92,32.0
288.98,45.0
289.04,32.0
289.11,27.0
289.17,23.0
289.23,40.0
289.3,49.0
289.36,36.0
289.42,38.0
289.48,26.0
289.55,46.0
289.61,40.0
289.67,16.0
289.74,22.0
289.8,25.0
289.86,11.0
289.93,23.0
289.99,19.0
290.05,7.0
290.11,19.0
290.18,-13.0
290.24,26.0
290.3,40.0
290.37,22.0
290.43,33.0
290.49,27.0
290.56,20.0
290.62,27.0
290.68,24.0
290.74,29.0
290.81,42.0
290.87,34.0
290.93,21.0
291.0,26.0
291.06,28.0
291.12,27.0
291.19,40.0
291.25,31.0
291.31,48.0
291.37,46.0
291.44,33.0
291.5,42.0
291.56,23.0
291.63,26.0
291.69,20.0
291.75,36.0
291.82,46.0
291.88,20.0
291.94,0.0
292.0,11.0
292.07,-2.0
292.13,1.0
292.19,14.0
292.26,11.0
292.32,1.0
292.38,-14.0
292.45,-15.0
292.51,1.0
292.57,-28.0
292.63,-11.0
292.7,-2.0
292.76,-23.0
292.82,4.0
292.89,-1.0
292.95,2.0
293.01,-6.0
293.08,31.0
293.14,20.0
293.2,1.0
293.26,2.0
293.33,12.0
293.39,18.0
293.45,19.0
293.52,34.0
293.58,29.0
293.64,35.0
293.71,51.0
293.77,41.0
293.83,41.0
293.89,52.0
293.96,32.0
294.02,61.0
294.08,51.0
294.15,43.0
294.21,56.0
294.27,51.0
294.34,45.0
294.4,54.0
294.46,24.0
294.52,27.0
294.59,25.0
294.65,28.0
294.71,24.0
294.78,22.0
294.84,27.0
294.9,31.0
294.97,47.0
295.03,22.0
295.09,10.0
295.15,23.0
295.22,15.0
295.28,16.0
295.34,12.0
295.41,29.0
295.47,32.0
295.53,39.0
295.6,28.0
295.66,23.0
295.72,15.0
295.78,29.0
295.85,49.0
295.91,41.0
295.97,44.0
296.04,41.0
296.1,48.0
296.16,32.0
296.23,17.0
296.29,18.0
296.35,18.0
296.41,30.0
296.48,24.0
296.54,21.0
296.6,39.0
296.67,46.0
296.73,28.0
296.79,53.0
296.86,50.0
296.92,49.0
296.98,54.0
297.04,66.0
297.11,65.0
297.17,49.0
297.23,67.0
297.3,49.0
297.36,70.0
297.42,54.0
297.49,54.0
297.55,67.0
297.61,42.0
297.67,62.0
297.74,86.0
297.8,80.0
297.86,51.0
297.93,68.0
297.99,65.0
298.05,73.0
298.12,71.0
298.18,76.0
298.24,84.0
298.3,63.0
298.37,48.0
298.43,72.0
298.49,73.0
298.56,68.0
298.62,63.0
298.68,55.0
298.75,50.0
298.81,74.0
298.87,64.0
298.93,33.0
299.0,68.0
299.06,73.0
299.12,74.0
299.19,63.0
299.25,68.0
299.31,56.0
299.38,38.0
299.44,45.0
299.5,67.0
299.56,71.0
299.63,75.0
299.69,77.0
299.75,65.0
299.82,77.0
299.88,79.0
299.94,96.0
300.01,101.0
300.07,93.0
300.13,95.0
300.19,60.0
300.26,69.0
300.32,90.0
300.38,83.0
300.45,97.0
300.51,93.0
300.57,112.0
300.64,98.0
300.7,108.0
300.76,111.0
300.82,96.0
300.89,84.0
300.95,80.0
301.01,89.0
301.08,97.0
301.14,107.0
301.2,102.0
301.27,87.0
301.33,93.0
301.39,100.0
301.45,106.0
301.52,109.0
301.58,108.0
301.64,122.0
301.71,111.0
301.77,109.0
301.83,113.0
301.9,103.0
301.96,114.0
302.02,129.0
302.08,102.0
302.15,121.0
302.21,119.0
302.27,115.0
302.34,131.0
302.4,134.0
302.46,143.0
302.53,148.0
302.59,144.0
302.65,129.0
302.71,164.0
302.78,169.0
302.84,146.0
302.9,166.0
302.97,141.0
303.03,133.0
303.09,144.0
303.16,151.0
303.22,159.0
303.28,161.0
303.34,152.0
303.41,145.0
303.47,149.0
303.53,140.0
303.6,161.0
303.66,177.0
303.72,159.0
303.79,151.0
303.85,165.0
303.91,168.0
303.97,190.0
304.04,162.0
304.1,134.0
304.16,159.0
304.23,150.0
304.29,160.0
304.35,166.0
304.42,151.0
304.48,128.0
304.54,141.0
304.6,140.0
304.67,128.0
304.73,137.0
304.79,131.0
304.86,139.0
304.92,111.0
304.98,122.0
305.05,109.0
305.11,136.0
305.17,133.0
305.23,114.0
305.3,127.0
305.36,107.0
305.42,124.0
305.49,109.0
305.55,119.0
305.61,108.0
305.68,100.0
305.74,103.0
305.8,107.0
305.86,124.0
305.93,115.0
305.99,128.0
306.05,129.0
306.12,117.0
306.18,130.0
306.24,103.0
306.31,119.0
306.37,101.0
306.43,111.0
306.49,111.0
306.56,104.0
306.62,126.0
306.68,93.0
306.75,107.0
306.81,103.0
306.87,115.0
306.94,125.0
307.0,102.0
307.06,97.0
307.12,93.0
307.19,86.0
307.25,104.0
307.31,88.0
307.38,82.0
307.44,79.0
307.5,75.0
307.57,74.0
307.63,59.0
307.69,58.0
307.75,62.0
307.82,64.0
307.88,68.0
307.94,46.0
308.01,55.0
308.07,71.0
308.13,67.0
308.2,71.0
308.26,71.0
308.32,67.0
308.38,77.0
308.45,67.0
308.51,77.0
308.57,77.0
308.64,71.0
308.7,75.0
308.76,65.0
308.83,78.0
308.89,76.0
308.95,78.0
309.01,84.0
309.08,104.0
309.14,97.0
309.2,70.0
309.27,75.0
309.33,82.0
309.39,94.0
309.46,90.0
309.52,95.0
309.58,93.0
309.64,79.0
309.71,82.0
309.77,74.0
309.83,70.0
309.9,98.0
309.96,100.0
310.02,90.0
310.09,58.0
310.15,45.0
310.21,46.0
310.27,35.0
310.34,34.0
310.4,41.0
310.46,37.0
310.53,12.0
310.59,9.0
310.65,33.0
310.72,26.0
310.78,23.0
310.84,33.0
310.9,42.0
310.97,37.0
311.03,40.0
311.09,27.0
311.16,32.0
311.22,41.0
311.28,44.0
311.35,53.0
311.41,60.0
311.47,35.0
311.53,50.0
311.6,57.0
311.66,77.0
311.72,57.0
311.79,57.0
311.85,61.0
311.91,54.0
311.98,58.0
312.04,31.0
312.1,59.0
312.16,51.0
312.23,44.0
312.29,48.0
312.35,64.0
312.42,62.0
312.48,71.0
312.54,79.0
312.61,62.0
312.67,72.0
312.73,64.0
312.79,64.0
312.86,60.0
312.92,62.0
312.98,62.0
313.05,69.0
313.11,98.0
313.17,70.0
313.24,88.0
313.3,78.0
313.36,88.0
313.42,74.0
313.49,60.0
313.55,72.0
313.61,51.0
313.68,56.0
313.74,71.0
313.8,46.0
313.87,35.0
313.93,52.0
313.99,40.0
314.05,56.0
314.12,60.0
314.18,49.0
314.24,60.0
314.31,42.0
314.37,39.0
314.43,38.0
314.5,23.0
314.56,49.0
314.62,43.0
314.68,48.0
314.75,39.0
314.81,16.0
314.87,5.0
314.94,30.0
315.0,58.0
315.06,30.0
315.13,26.0
315.19,23.0
315.25,27.0
315.31,33.0
315.38,40.0
315.44,41.0
315.5,35.0
315.57,20.0
315.63,13.0
315.69,20.0
315.76,34.0
315.82,35.0
315.88,36.0
315.94,37.0
316.01,27.0
316.07,19.0
316.13,41.0
316.2,33.0
316.26,38.0
316.32,35.0
316.39,35.0
316.45,44.0
316.51,32.0
316.57,28.0
316.64,42.0
316.7,51.0
316.76,41.0
316.83,38.0
316.89,30.0
316.95,4.0
317.02,4.0
317.08,9.0
317.14,21.0
317.2,16.0
317.27,13.0
317.33,29.0
317.39,38.0
317.46,33.0
317.52,6.0
317.58,12.0
317.65,27.0
317.71,38.0
317.77,22.0
317.83,38.0
317.9,54.0
317.96,52.0
318.02,54.0
318.09,24.0
318.15,12.0
318.21,43.0
318.28,31.0
318.34,30.0
318.4,56.0
318.46,34.0
318.53,23.0
318.59,29.0
318.65,14.0
318.72,41.0
318.78,19.0
318.84,27.0
318.91,30.0
318.97,42.0
319.03,43.0
319.09,14.0
319.16,29.0
319.22,37.0
319.28,26.0
319.35,23.0
319.41,31.0
319.47,32.0
319.54,52.0
319.6,61.0
319.66,68.0
319.72,72.0
319.79,70.0
319.85,48.0
319.91,60.0
319.98,72.0
320.04,66.0
320.1,68.0
320.17,97.0
320.23,95.0
320.29,78.0
320.35,86.0
320.42,80.0
320.48,71.0
320.54,63.0
320.61,89.0
320.67,87.0
320.73,89.0
320.8,94.0
320.86,79.0
320.92,77.0
320.98,61.0
321.05,79.0
321.11,78.0
321.17,65.0
321.24,72.0
321.3,81.0
321.36,82.0
321.43,83.0
321.49,86.0
321.55,96.0
321.61,82.0
321.68,86.0
321.74,82.0
321.8,89.0
321.87,105.0
321.93,96.0
321.99,98.0
322.06,74.0
322.12,72.0
322.18,72.0
322.24,86.0
322.31,89.0
322.37,62.0
322.43,54.0
322.5,71.0
322.56,58.0
322.62,60.0
322.69,56.0
322.75,57.0
322.81,55.0
322.87,48.0
322.94,38.0
323.0,62.0
323.06,60.0
323.13,66.0
323.19,57.0
323.25,27.0
323.32,18.0
323.38,46.0
323.44,49.0
323.5,60.0
323.57,72.0
323.63,67.0
323.69,57.0
323.76,62.0
323.82,64.0
323.88,70.0
323.95,60.0
324.01,67.0
324.07,63.0
324.13,61.0
324.2,59.0
324.26,55.0
324.32,68.0
324.39,68.0
324.45,57.0
324.51,51.0
324.58,45.0
324.64,62.0
324.7,67.0
324.76,69.0
324.83,74.0
324.89,74.0
324.95,71.0
325.02,57.0
325.08,52.0
325.14,37.0
325.21,52.0
325.27,62.0
325.33,42.0
325.39,48.0
325.46,43.0
325.52,49.0
325.58,36.0
325.65,45.0
325.71,32.0
325.77,26.0
325.84,42.0
325.9,47.0
325.96,26.0
326.02,19.0
326.09,24.0
326.15,37.0
326.21,56.0
326.28,38.0
326.34,51.0
326.4,35.0
326.47,44.0
326.53,50.0
326.59,34.0
326.65,36.0
326.72,29.0
326.78,41.0
326.84,59.0
326.91,51.0
326.97,40.0
327.03,49.0
327.1,53.0
327.16,56.0
327.22,53.0
327.28,54.0
327.35,59.0
327.41,70.0
327.47,71.0
327.54,75.0
327.6,56.0
327.66,67.0
327.73,49.0
327.79,51.0
327.85,73.0
327.91,63.0
327.98,45.0
328.04,67.0
328.1,71.0
328.17,65.0
328.23,91.0
328.29,83.0
328.36,71.0
328.42,95.0
328.48,97.0
328.54,95.0
328.61,118.0
328.67,99.0
328.73,111.0
328.8,104.0
328.86,100.0
328.92,110.0
328.99,115.0
329.05,101.0
329.11,117.0
329.17,108.0
329.24,98.0
329.3,108.0
329.36,110.0
329.43,115.0
329.49,120.0
329.55,101.0
329.62,96.0
329.68,101.0
329.74,111.0
329.8,107.0
329.87,105.0
329.93,115.0
329.99,112.0
330.06,106.0
330.12,103.0
330.18,103.0
330.25,101.0
330.31,98.0
330.37,112.0
330.43,101.0
330.5,115.0
330.56,115.0
330.62,107.0
330.69,93.0
330.75,78.0
330.81,89.0
330.88,78.0
330.94,82.0
331.0,65.0
331.06,79.0
331.13,84.0
331.19,98.0
331.25,90.0
331.32,72.0
331.38,81.0
331.44,60.0
331.51,62.0
331.57,66.0
331.63,71.0
331.69,76.0
331.76,79.0
331.82,79.0
331.88,90.0
331.95,108.0
332.01,112.0
332.07,100.0
332.14,95.0
332.2,84.0
332.26,91.0
332.32,86.0
332.39,102.0
332.45,93.0
332.51,91.0
332.58,100.0
332.64,113.0
332.7,92.0
332.77,93.0
332.83,104.0
332.89,98.0
332.95,96.0
333.02,98.0
333.08,96.0
333.14,82.0
333.21,74.0
333.27,78.0
333.33,90.0
333.4,102.0
333.46,101.0
333.52,102.0
333.58,112.0
333.65,106.0
333.71,106.0
333.77,99.0
333.84,99.0
333.9,108.0
333.96,118.0
334.03,117.0
334.09,110.0
334.15,95.0
334.21,98.0
334.28,105.0
334.34,105.0
334.4,115.0
334.47,88.0
334.53,104.0
334.59,95.0
334.66,78.0
334.72,105.0
334.78,104.0
334.84,126.0
334.91,118.0
334.97,109.0
335.03,115.0
335.1,128.0
335.16,125.0
335.22,133.0
335.29,127.0
335.35,115.0
335.41,104.0
335.47,100.0
335.54,123.0
335.6,107.0
335.66,115.0
335.73,93.0
335.79,96.0
335.85,118.0
335.92,89.0
335.98,111.0
336.04,101.0
336.1,103.0
336.17,98.0
336.23,96.0
336.29,111.0
336.36,103.0
336.42,111.0
336.48,98.0
336.55,95.0
336.61,87.0
336.67,76.0
336.73,107.0
336.8,103.0
336.86,92.0
336.92,99.0
336.99,100.0
337.05,99.0
337.11,98.0
337.18,103.0
337.24,105.0
337.3,102.0
337.36,98.0
337.43,115.0
337.49,120.0
337.55,119.0
337.62,98.0
337.68,97.0
337.74,87.0
337.81,103.0
337.87,94.0
337.93,86.0
337.99,100.0
338.06,88.0
338.12,94.0
338.18,105.0
338.25,83.0
338.31,78.0
338.37,85.0
338.44,83.0
338.5,109.0
338.56,93.0
338.62,105.0
338.69,104.0
338.75,93.0
338.81,106.0
338.88,82.0
338.94,81.0
339.0,89.0
339.07,95.0
339.13,97.0
339.19,100.0
339.25,115.0
339.32,110.0
339.38,98.0
339.44,103.0
339.51,94.0
339.57,94.0
339.63,116.0
339.7,106.0
339.76,97.0
339.82,106.0
339.88,119.0
339.95,93.0
340.01,133.0
340.07,126.0
340.14,120.0
340.2,116.0
340.26,95.0
340.33,102.0
340.39,102.0
340.45,89.0
340.51,90.0
340.58,79.0
340.64,100.0
340.7,79.0
340.77,78.0
340.83,89.0
340.89,88.0
340.96,71.0
341.02,73.0
341.08,78.0
341.14,64.0
341.21,51.0
341.27,42.0
341.33,64.0
341.4,75.0
341.46,78.0
341.52,40.0
341.59,41.0
341.65,73.0
341.71,48.0
341.77,42.0
341.84,44.0
341.9,30.0
341.96,27.0
342.03,13.0
342.09,9.0
342.15,8.0
342.22,20.0
342.28,16.0
342.34,-8.0
342.4,8.0
342.47,21.0
342.53,7.0
342.59,4.0
342.66,15.0
342.72,15.0
342.78,24.0
342.85,24.0
342.91,30.0
342.97,36.0
343.03,33.0
343.1,26.0
343.16,33.0
343.22,34.0
343.29,26.0
343.35,30.0
343.41,28.0
343.48,22.0
343.54,32.0
343.6,31.0
343.66,41.0
343.73,32.0
343.79,46.0
343.85,33.0
343.92,48.0
343.98,28.0
344.04,42.0
344.11,57.0
344.17,43.0
344.23,44.0
344.29,45.0
344.36,49.0
344.42,44.0
344.48,47.0
344.55,52.0
344.61,57.0
344.67,39.0
344.74,61.0
344.8,53.0
344.86,63.0
344.92,68.0
344.99,66.0
345.05,67.0
345.11,74.0
345.18,72.0
345.24,76.0
345.3,74.0
345.37,60.0
345.43,62.0
345.49,56.0
345.55,72.0
345.62,67.0
345.68,82.0
345.74,92.0
345.81,96.0
345.87,88.0
345.93,94.0
346.0,92.0
346.06,75.0
346.12,53.0
346.18,75.0
346.25,81.0
346.31,74.0
346.37,66.0
346.44,60.0
346.5,53.0
346.56,46.0
346.63,41.0
346.69,51.0
346.75,66.0
346.81,82.0
346.88,74.0
346.94,56.0
347.0,60.0
347.07,48.0
347.13,52.0
347.19,52.0
347.26,71.0
347.32,63.0
347.38,70.0
347.44,60.0
347.51,61.0
347.57,64.0
347.63,62.0
347.7,67.0
347.76,68.0
347.82,66.0
347.89,59.0
347.95,49.0
348.01,34.0
348.07,40.0
348.14,29.0
348.2,18.0
348.26,32.0
348.33,41.0
348.39,26.0
348.45,37.0
348.52,47.0
348.58,34.0
348.64,39.0
348.7,30.0
348.77,41.0
348.83,57.0
348.89,44.0
348.96,48.0
349.02,60.0
349.08,44.0
349.15,34.0
349.21,26.0
349.27,40.0
349.33,59.0
349.4,45.0
349.46,30.0
349.52,36.0
349.59,22.0
349.65,23.0
349.71,27.0
349.78,45.0
349.84,32.0
349.9,33.0
349.96,36.0
350.03,37.0
350.09,46.0
350.15,33.0
350.22,41.0
350.28,61.0
350.34,44.0
350.41,33.0
350.47,39.0
350.53,33.0
350.59,22.0
350.66,27.0
350.72,47.0
350.78,32.0
350.85,45.0
350.91,34.0
350.97,27.0
351.04,15.0
351.1,19.0
351.16,15.0
351.22,21.0
351.29,20.0
351.35,-7.0
351.41,10.0
351.48,0.0
351.54,5.0
351.6,-3.0
351.67,18.0
351.73,21.0
351.79,26.0
351.85,39.0
351.92,38.0
351.98,57.0
352.04,37.0
352.11,24.0
352.17,36.0
352.23,53.0
352.3,27.0
352.36,35.0
352.42,68.0
352.48,71.0
352.55,73.0
352.61,66.0
352.67,54.0
352.74,72.0
352.8,57.0
352.86,40.0
352.93,44.0
352.99,62.0
353.05,77.0
353.11,74.0
353.18,43.0
353.24,66.0
353.3,68.0
353.37,51.0
353.43,69.0
353.49,90.0
353.56,66.0
353.62,74.0
353.68,74.0
353.74,69.0
353.81,66.0
353.87,63.0
353.93,75.0
354.0,76.0
354.06,84.0
354.12,76.0
354.19,89.0
354.25,79.0
354.31,109.0
354.37,109.0
354.44,97.0
354.5,117.0
354.56,92.0
354.63,113.0
354.69,113.0
354.75,117.0
354.82,115.0
354.88,96.0
354.94,109.0
355.0,111.0
355.07,109.0
355.13,88.0
355.19,115.0
355.26,127.0
355.32,113.0
355.38,122.0
355.45,111.0
355.51,96.0
355.57,109.0
355.63,109.0
355.7,113.0
355.76,97.0
355.82,90.0
355.89,101.0
355.95,98.0
356.01,102.0
356.08,112.0
356.14,98.0
356.2,94.0
356.26,104.0
356.33,97.0
356.39,126.0
356.45,109.0
356.52,98.0
356.58,117.0
356.64,123.0
356.71,114.0
356.77,108.0
356.83,87.0
356.89,95.0
356.96,68.0
357.02,59.0
357.08,82.0
357.15,77.0
357.21,88.0
357.27,82.0
357.34,82.0
357.4,88.0
357.46,87.0
357.52,98.0
357.59,74.0
357.65,64.0
357.71,80.0
357.78,72.0
357.84,67.0
357.9,67.0
357.97,65.0
358.03,71.0
358.09,73.0
358.15,91.0
358.22,81.0
358.28,82.0
358.34,69.0
358.41,76.0
358.47,70.0
358.53,66.0
358.6,62.0
358.66,69.0
358.72,55.0
358.78,51.0
358.85,47.0
358.91,40.0
358.97,62.0
359.04,45.0
359.1,30.0
359.16,31.0
359.23,27.0
359.29,31.0
359.35,47.0
359.41,35.0
359.48,53.0
359.54,48.0
359.6,50.0
359.67,58.0
359.73,32.0
359.79,43.0
359.86,47.0
359.92,56.0
359.98,49.0
360.04,56.0
360.11,78.0
360.17,81.0
360.23,94.0
360.3,75.0
360.36,58.0
360.42,89.0
360.49,79.0
360.55,57.0
360.61,74.0
360.67,73.0
360.74,70.0
360.8,67.0
360.86,58.0
360.93,84.0
360.99,80.0
361.05,74.0
361.12,52.0
361.18,73.0
361.24,79.0
361.3,63.0
361.37,57.0
361.43,44.0
361.49,56.0
361.56,62.0
361.62,57.0
361.68,63.0
361.75,59.0
361.81,73.0
361.87,76.0
361.93,74.0
362.0,54.0
362.06,59.0
362.12,69.0
362.19,41.0
362.25,66.0
362.31,65.0
362.38,57.0
362.44,77.0
362.5,62.0
362.56,71.0
362.63,65.0
362.69,65.0
362.75,77.0
362.82,64.0
362.88,73.0
362.94,70.0
363.01,60.0
363.07,71.0
363.13,94.0
363.19,82.0
363.26,70.0
363.32,84.0
363.38,60.0
363.45,57.0
363.51,59.0
363.57,64.0
363.64,58.0
363.7,50.0
363.76,55.0
363.82,62.0
363.89,32.0
363.95,35.0
364.01,54.0
364.08,48.0
364.14,27.0
364.2,10.0
364.27,23.0
364.33,47.0
364.39,31.0
364.45,31.0
364.52,36.0
364.58,29.0
364.64,25.0
364.71,22.0
364.77,38.0
364.83,18.0
364.9,3.0
364.96,17.0
365.02,19.0
365.08,24.0
365.15,32.0
365.21,18.0
365.27,20.0
365.34,19.0
365.4,25.0
365.46,36.0
365.53,44.0
365.59,41.0
365.65,26.0
365.71,13.0
365.78,14.0
365.84,33.0
365.9,15.0
365.97,24.0
366.03,6.0
366.09,19.0
366.16,40.0
366.22,27.0
366.28,40.0
366.34,47.0
366.41,44.0
366.47,57.0
366.53,41.0
366.6,36.0
366.66,53.0
366.72,48.0
366.79,36.0
366.85,39.0
366.91,19.0
366.97,36.0
367.04,43.0
367.1,49.0
367.16,58.0
367.23,57.0
367.29,41.0
367.35,58.0
367.42,61.0
367.48,43.0
367.54,36.0
367.6,46.0
367.67,34.0
367.73,29.0
367.79,40.0
367.86,28.0
367.92,27.0
367.98,33.0
368.05,30.0
368.11,38.0
368.17,45.0
368.23,44.0
368.3,39.0
368.36,22.0
368.42,16.0
368.49,27.0
368.55,36.0
368.61,27.0
368.68,58.0
368.74,54.0
368.8,53.0
368.86,41.0
368.93,57.0
368.99,50.0
369.05,43.0
369.12,38.0
369.18,46.0
369.24,33.0
369.31,38.0
369.37,41.0
369.43,45.0
369.49,50.0
369.56,58.0
369.62,72.0
369.68,51.0
369.75,29.0
369.81,49.0
369.87,50.0
369.94,52.0
370.0,64.0
370.06,58.0
370.12,69.0
370.19,54.0
370.25,42.0
370.31,38.0
370.38,52.0
370.44,64.0
370.5,59.0
370.57,60.0
370.63,58.0
370.69,65.0
370.75,56.0
370.82,69.0
370.88,83.0
370.94,69.0
371.01,67.0
371.07,54.0
371.13,63.0
371.2,61.0
371.26,79.0
371.32,85.0
371.38,79.0
371.45,66.0
371.51,60.0
371.57,68.0
371.64,62.0
371.7,74.0
371.76,72.0
371.83,80.0
371.89,86.0
371.95,87.0
372.01,79.0
372.08,72.0
372.14,79.0
372.2,74.0
372.27,85.0
372.33,79.0
372.39,88.0
372.46,90.0
372.52,88.0
372.58,111.0
372.64,103.0
372.71,115.0
372.77,96.0
372.83,96.0
372.9,99.0
372.96,91.0
373.02,100.0
373.09,104.0
373.15,86.0
373.21,76.0
373.27,71.0
373.34,78.0
373.4,73.0
373.46,58.0
373.53,69.0
373.59,73.0
373.65,65.0
373.72,84.0
373.78,71.0
373.84,56.0
373.9,55.0
373.97,54.0
374.03,40.0
374.09,54.0
374.16,65.0
374.22,43.0
374.28,54.0
374.35,44.0
374.41,38.0
374.47,37.0
374.53,43.0
374.6,35.0
374.66,32.0
374.72,27.0
374.79,20.0
374.85,12.0
374.91,5.0
374.98,0.0
375.04,15.0
375.1,13.0
375.16,35.0
375.23,24.0
375.29,32.0
375.35,36.0
375.42,21.0
375.48,5.0
375.54,4.0
375.61,27.0
375.67,15.0
375.73,24.0
375.79,17.0
375.86,21.0
375.92,37.0
375.98,24.0
376.05,32.0
376.11,17.0
376.17,10.0
376.24,19.0
376.3,17.0
376.36,2.0
376.42,29.0
376.49,26.0
376.55,29.0
376.61,18.0
376.68,9.0
376.74,10.0
376.8,-1.0
376.87,2.0
376.93,-2.0
376.99,0.0
377.05,17.0
377.12,8.0
377.18,15.0
377.24,22.0
377.31,20.0
377.37,33.0
377.43,-4.0
377.5,13.0
377.56,12.0
377.62,23.0
377.68,16.0
377.75,24.0
377.81,19.0
377.87,49.0
377.94,41.0
378.0,18.0
378.06,28.0
378.13,30.0
378.19,23.0
378.25,12.0
378.31,11.0
378.38,6.0
378.44,31.0
378.5,33.0
378.57,36.0
378.63,42.0
378.69,40.0
378.76,49.0
378.82,44.0
378.88,48.0
378.94,54.0
379.01,52.0
379.07,49.0
379.13,59.0
379.2,57.0
379.26,65.0
379.32,70.0
379.39,55.0
379.45,74.0
379.51,69.0
379.57,79.0
379.64,98.0
379.7,102.0
379.76,115.0
379.83,127.0
379.89,126.0
379.95,110.0
380.02,110.0
380.08,107.0
380.14,105.0
380.2,119.0
380.27,117.0
380.33,132.0
380.39,132.0
380.46,136.0
380.52,125.0
380.58,124.0
380.65,109.0
380.71,123.0
380.77,127.0
380.83,129.0
380.9,134.0
380.96,120.0
381.02,132.0
381.09,128.0
381.15,105.0
381.21,104.0
381.28,113.0
381.34,96.0
381.4,105.0
381.46,99.0
381.53,100.0
381.59,100.0
381.65,92.0
381.72,109.0
381.78,108.0
381.84,91.0
381.91,132.0
381.97,125.0
382.03,110.0
382.09,132.0
382.16,131.0
382.22,114.0
382.28,118.0
382.35,104.0
382.41,117.0
382.47,121.0
382.54,133.0
382.6,140.0
382.66,142.0
382.72,132.0
382.79,143.0
382.85,132.0
382.91,134.0
382.98,130.0
383.04,128.0
383.1,140.0
383.17,125.0
383.23,117.0
383.29,135.0
383.35,123.0
383.42,116.0
383.48,130.0
383.54,140.0
383.61,124.0
383.67,137.0
383.73,144.0
383.8,162.0
383.86,141.0
383.92,148.0
383.98,132.0
384.05,125.0
384.11,117.0
384.17,111.0
384.24,124.0
384.3,117.0
384.36,105.0
384.43,119.0
384.49,127.0
384.55,136.0
384.61,140.0
384.68,132.0
384.74,145.0
384.8,136.0
384.87,132.0
384.93,140.0
384.99,139.0
385.06,147.0
385.12,137.0
385.18,132.0
385.24,129.0
385.31,137.0
385.37,140.0
385.43,132.0
385.5,169.0
385.56,138.0
385.62,152.0
385.69,148.0
385.75,136.0
385.81,118.0
385.87,123.0
385.94,155.0
386.0,169.0
386.06,183.0
386.13,176.0
386.19,174.0
386.25,183.0
386.32,180.0
386.38,169.0
386.44,169.0
386.5,168.0
386.57,175.0
386.63,163.0
386.69,151.0
386.76,153.0
386.82,160.0
386.88,159.0
386.95,145.0
387.01,143.0
387.07,146.0
387.13,151.0
387.2,148.0
387.26,143.0
387.32,146.0
387.39,144.0
387.45,155.0
387.51,149.0
387.58,130.0
387.64,141.0
387.7,143.0
387.76,139.0
387.83,129.0
387.89,127.0
387.95,145.0
388.02,147.0
388.08,143.0
388.14,154.0
388.21,133.0
388.27,146.0
388.33,139.0
388.39,145.0
388.46,152.0
388.52,143.0
388.58,148.0
388.65,135.0
388.71,152.0
388.77,161.0
388.84,178.0
388.9,175.0
388.96,146.0
389.02,144.0
389.09,156.0
389.15,143.0
389.21,151.0
389.28,159.0
389.34,181.0
389.4,169.0
389.47,169.0
389.53,157.0
389.59,138.0
389.65,145.0
389.72,123.0
389.78,127.0
389.84,139.0
389.91,137.0
389.97,107.0
390.03,102.0
390.1,133.0
390.16,124.0
390.22,124.0
390.28,134.0
390.35,152.0
390.41,145.0
390.47,138.0
390.54,123.0
390.6,140.0
390.66,145.0
390.73,127.0
390.79,133.0
390.85,122.0
390.91,132.0
390.98,130.0
391.04,107.0
391.1,102.0
391.17,116.0
391.23,119.0
391.29,123.0
391.36,105.0
391.42,88.0
391.48,80.0
391.54,80.0
391.61,64.0
391.67,72.0
391.73,55.0
391.8,63.0
391.86,97.0
391.92,61.0
391.99,38.0
392.05,22.0
392.11,28.0
392.17,41.0
392.24,12.0
392.3,20.0
392.36,33.0
392.43,27.0
392.49,28.0
392.55,25.0
392.62,30.0
392.68,16.0
392.74,17.0
392.8,5.0
392.87,-13.0
392.93,-8.0
392.99,1.0
393.06,5.0
393.12,-12.0
393.18,-19.0
393.25,-19.0
393.31,-9.0
393.37,1.0
393.43,-7.0
393.5,-12.0
393.56,-13.0
393.62,-20.0
393.69,6.0
393.75,-7.0
393.81,-10.0
393.88,12.0
393.94,14.0
394.0,1.0
394.06,9.0
394.13,6.0
394.19,9.0
394.25,-4.0
394.32,7.0
394.38,-3.0
394.44,2.0
394.51,2.0
394.57,-10.0
394.63,9.0
394.69,19.0
394.76,-20.0
394.82,9.0
394.88,17.0
394.95,4.0
395.01,23.0
395.07,40.0
395.14,45.0
395.2,52.0
395.26,58.0
395.32,35.0
395.39,49.0
395.45,43.0
395.51,60.0
395.58,71.0
395.64,53.0
395.7,65.0
395.77,47.0
395.83,46.0
395.89,24.0
395.95,28.0
396.02,49.0
396.08,64.0
396.14,37.0
396.21,46.0
396.27,62.0
396.33,58.0
396.4,57.0
396.46,63.0
396.52,29.0
396.58,38.0
396.65,59.0
396.71,49.0
396.77,36.0
396.84,27.0
396.9,37.0
396.96,27.0
397.03,29.0
397.09,49.0
397.15,58.0
397.21,41.0
397.28,41.0
397.34,61.0
397.4,65.0
397.47,61.0
397.53,53.0
397.59,50.0
397.66,49.0
397.72,57.0
397.78,65.0
397.84,58.0
397.91,73.0
397.97,59.0
398.03,81.0
398.1,50.0
398.16,49.0
398.22,64.0
398.29,84.0
398.35,63.0
398.41,69.0
398.47,61.0
398.54,65.0
398.6,67.0
398.66,62.0
398.73,40.0
398.79,53.0
398.85,37.0
398.92,34.0
398.98,30.0
399.04,32.0
399.1,37.0
399.17,26.0
399.23,18.0
399.29,25.0
399.36,19.0
399.42,21.0
399.48,-10.0
399.55,13.0
399.61,17.0
399.67,34.0
399.73,37.0
399.8,15.0
399.86,24.0
399.92,34.0
399.99,24.0
400.05,21.0
400.11,26.0
400.18,27.0
400.24,30.0
400.3,43.0
400.36,31.0
400.43,30.0
400.49,20.0
400.55,41.0
400.62,35.0
400.68,41.0
400.74,38.0
400.81,30.0
400.87,37.0
400.93,48.0
400.99,30.0
401.06,44.0
401.12,49.0
401.18,35.0
401.25,48.0
401.31,68.0
401.37,63.0
401.44,16.0
401.5,24.0
401.56,35.0
401.62,52.0
401.69,58.0
401.75,48.0
401.81,50.0
401.88,45.0
401.94,48.0
402.0,60.0
402.07,40.0
402.13,48.0
402.19,41.0
402.25,56.0
402.32,67.0
402.38,55.0
402.44,45.0
402.51,26.0
402.57,46.0
402.63,39.0
402.7,35.0
402.76,38.0
402.82,49.0
402.88,44.0
402.95,27.0
403.01,38.0
403.07,34.0
403.14,35.0
403.2,36.0
403.26,24.0
403.33,48.0
403.39,35.0
403.45,45.0
403.51,49.0
403.58,37.0
403.64,60.0
403.7,73.0
403.77,82.0
403.83,87.0
403.89,81.0
403.96,90.0
404.02,76.0
404.08,103.0
404.14,70.0
404.21,72.0
404.27,63.0
404.33,54.0
404.4,86.0
404.46,90.0
404.52,95.0
404.59,95.0
404.65,106.0
404.71,114.0
404.77,111.0
404.84,127.0
404.9,130.0
404.96,128.0
405.03,129.0
405.09,144.0
405.15,130.0
405.22,115.0
405.28,131.0
405.34,133.0
405.4,137.0
405.47,133.0
405.53,134.0
405.59,131.0
405.66,113.0
405.72,118.0
405.78,105.0
405.85,115.0
405.91,145.0
405.97,136.0
406.03,137.0
406.1,130.0
406.16,132.0
406.22,143.0
406.29,163.0
406.35,158.0
406.41,164.0
406.48,163.0
406.54,137.0
406.6,142.0
406.66,131.0
406.73,124.0
406.79,149.0
406.85,120.0
406.92,139.0
406.98,145.0
407.04,143.0
407.11,157.0
407.17,143.0
407.23,155.0
407.29,144.0
407.36,151.0
407.42,131.0
407.48,136.0
407.55,119.0
407.61,119.0
407.67,122.0
407.74,132.0
407.8,142.0
407.86,119.0
407.92,126.0
407.99,103.0
408.05,98.0
408.11,130.0
408.18,123.0
408.24,116.0
408.3,114.0
408.37,131.0
408.43,141.0
408.49,126.0
408.55,130.0
408.62,129.0
408.68,146.0
408.74,133.0
408.81,99.0
408.87,122.0
408.93,112.0
409.0,101.0
409.06,95.0
409.12,75.0
409.18,88.0
409.25,99.0
409.31,103.0
409.37,106.0
409.44,98.0
409.5,106.0
409.56,92.0
409.63,94.0
409.69,84.0
409.75,92.0
409.81,77.0
409.88,76.0
409.94,54.0
410.0,86.0
410.07,84.0
410.13,85.0
410.19,70.0
410.26,58.0
410.32,54.0
410.38,75.0
410.44,76.0
410.51,69.0
410.57,45.0
410.63,69.0
410.7,66.0
410.76,70.0
410.82,60.0
410.89,53.0
410.95,56.0
411.01,59.0
411.07,68.0
411.14,78.0
411.2,85.0
411.26,73.0
411.33,81.0
411.39,75.0
411.45,76.0
411.52,90.0
411.58,80.0
411.64,82.0
411.7,86.0
411.77,78.0
411.83,68.0
411.89,90.0
411.96,106.0
412.02,100.0
412.08,101.0
412.15,131.0
412.21,118.0
412.27,120.0
412.33,114.0
412.4,113.0
412.46,122.0
412.52,113.0
412.59,103.0
412.65,133.0
412.71,130.0
412.78,140.0
412.84,144.0
412.9,125.0
412.96,132.0
413.03,134.0
413.09,129.0
413.15,109.0
413.22,106.0
413.28,125.0
413.34,97.0
413.41,101.0
413.47,95.0
413.53,92.0
413.59,107.0
413.66,100.0
413.72,85.0
413.78,100.0
413.85,99.0
413.91,106.0
413.97,110.0
414.04,103.0
414.1,100.0
414.16,101.0
414.22,85.0
414.29,70.0
414.35,88.0
414.41,74.0
414.48,82.0
414.54,82.0
414.6,80.0
414.67,81.0
414.73,81.0
414.79,89.0
414.85,118.0
414.92,99.0
414.98,95.0
415.04,95.0
415.11,81.0
415.17,89.0
415.23,63.0
415.3,72.0
415.36,85.0
415.42,86.0
415.48,97.0
415.55,89.0
415.61,78.0
415.67,66.0
415.74,71.0
415.8,70.0
415.86,91.0
415.93,81.0
415.99,79.0
416.05,89.0
416.11,75.0
416.18,84.0
416.24,60.0
416.3,63.0
416.37,75.0
416.43,90.0
416.49,94.0
416.56,95.0
416.62,98.0
416.68,106.0
416.74,98.0
416.81,84.0
416.87,79.0
416.93,82.0
417.0,67.0
417.06,65.0
417.12,70.0
417.19,91.0
417.25,104.0
417.31,72.0
417.37,81.0
417.44,63.0
417.5,73.0
417.56,70.0
417.63,54.0
417.69,62.0
417.75,49.0
417.82,48.0
417.88,31.0
417.94,49.0
418.0,52.0
418.07,50.0
418.13,37.0
418.19,16.0
418.26,4.0
418.32,3.0
418.38,7.0
418.45,1.0
418.51,10.0
418.57,7.0
418.63,12.0
418.7,2.0
418.76,-4.0
418.82,-5.0
418.89,-1.0
418.95,-8.0
419.01,-14.0
419.08,1.0
419.14,2.0
419.2,9.0
419.26,21.0
419.33,14.0
419.39,26.0
419.45,16.0
419.52,22.0
419.58,12.0
419.64,36.0
419.71,38.0
419.77,20.0
419.83,25.0
419.89,23.0
419.96,21.0
420.02,28.0
420.08,22.0
420.15,23.0
420.21,30.0
420.27,10.0
420.34,12.0
420.4,23.0
420.46,46.0
420.52,32.0
420.59,55.0
420.65,71.0
420.71,66.0
420.78,54.0
420.84,85.0
420.9,89.0
420.97,63.0
421.03,85.0
421.09,80.0
421.15,83.0
421.22,79.0
421.28,71.0
421.34,60.0
421.41,81.0
421.47,82.0
421.53,78.0
421.6,75.0
421.66,70.0
421.72,86.0
421.78,70.0
421.85,78.0
421.91,94.0
421.97,78.0
422.04,76.0
422.1,73.0
422.16,82.0
422.23,74.0
422.29,93.0
422.35,86.0
422.41,91.0
422.48,77.0
422.54,77.0
422.6,92.0
422.67,79.0
422.73,94.0
422.79,89.0
422.86,83.0
422.92,96.0
422.98,103.0
423.04,91.0
423.11,113.0
423.17,108.0
423.23,91.0
423.3,97.0
423.36,92.0
423.42,90.0
423.49,94.0
423.55,78.0
423.61,108.0
423.67,118.0
423.74,89.0
423.8,92.0
423.86,82.0
423.93,93.0
423.99,108.0
424.05,79.0
424.12,86.0
424.18,78.0
424.24,72.0
424.3,87.0
424.37,64.0
424.43,81.0
424.49,71.0
424.56,61.0
424.62,74.0
424.68,60.0
424.75,62.0
424.81,62.0
424.87,43.0
424.93,54.0
425.0,55.0
425.06,56.0
425.12,54.0
425.19,60.0
425.25,43.0
425.31,37.0
425.38,51.0
425.44,36.0
425.5,45.0
425.56,28.0
425.63,36.0
425.69,30.0
425.75,39.0
425.82,42.0
425.88,39.0
425.94,20.0
426.01,23.0
426.07,50.0
426.13,27.0
426.19,27.0
426.26,22.0
426.32,19.0
426.38,20.0
426.45,23.0
426.51,23.0
426.57,32.0
426.64,30.0
426.7,31.0
426.76,28.0
426.82,23.0
426.89,39.0
426.95,15.0
427.01,31.0
427.08,37.0
427.14,41.0
427.2,30.0
427.27,26.0
427.33,19.0
427.39,32.0
427.45,38.0
427.52,56.0
427.58,21.0
427.64,27.0
427.71,31.0
427.77,22.0
427.83,44.0
427.9,52.0
427.96,61.0
428.02,74.0
428.08,63.0
428.15,63.0
428.21,46.0
428.27,38.0
428.34,34.0
428.4,32.0
428.46,56.0
428.53,46.0
428.59,56.0
428.65,28.0
428.71,37.0
428.78,46.0
428.84,33.0
428.9,36.0
428.97,28.0
429.03,36.0
429.09,69.0
429.16,55.0
429.22,46.0
429.28,52.0
429.34,73.0
429.41,80.0
429.47,45.0
429.53,66.0
429.6,60.0
429.66,41.0
429.72,29.0
429.79,59.0
429.85,69.0
429.91,43.0
429.97,47.0
430.04,60.0
430.1,65.0
430.16,67.0
430.23,59.0
430.29,41.0
430.35,52.0
430.42,45.0
430.48,71.0
430.54,74.0
430.6,55.0
430.67,66.0
430.73,66.0
430.79,49.0
430.86,59.0
430.92,55.0
430.98,56.0
431.05,53.0
431.11,46.0
431.17,41.0
431.23,37.0
431.3,56.0
431.36,62.0
431.42,50.0
431.49,59.0
431.55,78.0
431.61,87.0
431.68,68.0
431.74,63.0
431.8,74.0
431.86,91.0
431.93,63.0
431.99,66.0
432.05,52.0
432.12,71.0
432.18,82.0
432.24,91.0
432.31,78.0
432.37,82.0
432.43,102.0
432.49,94.0
432.56,78.0
432.62,74.0
432.68,78.0
432.75,83.0
432.81,99.0
432.87,106.0
432.94,95.0
433.0,93.0
433.06,93.0
433.12,95.0
433.19,98.0
433.25,83.0
433.31,76.0
433.38,90.0
433.44,82.0
433.5,76.0
433.57,96.0
433.63,98.0
433.69,81.0
433.75,70.0
433.82,95.0
433.88,119.0
433.94,119.0
434.01,99.0
434.07,88.0
434.13,96.0
434.2,96.0
434.26,88.0
434.32,91.0
434.38,83.0
434.45,97.0
434.51,103.0
434.57,101.0
434.64,108.0
434.7,93.0
434.76,97.0
434.83,89.0
434.89,98.0
434.95,97.0
435.01,77.0
435.08,82.0
435.14,74.0
435.2,71.0
435.27,66.0
435.33,56.0
435.39,74.0
435.46,75.0
435.52,50.0
435.58,43.0
435.64,45.0
435.71,38.0
435.77,36.0
435.83,66.0
435.9,74.0
435.96,80.0
436.02,72.0
436.09,72.0
436.15,87.0
436.21,78.0
436.27,76.0
436.34,84.0
436.4,84.0
436.46,83.0
436.53,76.0
436.59,77.0
436.65,82.0
436.72,77.0
436.78,90.0
436.84,59.0
436.9,74.0
436.97,74.0
437.03,71.0
437.09,65.0
437.16,76.0
437.22,65.0
437.28,65.0
437.35,96.0
437.41,83.0
437.47,109.0
437.53,83.0
437.6,108.0
437.66,126.0
437.72,114.0
437.79,105.0
437.85,105.0
437.91,99.0
437.98,112.0
438.04,115.0
438.1,125.0
438.16,113.0
438.23,132.0
438.29,132.0
438.35,118.0
438.42,132.0
438.48,135.0
438.54,133.0
438.61,133.0
438.67,144.0
438.73,159.0
438.79,141.0
438.86,129.0
438.92,138.0
438.98,137.0
439.05,136.0
439.11,136.0
439.17,135.0
439.24,144.0
439.3,147.0
439.36,140.0
439.42,131.0
439.49,148.0
439.55,129.0
439.61,143.0
439.68,159.0
439.74,140.0
439.8,149.0
439.87,138.0
439.93,148.0
439.99,143.0
440.05,150.0
440.12,159.0
440.18,159.0
440.24,178.0
440.31,149.0
440.37,144.0
440.43,133.0
440.5,144.0
440.56,139.0
440.62,141.0
440.68,133.0
440.75,126.0
440.81,146.0
440.87,156.0
440.94,168.0
441.0,164.0
441.06,145.0
441.13,163.0
441.19,149.0
441.25,134.0
441.31,120.0
441.38,121.0
441.44,118.0
441.5,129.0
441.57,131.0
441.63,133.0
441.69,111.0
441.76,111.0
441.82,105.0
441.88,126.0
441.94,124.0
442.01,106.0
442.07,118.0
442.13,132.0
442.2,119.0
442.26,140.0
442.32,147.0
442.39,148.0
442.45,148.0
442.51,160.0
442.57,136.0
442.64,144.0
442.7,144.0
442.76,129.0
442.83,133.0
442.89,129.0
442.95,119.0
443.02,111.0
443.08,114.0
443.14,121.0
443.2,115.0
443.27,111.0
443.33,105.0
443.39,111.0
443.46,96.0
443.52,94.0
443.58,108.0
443.65,115.0
443.71,123.0
443.77,105.0
443.83,107.0
443.9,122.0
443.96,109.0
444.02,106.0
444.09,94.0
444.15,85.0
444.21,93.0
444.28,88.0
444.34,63.0
444.4,64.0
444.46,82.0
444.53,82.0
444.59,87.0
444.65,87.0
444.72,96.0
444.78,79.0
444.84,73.0
444.91,70.0
444.97,51.0
445.03,72.0
445.09,79.0
445.16,72.0
445.22,65.0
445.28,80.0
445.35,78.0
445.41,67.0
445.47,74.0
445.54,91.0
445.6,106.0
445.66,94.0
445.72,83.0
445.79,97.0
445.85,99.0
445.91,118.0
445.98,110.0
446.04,97.0
446.1,112.0
446.17,106.0
446.23,110.0
446.29,103.0
446.35,96.0
446.42,111.0
446.48,100.0
446.54,96.0
446.61,114.0
446.67,116.0
446.73,127.0
446.8,118.0
446.86,122.0
446.92,119.0
446.98,130.0
447.05,116.0
447.11,98.0
447.17,136.0
447.24,117.0
447.3,113.0
447.36,129.0
447.43,118.0
447.49,138.0
447.55,128.0
447.61,126.0
447.68,106.0
447.74,127.0
447.8,145.0
447.87,135.0
447.93,122.0
447.99,122.0
448.06,111.0
448.12,114.0
448.18,127.0
448.24,119.0
448.31,118.0
448.37,104.0
448.43,121.0
448.5,130.0
448.56,108.0
448.62,116.0
448.69,135.0
448.75,142.0
448.81,138.0
448.87,126.0
448.94,136.0
449.0,137.0
449.06,137.0
449.13,137.0
449.19,140.0
449.25,136.0
449.32,134.0
449.38,141.0
449.44,159.0
449.5,162.0
449.57,152.0
449.63,149.0
449.69,144.0
449.76,164.0
449.82,171.0
449.88,166.0
449.95,161.0
450.01,151.0
450.07,135.0
450.13,129.0
450.2,110.0
450.26,117.0
450.32,129.0
450.39,123.0
450.45,122.0
450.51,124.0
450.58,122.0
450.64,104.0
450.7,104.0
450.76,113.0
450.83,114.0
450.89,96.0
450.95,96.0
451.02,82.0
451.08,86.0
451.14,110.0
451.21,102.0
451.27,99.0
451.33,89.0
451.39,103.0
451.46,72.0
451.52,80.0
451.58,80.0
451.65,67.0
451.71,88.0
451.77,84.0
451.84,65.0
451.9,79.0
451.96,73.0
452.02,71.0
452.09,40.0
452.15,47.0
452.21,57.0
452.28,30.0
452.34,47.0
452.4,35.0
452.47,39.0
452.53,30.0
452.59,23.0
452.65,45.0
452.72,29.0
452.78,36.0
452.84,42.0
452.91,30.0
452.97,16.0
453.03,38.0
453.1,28.0
453.16,37.0
453.22,44.0
453.28,38.0
453.35,50.0
453.41,34.0
453.47,40.0
453.54,29.0
453.6,46.0
453.66,43.0
453.73,36.0
453.79,28.0
453.85,26.0
453.91,35.0
453.98,10.0
454.04,12.0
454.1,40.0
454.17,19.0
454.23,32.0
454.29,23.0
454.36,28.0
454.42,13.0
454.48,19.0
454.54,28.0
454.61,35.0
454.67,32.0
454.73,23.0
454.8,17.0
454.86,17.0
454.92,45.0
454.99,12.0
455.05,20.0
455.11,16.0
455.17,47.0
455.24,55.0
455.3,46.0
455.36,53.0
455.43,66.0
455.49,63.0
455.55,61.0
455.62,55.0
455.68,48.0
455.74,66.0
455.8,58.0
455.87,74.0
455.93,79.0
455.99,56.0
456.06,61.0
456.12,56.0
456.18,53.0
456.25,53.0
456.31,58.0
456.37,40.0
456.43,46.0
456.5,66.0
456.56,70.0
456.62,56.0
456.69,54.0
456.75,69.0
456.81,63.0
456.88,54.0
456.94,74.0
457.0,67.0
457.06,71.0
457.13,78.0
457.19,88.0
457.25,107.0
457.32,87.0
457.38,59.0
457.44,59.0
457.51,76.0
457.57,73.0
457.63,55.0
457.69,61.0
457.76,70.0
457.82,80.0
457.88,85.0
457.95,78.0
458.01,68.0
458.07,48.0
458.14,42.0
458.2,49.0
458.26,56.0
458.32,70.0
458.39,63.0
458.45,34.0
458.51,36.0
458.58,30.0
458.64,45.0
458.7,49.0
458.77,31.0
458.83,41.0
458.89,47.0
458.95,43.0
459.02,39.0
459.08,48.0
459.14,44.0
459.21,50.0
459.27,44.0
459.33,55.0
459.4,37.0
459.46,35.0
459.52,42.0
459.58,36.0
459.65,39.0
459.71,27.0
459.77,20.0
459.84,34.0
459.9,23.0
459.96,39.0
460.03,24.0
460.09,26.0
460.15,23.0
460.21,30.0
460.28,29.0
460.34,9.0
460.4,8.0
460.47,27.0
460.53,10.0
460.59,19.0
460.66,32.0
460.72,37.0
460.78,38.0
460.84,47.0
460.91,55.0
460.97,23.0
461.03,26.0
461.1,37.0
461.16,47.0
461.22,71.0
461.29,74.0
461.35,59.0
461.41,40.0
461.47,36.0
461.54,19.0
461.6,41.0
461.66,56.0
461.73,68.0
461.79,68.0
461.85,41.0
461.92,47.0
461.98,63.0
462.04,52.0
462.1,49.0
462.17,60.0
462.23,37.0
462.29,42.0
462.36,48.0
462.42,47.0
462.48,54.0
462.55,48.0
462.61,85.0
462.67,69.0
462.73,82.0
462.8,72.0
462.86,75.0
462.92,74.0
462.99,67.0
463.05,88.0
463.11,86.0
463.18,101.0
463.24,85.0
463.3,72.0
463.36,81.0
463.43,88.0
463.49,74.0
463.55,91.0
463.62,113.0
463.68,100.0
463.74,120.0
463.81,135.0
463.87,127.0
463.93,98.0
463.99,108.0
464.06,121.0
464.12,111.0
464.18,100.0
464.25,105.0
464.31,96.0
464.37,85.0
464.44,88.0
464.5,97.0
464.56,94.0
464.62,84.0
464.69,74.0
464.75,74.0
464.81,86.0
464.88,74.0
464.94,105.0
465.0,101.0
465.07,96.0
465.13,94.0
465.19,101.0
465.25,118.0
465.32,99.0
465.38,98.0
465.44,115.0
465.51,115.0
465.57,123.0
465.63,130.0
465.7,131.0
465.76,137.0
465.82,127.0
465.88,126.0
465.95,123.0
466.01,130.0
466.07,143.0
466.14,137.0
466.2,127.0
466.26,125.0
466.33,132.0
466.39,127.0
466.45,138.0
466.51,146.0
466.58,141.0
466.64,130.0
466.7,102.0
466.77,118.0
466.83,147.0
466.89,135.0
466.96,119.0
467.02,116.0
467.08,96.0
467.14,122.0
467.21,122.0
467.27,110.0
467.33,119.0
467.4,107.0
467.46,119.0
467.52,123.0
467.59,122.0
467.65,142.0
467.71,140.0
467.77,114.0
467.84,133.0
467.9,126.0
467.96,110.0
468.03,118.0
468.09,128.0
468.15,121.0
468.22,122.0
468.28,132.0
468.34,136.0
468.4,137.0
468.47,125.0
468.53,127.0
468.59,122.0
468.66,106.0
468.72,115.0
468.78,116.0
468.85,110.0
468.91,110.0
468.97,121.0
469.03,108.0
469.1,101.0
469.16,96.0
469.22,100.0
469.29,107.0
469.35,95.0
469.41,75.0
469.48,64.0
469.54,67.0
469.6,80.0
469.66,80.0
469.73,51.0
469.79,59.0
469.85,73.0
469.92,64.0
469.98,60.0
470.04,60.0
470.11,61.0
470.17,70.0
470.23,64.0
470.29,60.0
470.36,66.0
470.42,66.0
470.48,58.0
470.55,59.0
470.61,64.0
470.67,57.0
470.74,70.0
470.8,67.0
470.86,79.0
470.92,81.0
470.99,85.0
471.05,96.0
471.11,89.0
471.18,116.0
471.24,96.0
471.3,93.0
471.37,97.0
471.43,80.0
471.49,92.0
471.55,97.0
471.62,89.0
471.68,94.0
471.74,100.0
471.81,90.0
471.87,90.0
471.93,100.0
472.0,94.0
472.06,99.0
472.12,111.0
472.18,103.0
472.25,108.0
472.31,144.0
472.37,133.0
472.44,141.0
472.5,147.0
472.56,129.0
472.63,138.0
472.69,141.0
472.75,138.0
472.81,154.0
472.88,165.0
472.94,152.0
473.0,151.0
473.07,155.0
473.13,152.0
473.19,147.0
473.26,153.0
473.32,147.0
473.38,149.0
473.44,138.0
473.51,141.0
473.57,146.0
473.63,147.0
473.7,127.0
473.76,129.0
473.82,133.0
473.89,122.0
473.95,129.0
474.01,116.0
474.07,124.0
474.14,135.0
474.2,113.0
474.26,104.0
474.33,97.0
474.39,91.0
474.45,76.0
474.52,68.0
474.58,81.0
474.64,85.0
474.7,97.0
474.77,78.0
474.83,63.0
474.89,68.0
474.96,56.0
475.02,56.0
475.08,78.0
475.15,71.0
475.21,59.0
475.27,83.0
475.33,71.0
475.4,71.0
475.46,74.0
475.52,59.0
475.59,52.0
475.65,66.0
475.71,45.0
475.78,56.0
475.84,49.0
475.9,41.0
475.96,59.0
476.03,62.0
476.09,62.0
476.15,46.0
476.22,25.0
476.28,17.0
476.34,40.0
476.41,38.0
476.47,15.0
476.53,43.0
476.59,48.0
476.66,25.0
476.72,18.0
476.78,27.0
476.85,29.0
476.91,17.0
476.97,22.0
477.04,4.0
477.1,11.0
477.16,6.0
477.22,1.0
477.29,12.0
477.35,11.0
477.41,22.0
477.48,7.0
477.54,0.0
477.6,-6.0
477.67,-9.0
477.73,-4.0
477.79,-27.0
477.85,-45.0
477.92,-49.0
477.98,-29.0
478.04,-26.0
478.11,-45.0
478.17,-31.0
478.23,-35.0
478.3,-39.0
478.36,-51.0
478.42,-41.0
478.48,-34.0
478.55,-37.0
478.61,-45.0
478.67,-53.0
478.74,-40.0
478.8,-33.0
478.86,-38.0
478.93,-55.0
478.99,-35.0
479.05,-25.0
479.11,-33.0
479.18,-38.0
479.24,-34.0
479.3,-34.0
479.37,-17.0
479.43,-1.0
479.49,-9.0
479.56,-15.0
479.62,-31.0
479.68,-17.0
479.74,-31.0
479.81,-23.0
479.87,-23.0
479.93,-2.0
480.0,2.0
480.06,10.0
480.12,15.0
480.19,19.0
480.25,10.0
480.31,17.0
480.37,16.0
480.44,10.0
480.5,23.0
480.56,28.0
480.63,13.0
480.69,10.0
480.75,26.0
480.82,28.0
480.88,18.0
480.94,16.0
481.0,8.0
481.07,35.0
481.13,13.0
481.19,21.0
481.26,8.0
481.32,12.0
481.38,20.0
481.45,17.0
481.51,17.0
481.57,3.0
481.63,16.0
481.7,42.0
481.76,12.0
481.82,23.0
481.89,4.0
481.95,21.0
482.01,34.0
482.08,16.0
482.14,38.0
482.2,56.0
482.26,34.0
482.33,36.0
482.39,51.0
482.45,37.0
482.52,39.0
482.58,34.0
482.64,25.0
482.71,42.0
482.77,48.0
482.83,46.0
482.89,48.0
482.96,40.0
483.02,44.0
483.08,44.0
483.15,50.0
483.21,46.0
483.27,36.0
483.34,40.0
483.4,39.0
483.46,33.0
483.52,68.0
483.59,57.0
483.65,56.0
483.71,70.0
483.78,67.0
483.84,63.0
483.9,73.0
483.97,75.0
484.03,77.0
484.09,52.0
484.15,44.0
484.22,49.0
484.28,41.0
484.34,58.0
484.41,51.0
484.47,29.0
484.53,34.0
484.6,38.0
484.66,65.0
484.72,59.0
484.78,47.0
484.85,49.0
484.91,50.0
484.97,42.0
485.04,50.0
485.1,49.0
485.16,48.0
485.23,53.0
485.29,42.0
485.35,48.0
485.41,52.0
485.48,62.0
485.54,51.0
485.6,44.0
485.67,46.0
485.73,40.0
485.79,39.0
485.86,19.0
485.92,29.0
485.98,45.0
486.04,43.0
486.11,45.0
486.17,51.0
486.23,63.0
486.3,55.0
486.36,52.0
486.42,60.0
486.49,82.0
486.55,83.0
486.61,85.0
486.67,74.0
486.74,67.0
486.8,83.0
486.86,90.0
486.93,76.0
486.99,92.0
487.05,105.0
487.12,104.0
487.18,95.0
487.24,98.0
487.3,91.0
487.37,106.0
487.43,88.0
487.49,83.0
487.56,111.0
487.62,108.0
487.68,111.0
487.75,115.0
487.81,134.0
487.87,136.0
487.93,119.0
488.0,111.0
488.06,132.0
488.12,128.0
488.19,130.0
488.25,137.0
488.31,131.0
488.38,140.0
488.44,126.0
488.5,136.0
488.56,125.0
488.63,121.0
488.69,136.0
488.75,125.0
488.82,123.0
488.88,133.0
488.94,134.0
489.01,166.0
489.07,162.0
489.13,167.0
489.19,160.0
489.26,164.0
489.32,161.0
489.38,132.0
489.45,155.0
489.51,168.0
489.57,174.0
489.64,171.0
489.7,173.0
489.76,188.0
489.82,186.0
489.89,202.0
489.95,219.0
490.01,212.0
490.08,222.0
490.14,222.0
490.2,208.0
490.27,208.0
490.33,217.0
490.39,223.0
490.45,202.0
490.52,199.0
490.58,189.0
490.64,205.0
490.71,206.0
490.77,186.0
490.83,205.0
490.9,210.0
490.96,201.0
491.02,203.0
491.08,205.0
491.15,196.0
491.21,208.0
491.27,173.0
491.34,172.0
491.4,185.0
491.46,193.0
491.53,191.0
491.59,169.0
491.65,170.0
491.71,168.0
491.78,173.0
491.84,185.0
491.9,195.0
491.97,181.0
492.03,171.0
492.09,180.0
492.16,179.0
492.22,172.0
492.28,166.0
492.34,166.0
492.41,177.0
492.47,140.0
492.53,157.0
492.6,151.0
492.66,137.0
492.72,145.0
492.79,130.0
492.85,123.0
492.91,127.0
492.97,123.0
493.04,128.0
493.1,127.0
493.16,134.0
493.23,123.0
493.29,122.0
493.35,118.0
493.42,114.0
493.48,102.0
493.54,118.0
493.6,124.0
493.67,116.0
493.73,100.0
493.79,108.0
493.86,111.0
493.92,103.0
493.98,115.0
494.05,111.0
494.11,130.0
494.17,125.0
494.23,118.0
494.3,139.0
494.36,144.0
494.42,135.0
494.49,131.0
494.55,132.0
494.61,126.0
494.68,126.0
494.74,126.0
494.8,126.0
494.86,117.0
494.93,102.0
494.99,120.0
495.05,130.0
495.12,140.0
495.18,121.0
495.24,125.0
495.31,135.0
495.37,118.0
495.43,114.0
495.49,105.0
495.56,103.0
495.62,113.0
495.68,108.0
495.75,96.0
495.81,111.0
495.87,93.0
495.94,108.0
496.0,115.0
496.06,105.0
496.12,107.0
496.19,104.0
496.25,89.0
496.31,95.0
496.38,120.0
496.44,105.0
496.5,87.0
496.57,100.0
496.63,95.0
496.69,93.0
496.75,94.0
496.82,86.0
496.88,103.0
496.94,86.0
497.01,82.0
497.07,55.0
497.13,45.0
497.2,89.0
497.26,92.0
497.32,90.0
497.38,91.0
497.45,85.0
497.51,90.0
497.57,109.0
497.64,107.0
497.7,109.0
497.76,118.0
497.83,110.0
497.89,101.0
497.95,104.0
498.01,97.0
498.08,100.0
498.14,90.0
498.2,104.0
498.27,94.0
498.33,113.0
498.39,101.0
498.46,98.0
498.52,115.0
498.58,107.0
498.64,107.0
498.71,98.0
498.77,106.0
498.83,112.0
498.9,109.0
498.96,104.0
499.02,101.0
499.09,130.0
499.15,101.0
499.21,103.0
499.27,91.0
499.34,87.0
499.4,98.0
499.46,77.0
499.53,104.0
499.59,105.0
499.65,97.0
499.72,102.0
499.78,86.0
499.84,97.0
499.9,89.0
499.97,73.0
500.03,71.0
500.09,63.0
500.16,63.0
500.22,76.0
500.28,69.0
500.35,85.0
500.41,61.0
500.47,82.0
500.53,88.0
500.6,81.0
500.66,101.0
500.72,86.0
500.79,80.0
500.85,70.0
500.91,62.0
500.98,82.0
501.04,83.0
501.1,86.0
501.16,74.0
501.23,86.0
501.29,56.0
501.35,76.0
501.42,59.0
501.48,59.0
501.54,89.0
501.61,73.0
501.67,56.0
501.73,51.0
501.79,78.0
501.86,56.0
501.92,75.0
501.98,68.0
502.05,34.0
502.11,35.0
502.17,48.0
502.24,54.0
502.3,47.0
502.36,44.0
502.42,33.0
502.49,27.0
502.55,33.0
502.61,38.0
502.68,35.0
502.74,40.0
502.8,31.0
502.87,38.0
502.93,36.0
502.99,27.0
503.05,31.0
503.12,24.0
503.18,37.0
503.24,21.0
503.31,27.0
503.37,52.0
503.43,41.0
503.5,24.0
503.56,44.0
503.62,40.0
503.68,33.0
503.75,49.0
503.81,35.0
503.87,15.0
503.94,43.0
504.0,41.0
504.06,41.0
504.13,46.0
504.19,43.0
504.25,62.0
504.31,53.0
504.38,60.0
504.44,62.0
504.5,50.0
504.57,60.0
504.63,71.0
504.69,56.0
504.76,72.0
504.82,74.0
504.88,53.0
504.94,65.0
505.01,58.0
505.07,63.0
505.13,70.0
505.2,87.0
505.26,73.0
505.32,79.0
505.39,71.0
505.45,70.0
505.51,71.0
505.57,83.0
505.64,78.0
505.7,88.0
505.76,99.0
505.83,92.0
505.89,76.0
505.95,60.0
506.02,79.0
506.08,87.0
506.14,57.0
506.2,69.0
506.27,87.0
506.33,79.0
506.39,77.0
506.46,89.0
506.52,73.0
506.58,97.0
506.65,114.0
506.71,98.0
506.77,92.0
506.83,92.0
506.9,92.0
506.96,88.0
507.02,92.0
507.09,86.0
507.15,100.0
507.21,87.0
507.28,88.0
507.34,85.0
507.4,82.0
507.46,97.0
507.53,95.0
507.59,94.0
507.65,96.0
507.72,104.0
507.78,77.0
507.84,76.0
507.91,82.0
507.97,68.0
508.03,67.0
508.09,69.0
508.16,61.0
508.22,56.0
508.28,56.0
508.35,71.0
508.41,87.0
508.47,76.0
508.54,74.0
508.6,97.0
508.66,103.0
508.72,84.0
508.79,114.0
508.85,103.0
508.91,90.0
508.98,109.0
509.04,100.0
509.1,107.0
509.17,104.0
509.23,84.0
509.29,101.0
509.35,101.0
509.42,96.0
509.48,100.0
509.54,98.0
509.61,104.0
509.67,83.0
509.73,66.0
509.8,79.0
509.86,72.0
509.92,89.0
509.98,69.0
510.05,61.0
510.11,68.0
510.17,90.0
510.24,86.0
510.3,67.0
510.36,66.0
510.43,62.0
510.49,71.0
510.55,67.0
510.61,45.0
510.68,44.0
510.74,56.0
510.8,40.0
510.87,26.0
510.93,35.0
510.99,32.0
511.06,27.0
511.12,47.0
511.18,48.0
511.24,29.0
511.31,6.0
511.37,36.0
511.43,40.0
511.5,34.0
511.56,24.0
511.62,16.0
511.69,23.0
511.75,13.0
511.81,5.0
511.87,32.0
511.94,34.0
512.0,38.0
512.06,47.0
512.13,49.0
512.19,30.0
512.25,54.0
512.32,57.0
512.38,58.0
512.44,75.0
512.5,66.0
512.57,71.0
512.63,74.0
512.69,75.0
512.76,61.0
512.82,75.0
512.88,78.0
512.95,67.0
513.01,76.0
513.07,93.0
513.13,89.0
513.2,82.0
513.26,87.0
513.32,79.0
513.39,98.0
513.45,92.0
513.51,90.0
513.58,98.0
513.64,90.0
513.7,100.0
513.76,112.0
513.83,96.0
513.89,103.0
513.95,80.0
514.02,109.0
514.08,104.0
514.14,106.0
514.21,93.0
514.27,75.0
514.33,103.0
514.39,104.0
514.46,85.0
514.52,65.0
514.58,69.0
514.65,84.0
514.71,96.0
514.77,94.0
514.84,86.0
514.9,93.0
514.96,109.0
515.02,93.0
515.09,100.0
515.15,100.0
515.21,96.0
515.28,117.0
515.34,109.0
515.4,104.0
515.47,97.0
515.53,97.0
515.59,137.0
515.65,119.0
515.72,123.0
515.78,115.0
515.84,118.0
515.91,128.0
515.97,102.0
516.03,104.0
516.1,125.0
516.16,122.0
516.22,111.0
516.28,112.0
516.35,127.0
516.41,115.0
516.47,103.0
516.54,102.0
516.6,111.0
516.66,123.0
516.73,112.0
516.79,120.0
516.85,135.0
516.91,137.0
516.98,110.0
517.04,128.0
517.1,124.0
517.17,115.0
517.23,137.0
517.29,122.0
517.36,133.0
517.42,128.0
517.48,122.0
517.54,125.0
517.61,126.0
517.67,129.0
517.73,116.0
517.8,123.0
517.86,118.0
517.92,118.0
517.99,111.0
518.05,102.0
518.11,108.0
518.17,101.0
518.24,100.0
518.3,109.0
518.36,116.0
518.43,120.0
518.49,107.0
518.55,90.0
518.62,90.0
518.68,92.0
518.74,108.0
518.8,102.0
518.87,91.0
518.93,100.0
518.99,109.0
519.06,96.0
519.12,109.0
519.18,102.0
519.25,107.0
519.31,107.0
519.37,100.0
519.43,94.0
519.5,96.0
519.56,86.0
519.62,91.0
519.69,83.0
519.75,89.0
519.81,84.0
519.88,63.0
519.94,62.0
520.0,68.0
520.06,68.0
520.13,67.0
520.19,67.0
520.25,71.0
520.32,71.0
520.38,54.0
520.44,35.0
520.51,51.0
520.57,59.0
520.63,63.0
520.69,63.0
520.76,65.0
520.82,70.0
520.88,74.0
520.95,77.0
521.01,67.0
521.07,73.0
521.14,87.0
521.2,81.0
521.26,81.0
521.32,90.0
521.39,74.0
521.45,85.0
521.51,104.0
521.58,90.0
521.64,78.0
521.7,89.0
521.77,87.0
521.83,91.0
521.89,91.0
521.95,92.0
522.02,71.0
522.08,104.0
522.14,103.0
522.21,85.0
522.27,76.0
522.33,68.0
522.4,83.0
522.46,78.0
522.52,74.0
522.58,71.0
522.65,85.0
522.71,82.0
522.77,95.0
522.84,113.0
522.9,100.0
522.96,104.0
523.03,106.0
523.09,91.0
523.15,98.0
523.21,108.0
523.28,115.0
523.34,126.0
523.4,117.0
523.47,105.0
523.53,118.0
523.59,108.0
523.66,123.0
523.72,110.0
523.78,107.0
523.84,117.0
523.91,126.0
523.97,128.0
524.03,120.0
524.1,126.0
524.16,140.0
524.22,141.0
524.29,141.0
524.35,151.0
524.41,140.0
524.47,114.0
524.54,123.0
524.6,134.0
524.66,135.0
524.73,133.0
524.79,118.0
524.85,126.0
524.92,122.0
524.98,122.0
525.04,122.0
525.1,142.0
525.17,134.0
525.23,120.0
525.29,116.0
525.36,114.0
525.42,101.0
525.48,76.0
525.55,69.0
525.61,88.0
525.67,96.0
525.73,81.0
525.8,72.0
525.86,92.0
525.92,72.0
525.99,63.0
526.05,75.0
526.11,67.0
526.18,58.0
526.24,65.0
526.3,63.0
526.36,78.0
526.43,71.0
526.49,82.0
526.55,82.0
526.62,74.0
526.68,84.0
526.74,84.0
526.81,67.0
526.87,65.0
526.93,64.0
526.99,49.0
527.06,64.0
527.12,71.0
527.18,57.0
527.25,67.0
527.31,70.0
527.37,60.0
527.44,56.0
527.5,70.0
527.56,50.0
527.62,57.0
527.69,46.0
527.75,47.0
527.81,40.0
527.88,40.0
527.94,23.0
528.0,32.0
528.07,51.0
528.13,29.0
528.19,44.0
528.25,51.0
528.32,59.0
528.38,46.0
528.44,56.0
528.51,70.0
528.57,64.0
528.63,73.0
528.7,70.0
528.76,76.0
528.82,73.0
528.88,59.0
528.95,71.0
529.01,59.0
529.07,45.0
529.14,51.0
529.2,74.0
529.26,69.0
529.33,59.0
529.39,55.0
529.45,55.0
529.51,46.0
529.58,65.0
529.64,60.0
529.7,66.0
529.77,70.0
529.83,65.0
529.89,66.0
529.96,48.0
530.02,35.0
530.08,49.0
530.14,63.0
530.21,49.0
530.27,39.0
530.33,49.0
530.4,45.0
530.46,41.0
530.52,48.0
530.59,53.0
530.65,39.0
530.71,44.0
530.77,70.0
530.84,65.0
530.9,70.0
530.96,77.0
531.03,82.0
531.09,71.0
531.15,87.0
531.22,67.0
531.28,55.0
531.34,72.0
531.4,73.0
531.47,72.0
531.53,63.0
531.59,67.0
531.66,71.0
531.72,73.0
531.78,70.0
531.85,64.0
531.91,86.0
531.97,94.0
532.03,92.0
532.1,84.0
532.16,85.0
532.22,89.0
532.29,83.0
532.35,74.0
532.41,67.0
532.48,48.0
532.54,57.0
532.6,72.0
532.66,57.0
532.73,71.0
532.79,59.0
532.85,71.0
532.92,61.0
532.98,56.0
533.04,73.0
533.11,74.0
533.17,85.0
533.23,81.0
533.29,102.0
533.36,87.0
533.42,92.0
533.48,76.0
533.55,68.0
533.61,58.0
533.67,89.0
533.74,103.0
533.8,98.0
533.86,108.0
533.92,120.0
533.99,106.0
534.05,104.0
534.11,108.0
534.18,123.0
534.24,132.0
534.3,122.0
534.37,119.0
534.43,109.0
534.49,101.0
534.55,96.0
534.62,109.0
534.68,108.0
534.74,93.0
534.81,101.0
534.87,92.0
534.93,89.0
535.0,101.0
535.06,113.0
535.12,100.0
535.18,111.0
535.25,101.0
535.31,92.0
535.37,97.0
535.44,79.0
535.5,84.0
535.56,93.0
535.63,85.0
535.69,79.0
535.75,54.0
535.81,68.0
535.88,78.0
535.94,55.0
536.0,49.0
536.07,57.0
536.13,75.0
536.19,65.0
536.26,38.0
536.32,52.0
536.38,51.0
536.44,50.0
536.51,59.0
536.57,46.0
536.63,61.0
536.7,39.0
536.76,52.0
536.82,42.0
536.89,31.0
536.95,42.0
537.01,36.0
537.07,33.0
537.14,39.0
537.2,42.0
537.26,24.0
537.33,46.0
537.39,68.0
537.45,57.0
537.52,61.0
537.58,32.0
537.64,30.0
537.7,56.0
537.77,46.0
537.83,53.0
537.89,68.0
537.96,80.0
538.02,76.0
538.08,63.0
538.15,84.0
538.21,73.0
538.27,68.0
538.33,72.0
538.4,69.0
538.46,79.0
538.52,64.0
538.59,78.0
538.65,85.0
538.71,84.0
538.78,100.0
538.84,96.0
538.9,104.0
538.96,114.0
539.03,106.0
539.09,115.0
539.15,87.0
539.22,102.0
539.28,106.0
539.34,96.0
539.41,118.0
539.47,129.0
539.53,125.0
539.59,143.0
539.66,120.0
539.72,107.0
539.78,129.0
539.85,145.0
539.91,149.0
539.97,136.0
540.04,136.0
540.1,154.0
540.16,140.0
540.22,151.0
540.29,160.0
540.35,138.0
540.41,157.0
540.48,158.0
540.54,161.0
540.6,167.0
540.67,178.0
540.73,176.0
540.79,169.0
540.85,182.0
540.92,187.0
540.98,174.0
541.04,173.0
541.11,185.0
541.17,177.0
541.23,166.0
541.3,162.0
541.36,181.0
541.42,174.0
541.48,164.0
541.55,171.0
541.61,176.0
541.67,152.0
541.74,156.0
541.8,168.0
541.86,189.0
541.93,178.0
541.99,162.0
542.05,156.0
542.11,181.0
542.18,164.0
542.24,175.0
542.3,191.0
542.37,181.0
542.43,188.0
542.49,190.0
542.56,174.0
542.62,177.0
542.68,189.0
542.74,175.0
542.81,177.0
542.87,172.0
542.93,148.0
543.0,148.0
543.06,172.0
543.12,158.0
543.19,162.0
543.25,134.0
543.31,151.0
543.37,141.0
543.44,125.0
543.5,137.0
543.56,132.0
543.63,118.0
543.69,126.0
543.75,133.0
543.82,126.0
543.88,136.0
543.94,130.0
544.0,119.0
544.07,113.0
544.13,126.0
544.19,95.0
544.26,110.0
544.32,119.0
544.38,126.0
544.45,133.0
544.51,107.0
544.57,113.0
544.63,118.0
544.7,121.0
544.76,108.0
544.82,124.0
544.89,126.0
544.95,122.0
545.01,130.0
545.08,118.0
545.14,115.0
545.2,120.0
545.26,115.0
545.33,115.0
545.39,112.0
545.45,114.0
545.52,114.0
545.58,118.0
545.64,95.0
545.71,88.0
545.77,114.0
545.83,116.0
545.89,114.0
545.96,100.0
546.02,80.0
546.08,86.0
546.15,105.0
546.21,101.0
546.27,89.0
546.34,84.0
546.4,115.0
546.46,102.0
546.52,119.0
546.59,127.0
546.65,103.0
546.71,129.0
546.78,111.0
546.84,123.0
546.9,110.0
546.97,107.0
547.03,105.0
547.09,129.0
547.15,122.0
547.22,126.0
547.28,113.0
547.34,104.0
547.41,98.0
547.47,100.0
547.53,114.0
547.6,109.0
547.66,114.0
547.72,128.0
547.78,109.0
547.85,104.0
547.91,108.0
547.97,133.0
548.04,125.0
548.1,116.0
548.16,115.0
548.23,109.0
548.29,109.0
548.35,109.0
548.41,94.0
548.48,107.0
548.54,93.0
548.6,110.0
548.67,105.0
548.73,106.0
548.79,120.0
548.86,109.0
548.92,114.0
548.98,127.0
549.04,126.0
549.11,123.0
549.17,130.0
549.23,141.0
549.3,142.0
549.36,111.0
549.42,117.0
549.49,120.0
549.55,126.0
549.61,122.0
549.67,117.0
549.74,122.0
549.8,132.0
549.86,132.0
549.93,133.0
549.99,127.0
550.05,131.0
550.12,137.0
550.18,129.0
550.24,150.0
550.3,150.0
550.37,137.0
550.43,138.0
550.49,142.0
550.56,140.0
550.62,146.0
550.68,133.0
550.75,136.0
550.81,139.0
550.87,150.0
550.93,136.0
551.0,114.0
551.06,144.0
551.12,144.0
551.19,142.0
551.25,148.0
551.31,123.0
551.38,103.0
551.44,128.0
551.5,128.0
551.56,111.0
551.63,119.0
551.69,109.0
551.75,108.0
551.82,90.0
551.88,97.0
551.94,89.0
552.01,106.0
552.07,91.0
552.13,111.0
552.19,113.0
552.26,102.0
552.32,100.0
552.38,96.0
552.45,79.0
552.51,81.0
552.57,68.0
552.64,63.0
552.7,70.0
552.76,82.0
552.82,66.0
552.89,71.0
552.95,58.0
553.01,65.0
553.08,74.0
553.14,76.0
553.2,62.0
553.27,61.0
553.33,69.0
553.39,66.0
553.45,60.0
553.52,36.0
553.58,64.0
553.64,71.0
553.71,57.0
553.77,53.0
553.83,61.0
553.9,65.0
553.96,41.0
554.02,63.0
554.08,59.0
554.15,57.0
554.21,78.0
554.27,76.0
554.34,92.0
554.4,70.0
554.46,67.0
554.53,71.0
554.59,89.0
554.65,100.0
554.71,96.0
554.78,100.0
554.84,85.0
554.9,80.0
554.97,104.0
555.03,103.0
555.09,95.0
555.16,79.0
555.22,71.0
555.28,91.0
555.34,96.0
555.41,77.0
555.47,84.0
555.53,81.0
555.6,82.0
555.66,99.0
555.72,83.0
555.79,83.0
555.85,87.0
555.91,100.0
555.97,102.0
556.04,88.0
556.1,98.0
556.16,84.0
556.23,93.0
556.29,95.0
556.35,87.0
556.42,122.0
556.48,101.0
556.54,107.0
556.6,115.0
556.67,97.0
556.73,117.0
556.79,109.0
556.86,96.0
556.92,106.0
556.98,109.0
557.05,114.0
557.11,117.0
557.17,134.0
557.23,148.0
557.3,127.0
557.36,133.0
557.42,133.0
557.49,130.0
557.55,121.0
557.61,109.0
557.68,122.0
557.74,105.0
557.8,106.0
557.86,110.0
557.93,98.0
557.99,100.0
558.05,106.0
558.12,103.0
558.18,97.0
558.24,111.0
558.31,107.0
558.37,77.0
558.43,97.0
558.49,114.0
558.56,89.0
558.62,97.0
558.68,97.0
558.75,100.0
558.81,98.0
558.87,94.0
558.94,92.0
559.0,92.0
559.06,85.0
559.12,99.0
559.19,104.0
559.25,96.0
559.31,104.0
559.38,93.0
559.44,81.0
559.5,78.0
559.57,85.0
559.63,86.0
559.69,57.0
559.75,72.0
559.82,76.0
559.88,71.0
559.94,93.0
560.01,77.0
560.07,86.0
560.13,66.0
560.2,68.0
560.26,61.0
560.32,62.0
560.38,78.0
560.45,59.0
560.51,59.0
560.57,46.0
560.64,60.0
560.7,52.0
560.76,41.0
560.83,42.0
560.89,27.0
560.95,21.0
561.01,32.0
561.08,23.0
561.14,24.0
561.2,8.0
561.27,1.0
561.33,-12.0
561.39,4.0
561.46,0.0
561.52,-8.0
561.58,5.0
561.64,15.0
561.71,21.0
561.77,8.0
561.83,29.0
561.9,11.0
561.96,22.0
562.02,18.0
562.09,11.0
562.15,18.0
562.21,33.0
562.27,24.0
562.34,24.0
562.4,28.0
562.46,35.0
562.53,29.0
562.59,5.0
562.65,2.0
562.72,7.0
562.78,14.0
562.84,-11.0
562.9,14.0
562.97,31.0
563.03,20.0
563.09,35.0
563.16,32.0
563.22,41.0
563.28,8.0
563.35,29.0
563.41,22.0
563.47,18.0
563.53,41.0
563.6,33.0
563.66,22.0
563.72,24.0
563.79,36.0
563.85,30.0
563.91,38.0
563.98,54.0
564.04,29.0
564.1,44.0
564.16,35.0
564.23,39.0
564.29,20.0
564.35,18.0
564.42,16.0
564.48,15.0
564.54,32.0
564.61,33.0
564.67,21.0
564.73,36.0
564.79,27.0
564.86,15.0
564.92,18.0
564.98,18.0
565.05,22.0
565.11,31.0
565.17,35.0
565.24,29.0
565.3,25.0
565.36,38.0
565.42,39.0
565.49,43.0
565.55,34.0
565.61,53.0
565.68,61.0
565.74,53.0
565.8,55.0
565.87,46.0
565.93,47.0
565.99,54.0
566.05,69.0
566.12,57.0
566.18,64.0
566.24,70.0
566.31,57.0
566.37,65.0
566.43,52.0
566.5,65.0
566.56,82.0
566.62,80.0
566.68,80.0
566.75,81.0
566.81,88.0
566.87,80.0
566.94,93.0
567.0,85.0
567.06,108.0
567.13,108.0
567.19,90.0
567.25,97.0
567.31,90.0
567.38,89.0
567.44,91.0
567.5,87.0
567.57,90.0
567.63,66.0
567.69,74.0
567.76,71.0
567.82,61.0
567.88,79.0
567.94,84.0
568.01,98.0
568.07,80.0
568.13,74.0
568.2,97.0
568.26,101.0
568.32,119.0
568.39,102.0
568.45,104.0
568.51,103.0
568.57,102.0
568.64,115.0
568.7,78.0
568.76,77.0
568.83,96.0
568.89,82.0
568.95,95.0
569.02,95.0
569.08,69.0
569.14,65.0
569.2,58.0
569.27,67.0
569.33,60.0
569.39,87.0
569.46,95.0
569.52,81.0
569.58,72.0
569.65,71.0
569.71,57.0
569.77,58.0
569.83,43.0
569.9,49.0
569.96,63.0
570.02,77.0
570.09,71.0
570.15,71.0
570.21,64.0
570.28,76.0
570.34,86.0
570.4,55.0
570.46,60.0
570.53,80.0
570.59,89.0
570.65,92.0
570.72,76.0
570.78,84.0
570.84,85.0
570.91,88.0
570.97,93.0
571.03,105.0
571.09,98.0
571.16,110.0
571.22,99.0
571.28,95.0
571.35,120.0
571.41,113.0
571.47,132.0
571.54,120.0
571.6,124.0
571.66,137.0
571.72,112.0
571.79,126.0
571.85,121.0
571.91,120.0
571.98,135.0
572.04,125.0
572.1,127.0
572.17,126.0
572.23,145.0
572.29,105.0
572.35,122.0
572.42,121.0
572.48,142.0
572.54,143.0
572.61,135.0
572.67,139.0
572.73,132.0
572.8,140.0
572.86,143.0
572.92,147.0
572.98,143.0
573.05,144.0
573.11,151.0
573.17,141.0
573.24,146.0
573.3,159.0
573.36,163.0
573.43,152.0
573.49,160.0
573.55,159.0
573.61,157.0
573.68,148.0
573.74,175.0
573.8,170.0
573.87,172.0
573.93,170.0
573.99,177.0
574.06,173.0
574.12,166.0
574.18,170.0
574.24,172.0
574.31,173.0
574.37,170.0
574.43,168.0
574.5,169.0
574.56,153.0
574.62,160.0
574.69,153.0
574.75,155.0
574.81,154.0
574.87,157.0
574.94,153.0
575.0,148.0
575.06,160.0
575.13,164.0
575.19,157.0
575.25,139.0
575.32,156.0
575.38,147.0
575.44,128.0
575.5,130.0
575.57,134.0
575.63,118.0
575.69,119.0
575.76,124.0
575.82,129.0
575.88,129.0
575.95,139.0
576.01,157.0
576.07,149.0
576.13,139.0
576.2,157.0
576.26,152.0
576.32,146.0
576.39,149.0
576.45,142.0
576.51,146.0
576.58,140.0
576.64,143.0
576.7,144.0
576.76,137.0
576.83,127.0
576.89,116.0
576.95,121.0
577.02,124.0
577.08,130.0
577.14,116.0
577.21,107.0
577.27,107.0
577.33,87.0
577.39,90.0
577.46,80.0
577.52,80.0
577.58,74.0
577.65,81.0
577.71,71.0
577.77,82.0
577.84,96.0
577.9,86.0
577.96,87.0
578.02,79.0
578.09,78.0
578.15,88.0
578.21,93.0
578.28,97.0
578.34,95.0
578.4,87.0
578.47,90.0
578.53,84.0
578.59,75.0
578.65,95.0
578.72,79.0
578.78,97.0
578.84,73.0
578.91,82.0
578.97,78.0
579.03,76.0
579.1,61.0
579.16,64.0
579.22,76.0
579.28,65.0
579.35,45.0
579.41,68.0
579.47,67.0
579.54,58.0
579.6,59.0
579.66,73.0
579.73,85.0
579.79,70.0
579.85,67.0
579.91,77.0
579.98,61.0
580.04,51.0
580.1,41.0
580.17,58.0
580.23,82.0
580.29,79.0
580.36,61.0
580.42,41.0
580.48,44.0
580.54,44.0
580.61,68.0
580.67,67.0
580.73,64.0
580.8,83.0
580.86,76.0
580.92,56.0
580.99,47.0
581.05,67.0
581.11,68.0
581.17,77.0
581.24,68.0
581.3,76.0
581.36,93.0
581.43,85.0
581.49,87.0
581.55,95.0
581.62,92.0
581.68,97.0
581.74,87.0
581.8,88.0
581.87,107.0
581.93,87.0
581.99,91.0
582.06,83.0
582.12,100.0
582.18,85.0
582.25,76.0
582.31,93.0
582.37,80.0
582.43,88.0
582.5,107.0
582.56,90.0
582.62,84.0
582.69,88.0
582.75,88.0
582.81,77.0
582.88,66.0
582.94,76.0
583.0,76.0
583.06,83.0
583.13,71.0
583.19,80.0
583.25,88.0
583.32,74.0
583.38,87.0
583.44,87.0
583.51,108.0
583.57,101.0
583.63,100.0
583.69,105.0
583.76,107.0
583.82,115.0
583.88,104.0
583.95,99.0
584.01,106.0
584.07,114.0
584.14,117.0
584.2,83.0
584.26,102.0
584.32,113.0
584.39,115.0
584.45,112.0
584.51,88.0
584.58,94.0
584.64,84.0
584.7,91.0
584.77,87.0
584.83,104.0
584.89,74.0
584.95,102.0
585.02,70.0
585.08,89.0
585.14,69.0
585.21,49.0
585.27,67.0
585.33,65.0
585.4,58.0
585.46,65.0
585.52,74.0
585.58,46.0
585.65,55.0
585.71,47.0
585.77,59.0
585.84,33.0
585.9,64.0
585.96,69.0
586.03,49.0
586.09,42.0
586.15,41.0
586.21,58.0
586.28,77.0
586.34,75.0
586.4,58.0
586.47,59.0
586.53,43.0
586.59,58.0
586.66,55.0
586.72,33.0
586.78,38.0
586.84,46.0
586.91,36.0
586.97,36.0
587.03,21.0
587.1,51.0
587.16,52.0
587.22,42.0
587.29,23.0
587.35,41.0
587.41,34.0
587.47,36.0
587.54,41.0
587.6,25.0
587.66,43.0
587.73,22.0
587.79,53.0
587.85,47.0
587.92,46.0
587.98,58.0
588.04,38.0
588.1,46.0
588.17,41.0
588.23,50.0
588.29,54.0
588.36,37.0
588.42,36.0
588.48,25.0
588.55,27.0
588.61,21.0
588.67,32.0
588.73,42.0
588.8,39.0
588.86,28.0
588.92,45.0
588.99,28.0
589.05,42.0
589.11,43.0
589.18,61.0
589.24,55.0
589.3,55.0
589.36,49.0
589.43,47.0
589.49,46.0
589.55,52.0
589.62,54.0
589.68,54.0
589.74,63.0
589.81,51.0
589.87,72.0
589.93,68.0
589.99,55.0
590.06,72.0
590.12,76.0
590.18,86.0
590.25,101.0
590.31,91.0
590.37,66.0
590.44,84.0
590.5,101.0
590.56,111.0
590.62,101.0
590.69,87.0
590.75,104.0
590.81,102.0
590.88,76.0
590.94,90.0
591.0,116.0
591.07,104.0
591.13,104.0
591.19,122.0
591.25,120.0
591.32,103.0
591.38,100.0
591.44,97.0
591.51,101.0
591.57,104.0
591.63,87.0
591.7,94.0
591.76,91.0
591.82,87.0
591.88,100.0
591.95,95.0
592.01,113.0
592.07,117.0
592.14,114.0
592.2,113.0
592.26,99.0
592.33,107.0
592.39,106.0
592.45,105.0
592.51,116.0
592.58,113.0
592.64,118.0
592.7,99.0
592.77,112.0
592.83,120.0
592.89,101.0
592.96,96.0
593.02,99.0
593.08,105.0
593.14,103.0
593.21,114.0
593.27,98.0
593.33,97.0
593.4,116.0
593.46,106.0
593.52,113.0
593.59,105.0
593.65,103.0
593.71,98.0
593.77,88.0
593.84,84.0
593.9,97.0
593.96,87.0
594.03,110.0
594.09,107.0
594.15,92.0
594.22,93.0
594.28,102.0
594.34,128.0
594.4,128.0
594.47,127.0
594.53,110.0
594.59,113.0
594.66,118.0
594.72,98.0
594.78,113.0
594.85,102.0
594.91,86.0
594.97,108.0
595.03,115.0
595.1,116.0
595.16,106.0
595.22,113.0
595.29,144.0
595.35,145.0
595.41,132.0
595.48,128.0
595.54,121.0
595.6,125.0
595.66,120.0
595.73,118.0
595.79,93.0
595.85,98.0
595.92,105.0
595.98,85.0
596.04,98.0
596.11,85.0
596.17,99.0
596.23,98.0
596.29,85.0
596.36,69.0
596.42,87.0
596.48,104.0
596.55,107.0
596.61,119.0
596.67,114.0
596.74,100.0
596.8,111.0
596.86,119.0
596.92,116.0
596.99,105.0
597.05,106.0
597.11,131.0
597.18,154.0
597.24,154.0
597.3,141.0
597.37,112.0
597.43,113.0
597.49,124.0
597.55,116.0
597.62,111.0
597.68,121.0
597.74,132.0
597.81,127.0
597.87,118.0
597.93,118.0
598.0,139.0
598.06,150.0
598.12,125.0
598.18,121.0
598.25,127.0
598.31,117.0
598.37,129.0
598.44,128.0
598.5,133.0
598.56,128.0
598.63,135.0
598.69,135.0
598.75,145.0
598.81,139.0
598.88,121.0
598.94,143.0
599.0,139.0
599.07,167.0
599.13,141.0
599.19,138.0
599.26,150.0
599.32,159.0
599.38,150.0
599.44,146.0
599.51,143.0
599.57,136.0
599.63,144.0
599.7,145.0
599.76,154.0
599.82,145.0
599.89,167.0
599.95,159.0
600.01,141.0
600.07,157.0
600.14,169.0
600.2,149.0
600.26,163.0
600.33,175.0
600.39,181.0
600.45,149.0
600.52,140.0
600.58,157.0
600.64,171.0
600.7,154.0
600.77,160.0
600.83,169.0
600.89,160.0
600.96,161.0
601.02,146.0
601.08,153.0
601.15,149.0
601.21,146.0
601.27,138.0
601.33,142.0
601.4,145.0
601.46,140.0
601.52,134.0
601.59,131.0
601.65,116.0
601.71,135.0
601.78,133.0
601.84,130.0
601.9,124.0
601.96,136.0
602.03,132.0
602.09,122.0
602.15,131.0
602.22,127.0
602.28,109.0
602.34,117.0
602.41,128.0
602.47,107.0
602.53,102.0
602.59,116.0
602.66,96.0
602.72,118.0
602.78,132.0
602.85,129.0
602.91,142.0
602.97,123.0
603.04,109.0
603.1,104.0
603.16,98.0
603.22,98.0
603.29,108.0
603.35,84.0
603.41,85.0
603.48,94.0
603.54,94.0
603.6,80.0
603.67,81.0
603.73,96.0
603.79,115.0
603.85,88.0
603.92,85.0
603.98,93.0
604.04,99.0
604.11,85.0
604.17,66.0
604.23,80.0
604.3,74.0
604.36,76.0
604.42,66.0
604.48,74.0
604.55,71.0
604.61,80.0
604.67,83.0
604.74,68.0
604.8,74.0
604.86,76.0
604.93,68.0
604.99,67.0
605.05,74.0
605.11,68.0
605.18,34.0
605.24,65.0
605.3,52.0
605.37,54.0
605.43,69.0
605.49,53.0
605.56,82.0
605.62,82.0
605.68,68.0
605.74,47.0
605.81,36.0
605.87,65.0
605.93,65.0
606.0,53.0
606.06,48.0
606.12,58.0
606.19,73.0
606.25,59.0
606.31,59.0
606.37,43.0
606.44,62.0
606.5,62.0
606.56,52.0
606.63,78.0
606.69,81.0
606.75,77.0
606.82,94.0
606.88,101.0
606.94,87.0
607.0,83.0
607.07,94.0
607.13,93.0
607.19,69.0
607.26,85.0
607.32,88.0
607.38,76.0
607.45,92.0
607.51,102.0
607.57,85.0
607.63,82.0
607.7,85.0
607.76,74.0
607.82,95.0
607.89,81.0
607.95,87.0
608.01,69.0
608.08,87.0
608.14,86.0
608.2,94.0
608.26,102.0
608.33,99.0
608.39,99.0
608.45,97.0
608.52,100.0
608.58,104.0
608.64,102.0
608.71,98.0
608.77,94.0
608.83,83.0
608.89,89.0
608.96,91.0
609.02,92.0
609.08,72.0
609.15,66.0
609.21,89.0
609.27,78.0
609.34,85.0
609.4,107.0
609.46,90.0
609.52,68.0
609.59,71.0
609.65,69.0
609.71,80.0
609.78,96.0
609.84,74.0
609.9,84.0
609.97,74.0
610.03,74.0
610.09,84.0
610.15,86.0
610.22,85.0
610.28,83.0
610.34,78.0
610.41,64.0
610.47,58.0
610.53,58.0
610.6,54.0
610.66,47.0
610.72,21.0
610.78,38.0
610.85,47.0
610.91,44.0
610.97,38.0
611.04,43.0
611.1,40.0
611.16,28.0
611.23,32.0
611.29,38.0
611.35,36.0
611.41,35.0
611.48,22.0
611.54,30.0
611.6,10.0
611.67,21.0
611.73,18.0
611.79,29.0
611.86,32.0
611.92,21.0
611.98,35.0
612.04,52.0
612.11,47.0
612.17,29.0
612.23,34.0
612.3,21.0
612.36,31.0
612.42,36.0
612.49,22.0
612.55,21.0
612.61,33.0
612.67,37.0
612.74,38.0
612.8,44.0
612.86,50.0
612.93,48.0
612.99,39.0
613.05,21.0
613.12,33.0
613.18,30.0
613.24,36.0
613.3,32.0
613.37,12.0
613.43,28.0
613.49,22.0
613.56,24.0
613.62,30.0
613.68,32.0
613.75,25.0
613.81,23.0
613.87,51.0
613.93,38.0
614.0,29.0
614.06,32.0
614.12,36.0
614.19,50.0
614.25,44.0
614.31,35.0
614.38,32.0
614.44,23.0
614.5,27.0
614.56,16.0
614.63,5.0
614.69,29.0
614.75,34.0
614.82,35.0
614.88,52.0
614.94,18.0
615.01,10.0
615.07,30.0
615.13,23.0
615.19,24.0
615.26,22.0
615.32,10.0
615.38,22.0
615.45,6.0
615.51,25.0
615.57,32.0
615.64,22.0
615.7,28.0
615.76,28.0
615.82,22.0
615.89,6.0
615.95,19.0
616.01,32.0
616.08,1.0
616.14,12.0
616.2,21.0
616.27,22.0
616.33,42.0
616.39,31.0
616.45,32.0
616.52,49.0
616.58,47.0
616.64,41.0
616.71,30.0
616.77,13.0
616.83,37.0
616.9,40.0
616.96,24.0
617.02,24.0
617.08,29.0
617.15,37.0
617.21,36.0
617.27,25.0
617.34,32.0
617.4,39.0
617.46,25.0
617.53,43.0
617.59,43.0
617.65,53.0
617.71,61.0
617.78,50.0
617.84,61.0
617.9,65.0
617.97,59.0
618.03,54.0
618.09,44.0
618.16,62.0
618.22,63.0
618.28,69.0
618.34,79.0
618.41,57.0
618.47,54.0
618.53,61.0
618.6,79.0
618.66,68.0
618.72,90.0
618.79,79.0
618.85,64.0
618.91,76.0
618.97,73.0
619.04,77.0
619.1,69.0
619.16,69.0
619.23,82.0
619.29,82.0
619.35,55.0
619.42,57.0
619.48,65.0
619.54,72.0
619.6,62.0
619.67,58.0
619.73,58.0
619.79,61.0
619.86,73.0
619.92,50.0
619.98,44.0
620.05,58.0
620.11,43.0
620.17,41.0
620.23,49.0
620.3,45.0
620.36,44.0
620.42,51.0
620.49,47.0
620.55,69.0
620.61,47.0
620.68,36.0
620.74,54.0
620.8,42.0
620.86,44.0
620.93,43.0
620.99,47.0
621.05,43.0
621.12,55.0
621.18,45.0
621.24,55.0
621.31,70.0
621.37,69.0
621.43,84.0
621.49,89.0
621.56,103.0
621.62,87.0
621.68,51.0
621.75,64.0
621.81,61.0
621.87,62.0
621.94,80.0
622.0,71.0
622.06,76.0
622.12,78.0
622.19,82.0
622.25,76.0
622.31,68.0
622.38,60.0
622.44,77.0
622.5,84.0
622.57,71.0
622.63,46.0
622.69,59.0
622.75,54.0
622.82,55.0
622.88,63.0
622.94,38.0
623.01,49.0
623.07,38.0
623.13,46.0
623.2,52.0
623.26,87.0
623.32,106.0
623.38,80.0
623.45,73.0
623.51,65.0
623.57,61.0
623.64,67.0
623.7,69.0
623.76,77.0
623.83,79.0
623.89,94.0
623.95,80.0
624.01,83.0
624.08,99.0
624.14,107.0
624.2,92.0
624.27,82.0
624.33,103.0
624.39,122.0
624.46,125.0
624.52,116.0
624.58,121.0
624.64,123.0
624.71,127.0
624.77,107.0
624.83,117.0
624.9,106.0
624.96,104.0
625.02,116.0
625.09,129.0
625.15,131.0
625.21,119.0
625.27,120.0
625.34,128.0
625.4,119.0
625.46,123.0
625.53,104.0
625.59,116.0
625.65,110.0
625.72,113.0
625.78,99.0
625.84,93.0
625.9,99.0
625.97,113.0
626.03,109.0
626.09,107.0
626.16,122.0
626.22,124.0
626.28,106.0
626.35,98.0
626.41,87.0
626.47,78.0
626.53,78.0
626.6,108.0
626.66,93.0
626.72,99.0
626.79,81.0
626.85,98.0
626.91,92.0
626.98,87.0
627.04,98.0
627.1,126.0
627.16,108.0
627.23,102.0
627.29,109.0
627.35,118.0
627.42,106.0
627.48,91.0
627.54,107.0
627.61,102.0
627.67,116.0
627.73,107.0
627.79,104.0
627.86,94.0
627.92,95.0
627.98,106.0
628.05,99.0
628.11,91.0
628.17,82.0
628.24,112.0
628.3,120.0
628.36,101.0
628.42,117.0
628.49,113.0
628.55,112.0
628.61,131.0
628.68,137.0
628.74,117.0
628.8,120.0
628.87,119.0
628.93,106.0
628.99,118.0
629.05,111.0
629.12,100.0
629.18,118.0
629.24,120.0
629.31,105.0
629.37,126.0
629.43,128.0
629.5,120.0
629.56,92.0
629.62,102.0
629.68,107.0
629.75,91.0
629.81,95.0
629.87,89.0
629.94,107.0
630.0,99.0
630.06,100.0
630.13,109.0
630.19,88.0
630.25,110.0
630.31,120.0
630.38,131.0
630.44,119.0
630.5,133.0
630.57,135.0
630.63,124.0
630.69,136.0
630.76,115.0
630.82,98.0
630.88,96.0
630.94,112.0
631.01,114.0
631.07,98.0
631.13,113.0
631.2,111.0
631.26,99.0
631.32,79.0
631.39,81.0
631.45,85.0
631.51,115.0
631.57,124.0
631.64,112.0
631.7,102.0
631.76,95.0
631.83,88.0
631.89,91.0
631.95,108.0
632.02,88.0
632.08,87.0
632.14,101.0
632.2,98.0
632.27,103.0
632.33,105.0
632.39,91.0
632.46,98.0
632.52,101.0
632.58,85.0
632.65,88.0
632.71,106.0
632.77,117.0
632.83,101.0
632.9,105.0
632.96,107.0
633.02,90.0
633.09,87.0
633.15,104.0
633.21,104.0
633.28,104.0
633.34,131.0
633.4,97.0
633.46,76.0
633.53,69.0
633.59,80.0
633.65,92.0
633.72,97.0
633.78,109.0
633.84,93.0
633.91,103.0
633.97,107.0
634.03,102.0
634.09,90.0
634.16,110.0
634.22,114.0
634.28,116.0
634.35,109.0
634.41,101.0
634.47,100.0
634.54,99.0
634.6,118.0
634.66,136.0
634.72,114.0
634.79,123.0
634.85,129.0
634.91,136.0
634.98,132.0
635.04,157.0
635.1,152.0
635.17,153.0
635.23,139.0
635.29,121.0
635.35,125.0
635.42,152.0
635.48,145.0
635.54,135.0
635.61,133.0
635.67,115.0
635.73,132.0
635.8,135.0
635.86,139.0
635.92,142.0
635.98,133.0
636.05,134.0
636.11,128.0
636.17,134.0
636.24,149.0
636.3,152.0
636.36,132.0
636.43,135.0
636.49,134.0
636.55,135.0
636.61,134.0
636.68,124.0
636.74,145.0
636.8,145.0
636.87,118.0
636.93,101.0
636.99,111.0
637.06,107.0
637.12,120.0
637.18,124.0
637.24,129.0
637.31,113.0
637.37,103.0
637.43,126.0
637.5,122.0
637.56,97.0
637.62,85.0
637.69,110.0
637.75,92.0
637.81,107.0
637.87,95.0
637.94,101.0
638.0,110.0
638.06,106.0
638.13,107.0
638.19,102.0
638.25,129.0
638.32,84.0
638.38,84.0
638.44,84.0
638.5,82.0
638.57,101.0
638.63,105.0
638.69,111.0
638.76,120.0
638.82,117.0
638.88,113.0
638.95,133.0
639.01,135.0
639.07,126.0
639.13,135.0
639.2,124.0
639.26,120.0
639.32,109.0
639.39,126.0
639.45,114.0
639.51,112.0
639.58,120.0
639.64,136.0
639.7,134.0
639.76,120.0
639.83,104.0
639.89,110.0
639.95,95.0
640.02,87.0
640.08,101.0
640.14,113.0
640.21,95.0
640.27,115.0
640.33,121.0
640.39,93.0
640.46,96.0
640.52,95.0
640.58,117.0
640.65,105.0
640.71,109.0
640.77,100.0
640.84,80.0
640.9,93.0
640.96,90.0
641.02,100.0
641.09,91.0
641.15,92.0
641.21,125.0
641.28,132.0
641.34,118.0
641.4,116.0
641.47,133.0
641.53,110.0
641.59,109.0
641.65,123.0
641.72,135.0
641.78,104.0
641.84,97.0
641.91,99.0
641.97,101.0
642.03,104.0
642.1,74.0
642.16,76.0
642.22,82.0
642.28,79.0
642.35,101.0
642.41,113.0
642.47,107.0
642.54,109.0
642.6,95.0
642.66,102.0
642.73,88.0
642.79,88.0
642.85,76.0
642.91,80.0
642.98,76.0
643.04,81.0
643.1,65.0
643.17,80.0
643.23,91.0
643.29,87.0
643.36,85.0
643.42,87.0
643.48,93.0
643.54,98.0
643.61,125.0
643.67,94.0
643.73,109.0
643.8,90.0
643.86,82.0
643.92,62.0
643.99,91.0
644.05,104.0
644.11,88.0
644.17,75.0
644.24,80.0
644.3,96.0
644.36,83.0
644.43,85.0
644.49,84.0
644.55,88.0
644.62,77.0
644.68,72.0
644.74,75.0
644.8,73.0
644.87,83.0
644.93,81.0
644.99,76.0
645.06,86.0
645.12,76.0
645.18,66.0
645.25,67.0
645.31,49.0
645.37,65.0
645.43,85.0
645.5,98.0
645.56,65.0
645.62,65.0
645.69,46.0
645.75,57.0
645.81,65.0
645.88,68.0
645.94,63.0
646.0,72.0
646.06,85.0
646.13,77.0
646.19,71.0
646.25,56.0
646.32,47.0
646.38,74.0
646.44,52.0
646.51,61.0
646.57,58.0
646.63,73.0
646.69,75.0
646.76,55.0
646.82,84.0
646.88,70.0
646.95,86.0
647.01,95.0
647.07,86.0
647.14,84.0
647.2,86.0
647.26,94.0
647.32,62.0
647.39,82.0
647.45,82.0
647.51,80.0
647.58,88.0
647.64,80.0
647.7,101.0
647.77,94.0
647.83,80.0
647.89,82.0
647.95,75.0
648.02,72.0
648.08,71.0
648.14,61.0
648.21,75.0
648.27,98.0
648.33,74.0
648.4,100.0
648.46,95.0
648.52,67.0
648.58,79.0
648.65,68.0
648.71,65.0
648.77,60.0
648.84,70.0
648.9,71.0
648.96,77.0
649.03,70.0
649.09,80.0
649.15,88.0
649.21,84.0
649.28,66.0
649.34,55.0
649.4,64.0
649.47,65.0
649.53,59.0
649.59,62.0
649.66,54.0
649.72,69.0
649.78,55.0
649.84,50.0
649.91,65.0
649.97,58.0
650.03,65.0
650.1,49.0
650.16,39.0
650.22,50.0
650.29,71.0
650.35,40.0
650.41,54.0
650.47,59.0
650.54,42.0
650.6,68.0
650.66,65.0
650.73,46.0
650.79,63.0
650.85,98.0
650.92,100.0
650.98,87.0
651.04,74.0
651.1,72.0
651.17,72.0
651.23,81.0
651.29,81.0
651.36,109.0
651.42,98.0
651.48,100.0
651.55,74.0
651.61,82.0
651.67,74.0
651.73,82.0
651.8,64.0
651.86,53.0
651.92,82.0
651.99,73.0
652.05,75.0
652.11,96.0
652.18,85.0
652.24,81.0
652.3,77.0
652.36,65.0
652.43,70.0
652.49,84.0
652.55,80.0
652.62,80.0
652.68,83.0
652.74,94.0
652.81,98.0
652.87,74.0
652.93,65.0
652.99,94.0
653.06,90.0
653.12,94.0
653.18,84.0
653.25,58.0
653.31,67.0
653.37,85.0
653.44,76.0
653.5,76.0
653.56,91.0
653.62,79.0
653.69,77.0
653.75,86.0
653.81,68.0
653.88,76.0
653.94,81.0
654.0,94.0
654.07,91.0
654.13,103.0
654.19,94.0
654.25,75.0
654.32,86.0
654.38,87.0
654.44,80.0
654.51,95.0
654.57,116.0
654.63,120.0
654.7,92.0
654.76,104.0
654.82,92.0
654.88,104.0
654.95,123.0
655.01,120.0
655.07,111.0
655.14,115.0
655.2,127.0
655.26,114.0
655.33,109.0
655.39,120.0
655.45,135.0
655.51,124.0
655.58,104.0
655.64,112.0
655.7,119.0
655.77,107.0
655.83,113.0
655.89,124.0
655.96,103.0
656.02,120.0
656.08,121.0
656.14,129.0
656.21,131.0
656.27,135.0
656.33,126.0
656.4,95.0
656.46,104.0
656.52,105.0
656.59,106.0
656.65,120.0
656.71,133.0
656.77,136.0
656.84,120.0
656.9,116.0
656.96,97.0
657.03,115.0
657.09,121.0
657.15,121.0
657.22,126.0
657.28,123.0
657.34,127.0
657.4,116.0
657.47,117.0
657.53,118.0
657.59,119.0
657.66,118.0
657.72,102.0
657.78,109.0
657.85,94.0
657.91,91.0
657.97,103.0
658.03,126.0
658.1,115.0
658.16,125.0
658.22,126.0
658.29,119.0
658.35,111.0
658.41,106.0
658.48,121.0
658.54,104.0
658.6,103.0
658.66,110.0
658.73,99.0
658.79,96.0
658.85,96.0
658.92,115.0
658.98,113.0
659.04,117.0
659.11,124.0
659.17,126.0
659.23,143.0
659.29,148.0
659.36,137.0
659.42,126.0
659.48,141.0
659.55,130.0
659.61,139.0
659.67,124.0
659.74,135.0
659.8,139.0
659.86,131.0
659.92,124.0
659.99,118.0
660.05,127.0
660.11,109.0
660.18,116.0
660.24,140.0
660.3,120.0
660.37,117.0
660.43,110.0
660.49,91.0
660.55,87.0
660.62,71.0
660.68,86.0
660.74,77.0
660.81,73.0
660.87,73.0
660.93,68.0
661.0,86.0
661.06,84.0
661.12,72.0
661.18,80.0
661.25,81.0
661.31,57.0
661.37,68.0
661.44,76.0
661.5,90.0
661.56,92.0
661.63,96.0
661.69,102.0
661.75,107.0
661.81,96.0
661.88,106.0
661.94,119.0
662.0,127.0
662.07,119.0
662.13,115.0
662.19,123.0
662.26,94.0
662.32,117.0
662.38,131.0
662.44,124.0
662.51,115.0
662.57,136.0
662.63,147.0
662.7,106.0
662.76,98.0
662.82,122.0
662.89,99.0
662.95,98.0
663.01,96.0
663.07,76.0
663.14,98.0
663.2,79.0
663.26,84.0
663.33,78.0
663.39,87.0
663.45,69.0
663.52,81.0
663.58,87.0
663.64,93.0
663.7,95.0
663.77,85.0
663.83,85.0
663.89,69.0
663.96,75.0
664.02,74.0
664.08,83.0
664.15,73.0
664.21,79.0
664.27,83.0
664.33,91.0
664.4,87.0
664.46,64.0
664.52,72.0
664.59,65.0
664.65,68.0
664.71,84.0
664.78,57.0
664.84,55.0
664.9,79.0
664.96,79.0
665.03,76.0
665.09,65.0
665.15,71.0
665.22,74.0
665.28,65.0
665.34,66.0
665.41,68.0
665.47,60.0
665.53,47.0
665.59,22.0
665.66,33.0
665.72,43.0
665.78,41.0
665.85,50.0
665.91,49.0
665.97,52.0
666.04,43.0
666.1,47.0
666.16,47.0
666.22,41.0
666.29,32.0
666.35,17.0
666.41,33.0
666.48,38.0
666.54,14.0
666.6,16.0
666.67,10.0
666.73,29.0
666.79,6.0
666.85,1.0
666.92,3.0
666.98,15.0
667.04,14.0
667.11,24.0
667.17,14.0
667.23,13.0
667.3,16.0
667.36,1.0
667.42,28.0
667.48,21.0
667.55,17.0
667.61,-1.0
667.67,4.0
667.74,29.0
667.8,33.0
667.86,19.0
667.93,28.0
667.99,17.0
668.05,2.0
668.11,41.0
668.18,41.0
668.24,13.0
668.3,20.0
668.37,24.0
668.43,6.0
668.49,5.0
668.56,8.0
668.62,23.0
668.68,20.0
668.74,-10.0
668.81,-16.0
668.87,-11.0
668.93,1.0
669.0,8.0
669.06,7.0
669.12,-1.0
669.19,-5.0
669.25,-5.0
669.31,-18.0
669.37,-26.0
669.44,-18.0
669.5,-13.0
669.56,-11.0
669.63,-19.0
669.69,-14.0
669.75,-22.0
669.82,-14.0
669.88,-19.0
669.94,-8.0
670.0,-15.0
670.07,-26.0
670.13,-29.0
670.19,-15.0
670.26,-3.0
670.32,5.0
670.38,16.0
670.45,8.0
670.51,17.0
670.57,6.0
670.63,27.0
670.7,8.0
670.76,6.0
670.82,11.0
670.89,16.0
670.95,6.0
671.01,-8.0
671.08,-5.0
671.14,3.0
671.2,14.0
671.26,20.0
671.33,21.0
671.39,30.0
671.45,22.0
671.52,25.0
671.58,17.0
671.64,35.0
671.71,22.0
671.77,8.0
671.83,18.0
671.89,22.0
671.96,37.0
672.02,41.0
672.08,32.0
672.15,36.0
672.21,26.0
672.27,34.0
672.34,44.0
672.4,50.0
672.46,44.0
672.52,41.0
672.59,26.0
672.65,39.0
672.71,49.0
672.78,49.0
672.84,37.0
672.9,39.0
672.97,55.0
673.03,41.0
673.09,26.0
673.15,34.0
673.22,52.0
673.28,59.0
673.34,58.0
673.41,34.0
673.47,67.0
673.53,67.0
673.6,64.0
673.66,81.0
673.72,90.0
673.78,101.0
673.85,97.0
673.91,106.0
673.97,101.0
674.04,83.0
674.1,111.0
674.16,106.0
674.23,123.0
674.29,124.0
674.35,113.0
674.41,118.0
674.48,116.0
674.54,118.0
674.6,100.0
674.67,102.0
674.73,102.0
674.79,96.0
674.86,110.0
674.92,123.0
674.98,122.0
675.04,140.0
675.11,137.0
675.17,147.0
675.23,135.0
675.3,136.0
675.36,129.0
675.42,137.0
675.49,140.0
675.55,131.0
675.61,129.0
675.67,118.0
675.74,108.0
675.8,87.0
675.86,105.0
675.93,96.0
675.99,103.0
676.05,124.0
676.12,118.0
676.18,121.0
676.24,108.0
676.3,118.0
676.37,113.0
676.43,100.0
676.49,89.0
676.56,86.0
676.62,96.0
676.68,93.0
676.75,105.0
676.81,107.0
676.87,100.0
676.93,111.0
677.0,134.0
677.06,118.0
677.12,122.0
677.19,134.0
677.25,127.0
677.31,129.0
677.38,140.0
677.44,118.0
677.5,132.0
677.56,147.0
677.63,135.0
677.69,117.0
677.75,128.0
677.82,110.0
677.88,122.0
677.94,151.0
678.01,139.0
678.07,118.0
678.13,121.0
678.19,126.0
678.26,93.0
678.32,124.0
678.38,130.0
678.45,124.0
678.51,124.0
678.57,129.0
678.64,131.0
678.7,129.0
678.76,128.0
678.82,141.0
678.89,130.0
678.95,123.0
679.01,125.0
679.08,141.0
679.14,140.0
679.2,127.0
679.27,137.0
679.33,135.0
679.39,158.0
679.45,144.0
679.52,121.0
679.58,140.0
679.64,138.0
679.71,132.0
679.77,127.0
679.83,140.0
679.9,136.0
679.96,116.0
680.02,125.0
680.08,147.0
680.15,127.0
680.21,140.0
680.27,132.0
680.34,137.0
680.4,138.0
680.46,151.0
680.53,140.0
680.59,134.0
680.65,133.0
680.71,124.0
680.78,141.0
680.84,144.0
680.9,158.0
680.97,151.0
681.03,163.0
681.09,134.0
681.16,129.0
681.22,152.0
681.28,142.0
681.34,140.0
681.41,140.0
681.47,166.0
681.53,151.0
681.6,150.0
681.66,159.0
681.72,149.0
681.79,141.0
681.85,139.0
681.91,147.0
681.97,144.0
682.04,114.0
682.1,118.0
682.16,111.0
682.23,120.0
682.29,124.0
682.35,89.0
682.42,118.0
682.48,115.0
682.54,102.0
682.6,115.0
682.67,120.0
682.73,124.0
682.79,113.0
682.86,118.0
682.92,116.0
682.98,111.0
683.05,98.0
683.11,115.0
683.17,105.0
683.23,135.0
683.3,135.0
683.36,127.0
683.42,125.0
683.49,149.0
683.55,129.0
683.61,115.0
683.68,142.0
683.74,109.0
683.8,85.0
683.86,81.0
683.93,84.0
683.99,96.0
684.05,96.0
684.12,105.0
684.18,72.0
684.24,107.0
684.31,119.0
684.37,126.0
684.43,137.0
684.49,121.0
684.56,125.0
684.62,116.0
684.68,140.0
684.75,134.0
684.81,136.0
684.87,163.0
684.94,146.0
685.0,135.0
685.06,149.0
685.12,135.0
685.19,148.0
685.25,127.0
685.31,111.0
685.38,122.0
685.44,140.0
685.5,145.0
685.57,145.0
685.63,124.0
685.69,127.0
685.75,135.0
685.82,106.0
685.88,96.0
685.94,108.0
686.01,109.0
686.07,122.0
686.13,120.0
686.2,124.0
686.26,112.0
686.32,96.0
686.38,102.0
686.45,114.0
686.51,92.0
686.57,99.0
686.64,96.0
686.7,79.0
686.76,91.0
686.83,91.0
686.89,82.0
686.95,79.0
687.01,92.0
687.08,84.0
687.14,86.0
687.2,80.0
687.27,79.0
687.33,93.0
687.39,94.0
687.46,69.0
687.52,73.0
687.58,88.0
687.64,82.0
687.71,75.0
687.77,48.0
687.83,59.0
687.9,52.0
687.96,64.0
688.02,38.0
688.09,64.0
688.15,68.0
688.21,64.0
688.27,80.0
688.34,92.0
688.4,104.0
688.46,99.0
688.53,105.0
688.59,86.0
688.65,92.0
688.72,80.0
688.78,106.0
688.84,88.0
688.9,90.0
688.97,99.0
689.03,92.0
689.09,104.0
689.16,115.0
689.22,122.0
689.28,111.0
689.35,109.0
689.41,111.0
689.47,103.0
689.53,122.0
689.6,111.0
689.66,107.0
689.72,115.0
689.79,92.0
689.85,92.0
689.91,63.0
689.98,52.0
690.04,84.0
690.1,76.0
690.16,97.0
690.23,96.0
690.29,104.0
690.35,96.0
690.42,102.0
690.48,118.0
690.54,126.0
690.61,137.0
690.67,113.0
690.73,136.0
690.79,141.0
690.86,126.0
690.92,133.0
690.98,155.0
691.05,143.0
691.11,144.0
691.17,158.0
691.24,139.0
691.3,135.0
691.36,140.0
691.42,116.0
691.49,130.0
691.55,128.0
691.61,129.0
691.68,117.0
691.74,111.0
691.8,106.0
691.87,101.0
691.93,116.0
691.99,103.0
692.05,110.0
692.12,113.0
692.18,124.0
692.24,104.0
692.31,88.0
692.37,98.0
692.43,111.0
692.5,114.0
692.56,113.0
692.62,106.0
692.68,129.0
692.75,118.0
692.81,104.0
692.87,88.0
692.94,89.0
693.0,85.0
693.06,113.0
693.13,97.0
693.19,107.0
693.25,100.0
693.31,95.0
693.38,105.0
693.44,92.0
693.5,104.0
693.57,106.0
693.63,89.0
693.69,106.0
693.76,118.0
693.82,111.0
693.88,108.0
693.94,124.0
694.01,119.0
694.07,111.0
694.13,103.0
694.2,108.0
694.26,116.0
694.32,96.0
694.39,113.0
694.45,96.0
694.51,111.0
694.57,110.0
694.64,102.0
694.7,113.0
694.76,129.0
694.83,94.0
694.89,102.0
694.95,90.0
695.02,92.0
695.08,103.0
695.14,90.0
695.2,103.0
695.27,100.0
695.33,107.0
695.39,72.0
695.46,66.0
695.52,89.0
695.58,84.0
695.65,78.0
695.71,66.0
695.77,77.0
695.83,71.0
695.9,87.0
695.96,91.0
696.02,86.0
696.09,92.0
696.15,106.0
696.21,114.0
696.28,97.0
696.34,137.0
696.4,140.0
696.46,128.0
696.53,140.0
696.59,133.0
696.65,127.0
696.72,124.0
696.78,130.0
696.84,158.0
696.91,146.0
696.97,127.0
697.03,117.0
697.09,111.0
697.16,103.0
697.22,107.0
697.28,102.0
697.35,80.0
697.41,87.0
697.47,116.0
697.54,122.0
697.6,99.0
697.66,123.0
697.72,114.0
697.79,94.0
697.85,88.0
697.91,93.0
697.98,74.0
698.04,94.0
698.1,95.0
698.17,86.0
698.23,106.0
698.29,90.0
698.35,111.0
698.42,111.0
698.48,116.0
698.54,118.0
698.61,104.0
698.67,109.0
698.73,114.0
698.8,126.0
698.86,124.0
698.92,123.0
698.98,122.0
699.05,104.0
699.11,105.0
699.17,110.0
699.24,111.0
699.3,106.0
699.36,130.0
699.43,129.0
699.49,126.0
699.55,108.0
699.61,111.0
699.68,124.0
699.74,101.0
699.8,104.0
699.87,141.0
699.93,149.0
699.99,135.0
700.06,123.0
700.12,125.0
700.18,132.0
700.24,145.0
700.31,143.0
700.37,135.0
700.43,146.0
700.5,111.0
700.56,105.0
700.62,129.0
700.69,133.0
700.75,125.0
700.81,144.0
700.87,133.0
700.94,133.0
701.0,141.0
701.06,140.0
701.13,140.0
701.19,140.0
701.25,140.0
701.32,133.0
701.38,143.0
701.44,134.0
701.5,147.0
701.57,143.0
701.63,144.0
701.69,162.0
701.76,142.0
701.82,140.0
701.88,118.0
701.95,122.0
702.01,119.0
702.07,140.0
702.13,145.0
702.2,128.0
702.26,155.0
702.32,148.0
702.39,155.0
702.45,151.0
702.51,169.0
702.58,136.0
702.64,151.0
702.7,148.0
702.76,145.0
702.83,147.0
702.89,145.0
702.95,153.0
703.02,148.0
703.08,137.0
703.14,105.0
703.21,119.0
703.27,107.0
703.33,100.0
703.39,92.0
703.46,104.0
703.52,123.0
703.58,97.0
703.65,90.0
703.71,104.0
703.77,106.0
703.84,121.0
703.9,98.0
703.96,114.0
704.02,122.0
704.09,108.0
704.15,107.0
704.21,110.0
704.28,104.0
704.34,81.0
704.4,67.0
704.47,70.0
704.53,78.0
704.59,86.0
704.65,88.0
704.72,100.0
704.78,105.0
704.84,125.0
704.91,110.0
704.97,69.0
705.03,78.0
705.1,107.0
705.16,98.0
705.22,122.0
705.28,106.0
705.35,118.0
705.41,140.0
705.47,135.0
705.54,122.0
705.6,119.0
705.66,123.0
705.73,124.0
705.79,127.0
705.85,118.0
705.91,110.0
705.98,141.0
706.04,133.0
706.1,129.0
706.17,134.0
706.23,144.0
706.29,125.0
706.36,125.0
706.42,137.0
706.48,118.0
706.54,131.0
706.61,119.0
706.67,119.0
706.73,91.0
706.8,121.0
706.86,133.0
706.92,120.0
706.99,155.0
707.05,160.0
707.11,148.0
707.17,153.0
707.24,140.0
707.3,155.0
707.36,157.0
707.43,137.0
707.49,127.0
707.55,112.0
707.62,107.0
707.68,121.0
707.74,127.0
707.8,121.0
707.87,119.0
707.93,112.0
707.99,113.0
708.06,93.0
708.12,122.0
708.18,112.0
708.25,91.0
708.31,130.0
708.37,122.0
708.43,136.0
708.5,114.0
708.56,106.0
708.62,97.0
708.69,73.0
708.75,66.0
708.81,91.0
708.88,82.0
708.94,79.0
709.0,74.0
709.06,86.0
709.13,99.0
709.19,79.0
709.25,87.0
709.32,102.0
709.38,104.0
709.44,115.0
709.51,106.0
709.57,115.0
709.63,78.0
709.69,85.0
709.76,107.0
709.82,97.0
709.88,124.0
709.95,86.0
710.01,103.0
710.07,104.0
710.14,114.0
710.2,113.0
710.26,119.0
710.32,108.0
710.39,107.0
710.45,119.0
710.51,106.0
710.58,115.0
710.64,113.0
710.7,111.0
710.77,124.0
710.83,116.0
710.89,122.0
710.95,108.0
711.02,107.0
711.08,107.0
711.14,98.0
711.21,103.0
711.27,110.0
711.33,122.0
711.4,124.0
711.46,143.0
711.52,141.0
711.58,109.0
711.65,121.0
711.71,102.0
711.77,110.0
711.84,103.0
711.9,101.0
711.96,123.0
712.03,127.0
712.09,109.0
712.15,122.0
712.21,107.0
712.28,82.0
712.34,96.0
712.4,96.0
712.47,100.0
712.53,89.0
712.59,74.0
712.66,63.0
712.72,85.0
712.78,88.0
712.84,93.0
712.91,95.0
712.97,76.0
713.03,53.0
713.1,63.0
713.16,83.0
713.22,78.0
713.29,97.0
713.35,66.0
713.41,74.0
713.47,86.0
713.54,97.0
713.6,119.0
713.66,98.0
713.73,103.0
713.79,113.0
713.85,104.0
713.92,101.0
713.98,100.0
714.04,113.0
714.1,102.0
714.17,91.0
714.23,91.0
714.29,94.0
714.36,86.0
714.42,81.0
714.48,110.0
714.55,73.0
714.61,66.0
714.67,87.0
714.73,74.0
714.8,80.0
714.86,76.0
714.92,65.0
714.99,84.0
715.05,66.0
715.11,70.0
715.18,76.0
715.24,71.0
715.3,72.0
715.36,49.0
715.43,37.0
715.49,63.0
715.55,49.0
715.62,73.0
715.68,71.0
715.74,86.0
715.81,99.0
715.87,77.0
715.93,77.0
715.99,56.0
716.06,66.0
716.12,74.0
716.18,66.0
716.25,59.0
716.31,52.0
716.37,61.0
716.44,64.0
716.5,71.0
716.56,38.0
716.62,47.0
716.69,25.0
716.75,41.0
716.81,27.0
716.88,34.0
716.94,50.0
717.0,34.0
717.07,61.0
717.13,46.0
717.19,63.0
717.25,67.0
717.32,61.0
717.38,48.0
717.44,37.0
717.51,31.0
717.57,19.0
717.63,64.0
717.7,46.0
717.76,33.0
717.82,42.0
717.88,27.0
717.95,34.0
718.01,43.0
718.07,43.0
718.14,46.0
718.2,46.0
718.26,35.0
718.33,26.0
718.39,16.0
718.45,26.0
718.51,39.0
718.58,52.0
718.64,56.0
718.7,53.0
718.77,42.0
718.83,44.0
718.89,56.0
718.96,52.0
719.02,42.0
719.08,59.0
719.14,49.0
719.21,9.0
719.27,8.0
719.33,12.0
719.4,23.0
719.46,16.0
719.52,35.0
719.59,63.0
719.65,47.0
719.71,36.0
719.77,27.0
719.84,41.0
719.9,34.0
719.96,24.0
720.03,16.0
720.09,29.0
720.15,50.0
720.22,43.0
720.28,24.0
720.34,27.0
720.4,19.0
720.47,17.0
720.53,37.0
720.59,27.0
720.66,38.0
720.72,21.0
720.78,14.0
720.85,0.0
720.91,11.0
720.97,0.0
721.03,3.0
721.1,20.0
721.16,22.0
721.22,7.0
721.29,18.0
721.35,25.0
721.41,12.0
721.48,0.0
721.54,8.0
721.6,35.0
721.66,21.0
721.73,26.0
721.79,43.0
721.85,17.0
721.92,9.0
721.98,-5.0
722.04,-7.0
722.11,-1.0
722.17,25.0
722.23,31.0
722.29,18.0
722.36,47.0
722.42,14.0
722.48,24.0
722.55,21.0
722.61,30.0
722.67,26.0
722.74,38.0
722.8,45.0
722.86,30.0
722.92,21.0
722.99,28.0
723.05,41.0
723.11,18.0
723.18,29.0
723.24,26.0
723.3,28.0
723.37,35.0
723.43,45.0
723.49,30.0
723.55,36.0
723.62,37.0
723.68,27.0
723.74,32.0
723.81,42.0
723.87,28.0
723.93,47.0
724.0,46.0
724.06,6.0
724.12,6.0
724.18,21.0
724.25,19.0
724.31,10.0
724.37,21.0
724.44,23.0
724.5,59.0
724.56,41.0
724.63,16.0
724.69,42.0
724.75,48.0
724.81,52.0
724.88,50.0
724.94,61.0
725.0,66.0
725.07,36.0
725.13,45.0
725.19,40.0
725.26,40.0
725.32,63.0
725.38,72.0
725.44,71.0
725.51,77.0
725.57,58.0
725.63,45.0
725.7,46.0
725.76,49.0
725.82,46.0
725.89,25.0
725.95,31.0
726.01,59.0
726.07,46.0
726.14,61.0
726.2,57.0
726.26,75.0
726.33,80.0
726.39,59.0
726.45,67.0
726.52,64.0
726.58,53.0
726.64,50.0
726.7,64.0
726.77,67.0
726.83,64.0
726.89,78.0
726.96,68.0
727.02,58.0
727.08,61.0
727.15,71.0
727.21,95.0
727.27,93.0
727.33,95.0
727.4,95.0
727.46,104.0
727.52,83.0
727.59,97.0
727.65,111.0
727.71,110.0
727.78,112.0
727.84,116.0
727.9,141.0
727.96,137.0
728.03,128.0
728.09,119.0
728.15,123.0
728.22,131.0
728.28,125.0
728.34,128.0
728.41,119.0
728.47,114.0
728.53,127.0
728.59,142.0
728.66,150.0
728.72,150.0
728.78,112.0
728.85,139.0
728.91,144.0
728.97,131.0
729.04,146.0
729.1,139.0
729.16,120.0
729.22,123.0
729.29,145.0
729.35,138.0
729.41,137.0
729.48,132.0
729.54,142.0
729.6,147.0
729.67,135.0
729.73,138.0
729.79,145.0
729.85,165.0
729.92,165.0
729.98,160.0
730.04,179.0
730.11,189.0
730.17,160.0
730.23,153.0
730.3,139.0
730.36,136.0
730.42,132.0
730.48,153.0
730.55,136.0
730.61,149.0
730.67,144.0
730.74,155.0
730.8,144.0
730.86,126.0
730.93,114.0
730.99,131.0
731.05,133.0
731.11,128.0
731.18,124.0
731.24,113.0
731.3,112.0
731.37,126.0
731.43,145.0
731.49,156.0
731.56,157.0
731.62,126.0
731.68,138.0
731.74,130.0
731.81,141.0
731.87,120.0
731.93,106.0
732.0,126.0
732.06,132.0
732.12,147.0
732.19,153.0
732.25,143.0
732.31,136.0
732.37,136.0
732.44,137.0
732.5,140.0
732.56,157.0
732.63,167.0
732.69,142.0
732.75,147.0
732.82,171.0
732.88,149.0
732.94,148.0
733.0,171.0
733.07,148.0
733.13,145.0
733.19,128.0
733.26,123.0
733.32,136.0
733.38,118.0
733.45,137.0
733.51,146.0
733.57,136.0
733.63,159.0
733.7,145.0
733.76,137.0
733.82,130.0
733.89,141.0
733.95,138.0
734.01,122.0
734.08,132.0
734.14,122.0
734.2,138.0
734.26,147.0
734.33,166.0
734.39,155.0
734.45,124.0
734.52,131.0
734.58,135.0
734.64,166.0
734.71,141.0
734.77,143.0
734.83,139.0
734.89,139.0
734.96,154.0
735.02,172.0
735.08,154.0
735.15,152.0
735.21,175.0
735.27,155.0
735.34,174.0
735.4,162.0
735.46,144.0
735.52,161.0
735.59,163.0
735.65,145.0
735.71,133.0
735.78,149.0
735.84,162.0
735.9,153.0
735.97,148.0
736.03,142.0
736.09,158.0
736.15,160.0
736.22,145.0
736.28,160.0
736.34,154.0
736.41,149.0
736.47,161.0
736.53,174.0
736.6,161.0
736.66,158.0
736.72,134.0
736.78,180.0
736.85,182.0
736.91,186.0
736.97,189.0
737.04,156.0
737.1,156.0
737.16,165.0
737.23,149.0
737.29,157.0
737.35,150.0
737.41,135.0
737.48,145.0
737.54,149.0
737.6,133.0
737.67,141.0
737.73,122.0
737.79,127.0
737.86,118.0
737.92,142.0
737.98,138.0
738.04,127.0
738.11,120.0
738.17,114.0
738.23,119.0
738.3,132.0
738.36,113.0
738.42,113.0
738.49,116.0
738.55,117.0
738.61,117.0
738.67,106.0
738.74,118.0
738.8,119.0
738.86,116.0
738.93,123.0
738.99,127.0
739.05,109.0
739.12,102.0
739.18,97.0
739.24,109.0
739.3,103.0
739.37,116.0
739.43,128.0
739.49,124.0
739.56,111.0
739.62,115.0
739.68,98.0
739.75,110.0
739.81,111.0
739.87,96.0
739.93,103.0
740.0,139.0
740.06,124.0
740.12,99.0
740.19,112.0
740.25,136.0
740.31,141.0
740.38,158.0
740.44,154.0
740.5,138.0
740.56,145.0
740.63,133.0
740.69,116.0
740.75,138.0
740.82,131.0
740.88,125.0
740.94,125.0
741.01,138.0
741.07,140.0
741.13,122.0
741.19,137.0
741.26,130.0
741.32,119.0
741.38,120.0
741.45,139.0
741.51,144.0
741.57,138.0
741.64,147.0
741.7,128.0
741.76,116.0
741.82,125.0
741.89,129.0
741.95,111.0
742.01,100.0
742.08,66.0
742.14,72.0
742.2,84.0
742.27,88.0
742.33,76.0
742.39,65.0
742.45,79.0
742.52,69.0
742.58,84.0
742.64,79.0
742.71,79.0
742.77,86.0
742.83,92.0
742.9,75.0
742.96,81.0
743.02,106.0
743.08,97.0
743.15,107.0
743.21,105.0
743.27,84.0
743.34,108.0
743.4,97.0
743.46,92.0
743.53,101.0
743.59,94.0
743.65,100.0
743.71,108.0
743.78,100.0
743.84,100.0
743.9,69.0
743.97,81.0
744.03,91.0
744.09,88.0
744.16,124.0
744.22,109.0
744.28,104.0
744.34,111.0
744.41,89.0
744.47,109.0
744.53,102.0
744.6,114.0
744.66,109.0
744.72,93.0
744.79,87.0
744.85,72.0
744.91,80.0
744.97,79.0
745.04,61.0
745.1,54.0
745.16,73.0
745.23,63.0
745.29,68.0
745.35,69.0
745.42,86.0
745.48,85.0
745.54,67.0
745.6,59.0
745.67,61.0
745.73,81.0
745.79,85.0
745.86,85.0
745.92,94.0
745.98,89.0
746.05,82.0
746.11,100.0
746.17,94.0
746.23,90.0
746.3,97.0
746.36,109.0
746.42,114.0
746.49,88.0
746.55,62.0
746.61,91.0
746.68,87.0
746.74,65.0
746.8,105.0
746.86,87.0
746.93,91.0
746.99,74.0
747.05,99.0
747.12,92.0
747.18,84.0
747.24,106.0
747.31,103.0
747.37,117.0
747.43,96.0
747.49,106.0
747.56,91.0
747.62,106.0
747.68,86.0
747.75,82.0
747.81,65.0
747.87,68.0
747.94,61.0
748.0,86.0
748.06,75.0
748.12,79.0
748.19,84.0
748.25,106.0
748.31,76.0
748.38,50.0
748.44,71.0
748.5,78.0
748.57,53.0
748.63,65.0
748.69,54.0
748.75,40.0
748.82,39.0
748.88,26.0
748.94,51.0
749.01,65.0
749.07,56.0
749.13,57.0
749.2,45.0
749.26,47.0
749.32,30.0
749.38,46.0
749.45,41.0
749.51,51.0
749.57,61.0
749.64,40.0
749.7,49.0
749.76,32.0
749.83,55.0
749.89,57.0
749.95,24.0
750.01,42.0
750.08,60.0
750.14,47.0
750.2,53.0
750.27,47.0
750.33,56.0
750.39,57.0
750.46,58.0
750.52,51.0
750.58,64.0
750.64,61.0
750.71,69.0
750.77,61.0
750.83,53.0
750.9,42.0
750.96,45.0
751.02,73.0
751.09,64.0
751.15,65.0
751.21,61.0
751.27,64.0
751.34,59.0
751.4,50.0
751.46,61.0
751.53,71.0
751.59,58.0
751.65,67.0
751.72,57.0
751.78,61.0
751.84,68.0
751.9,62.0
751.97,65.0
752.03,92.0
752.09,83.0
752.16,75.0
752.22,95.0
752.28,92.0
752.35,108.0
752.41,109.0
752.47,101.0
752.53,102.0
752.6,81.0
752.66,72.0
752.72,43.0
752.79,38.0
752.85,62.0
752.91,68.0
752.98,64.0
753.04,67.0
753.1,61.0
753.16,58.0
753.23,62.0
753.29,80.0
753.35,79.0
753.42,62.0
753.48,74.0
753.54,71.0
753.61,79.0
753.67,101.0
753.73,94.0
753.79,108.0
753.86,102.0
753.92,73.0
753.98,103.0
754.05,87.0
754.11,99.0
754.17,84.0
754.24,67.0
754.3,71.0
754.36,57.0
754.42,60.0
754.49,54.0
754.55,64.0
754.61,76.0
754.68,82.0
754.74,76.0
754.8,75.0
754.87,67.0
754.93,72.0
754.99,63.0
755.05,64.0
755.12,79.0
755.18,49.0
755.24,59.0
755.31,89.0
755.37,80.0
755.43,68.0
755.5,74.0
755.56,78.0
755.62,80.0
755.68,78.0
755.75,62.0
755.81,64.0
755.87,81.0
755.94,76.0
756.0,97.0
756.06,83.0
756.13,89.0
756.19,88.0
756.25,81.0
756.31,110.0
756.38,95.0
756.44,105.0
756.5,105.0
756.57,105.0
756.63,100.0
756.69,89.0
756.76,90.0
756.82,87.0
756.88,95.0
756.94,103.0
757.01,111.0
757.07,100.0
757.13,89.0
757.2,128.0
757.26,110.0
757.32,100.0
757.39,110.0
757.45,106.0
757.51,120.0
757.57,99.0
757.64,104.0
757.7,101.0
757.76,120.0
757.83,114.0
757.89,114.0
757.95,123.0
758.02,104.0
758.08,103.0
758.14,112.0
758.2,128.0
758.27,124.0
758.33,103.0
758.39,98.0
758.46,97.0
758.52,100.0
758.58,125.0
758.65,114.0
758.71,110.0
758.77,98.0
758.83,96.0
758.9,122.0
758.96,138.0
759.02,128.0
759.09,121.0
759.15,126.0
759.21,78.0
759.28,70.0
759.34,72.0
759.4,89.0
759.46,114.0
759.53,103.0
759.59,117.0
759.65,116.0
759.72,135.0
759.78,108.0
759.84,91.0
759.91,102.0
759.97,104.0
760.03,98.0
760.09,84.0
760.16,107.0
760.22,97.0
760.28,97.0
760.35,104.0
760.41,101.0
760.47,114.0
760.54,116.0
760.6,111.0
760.66,91.0
760.72,98.0
760.79,116.0
760.85,114.0
760.91,114.0
760.98,131.0
761.04,107.0
761.1,117.0
761.17,120.0
761.23,128.0
761.29,128.0
761.35,123.0
761.42,117.0
761.48,98.0
761.54,121.0
761.61,123.0
761.67,122.0
761.73,150.0
761.8,137.0
761.86,123.0
761.92,112.0
761.98,117.0
762.05,102.0
762.11,113.0
762.17,118.0
762.24,122.0
762.3,125.0
762.36,112.0
762.43,116.0
762.49,133.0
762.55,128.0
762.61,124.0
762.68,109.0
762.74,105.0
762.8,106.0
762.87,116.0
762.93,111.0
762.99,117.0
763.06,138.0
763.12,157.0
763.18,134.0
763.24,112.0
763.31,123.0
763.37,125.0
763.43,135.0
763.5,139.0
763.56,134.0
763.62,133.0
763.69,127.0
763.75,127.0
763.81,124.0
763.87,118.0
763.94,135.0
764.0,117.0
764.06,114.0
764.13,111.0
764.19,107.0
764.25,102.0
764.32,105.0
764.38,113.0
764.44,93.0
764.5,87.0
764.57,93.0
764.63,99.0
764.69,91.0
764.76,79.0
764.82,100.0
764.88,98.0
764.95,102.0
765.01,110.0
765.07,116.0
765.13,128.0
765.2,108.0
765.26,121.0
765.32,132.0
765.39,146.0
765.45,142.0
765.51,143.0
765.58,138.0
765.64,134.0
765.7,139.0
765.76,150.0
765.83,133.0
765.89,126.0
765.95,122.0
766.02,140.0
766.08,146.0
766.14,131.0
766.21,145.0
766.27,138.0
766.33,119.0
766.39,121.0
766.46,134.0
766.52,141.0
766.58,140.0
766.65,107.0
766.71,125.0
766.77,120.0
766.84,138.0
766.9,138.0
766.96,121.0
767.02,125.0
767.09,104.0
767.15,93.0
767.21,105.0
767.28,106.0
767.34,117.0
767.4,111.0
767.47,91.0
767.53,87.0
767.59,117.0
767.65,97.0
767.72,100.0
767.78,129.0
767.84,125.0
767.91,116.0
767.97,125.0
768.03,114.0
768.1,120.0
768.16,124.0
768.22,107.0
768.28,120.0
768.35,111.0
768.41,103.0
768.47,109.0
768.54,105.0
768.6,102.0
768.66,104.0
768.73,104.0
768.79,100.0
768.85,104.0
768.91,104.0
768.98,94.0
769.04,101.0
769.1,90.0
769.17,92.0
769.23,116.0
769.29,119.0
769.36,127.0
769.42,118.0
769.48,105.0
769.54,116.0
769.61,99.0
769.67,94.0
769.73,103.0
769.8,93.0
769.86,106.0
769.92,92.0
769.99,112.0
770.05,98.0
770.11,76.0
770.17,76.0
770.24,71.0
770.3,64.0
770.36,70.0
770.43,63.0
770.49,53.0
770.55,50.0
770.62,50.0
770.68,39.0
770.74,39.0
770.8,41.0
770.87,24.0
770.93,39.0
770.99,33.0
771.06,35.0
771.12,32.0
771.18,15.0
771.25,10.0
771.31,12.0
771.37,17.0
771.43,31.0
771.5,37.0
771.56,28.0
771.62,39.0
771.69,44.0
771.75,28.0
771.81,33.0
771.88,27.0
771.94,41.0
772.0,14.0
772.06,19.0
772.13,13.0
772.19,16.0
772.25,21.0
772.32,9.0
772.38,22.0
772.44,29.0
772.51,39.0
772.57,45.0
772.63,53.0
772.69,38.0
772.76,34.0
772.82,49.0
772.88,43.0
772.95,35.0
773.01,46.0
773.07,20.0
773.14,57.0
773.2,46.0
773.26,42.0
773.32,35.0
773.39,25.0
773.45,44.0
773.51,42.0
773.58,38.0
773.64,37.0
773.7,54.0
773.77,50.0
773.83,31.0
773.89,56.0
773.95,72.0
774.02,37.0
774.08,32.0
774.14,53.0
774.21,39.0
774.27,79.0
774.33,80.0
774.4,54.0
774.46,61.0
774.52,72.0
774.58,76.0
774.65,74.0
774.71,76.0
774.77,63.0
774.84,83.0
774.9,59.0
774.96,80.0
775.03,72.0
775.09,64.0
775.15,65.0
775.21,68.0
775.28,56.0
775.34,31.0
775.4,29.0
775.47,24.0
775.53,41.0
775.59,39.0
775.66,28.0
775.72,17.0
775.78,28.0
775.84,41.0
775.91,28.0
775.97,7.0
776.03,21.0
776.1,28.0
776.16,39.0
776.22,46.0
776.29,53.0
776.35,52.0
776.41,50.0
776.47,56.0
776.54,51.0
776.6,50.0
776.66,46.0
776.73,54.0
776.79,59.0
776.85,77.0
776.92,61.0
776.98,65.0
777.04,72.0
777.1,78.0
777.17,59.0
777.23,66.0
777.29,95.0
777.36,82.0
777.42,74.0
777.48,70.0
777.55,52.0
777.61,52.0
777.67,54.0
777.73,57.0
777.8,54.0
777.86,53.0
777.92,80.0
777.99,69.0
778.05,59.0
778.11,66.0
778.18,43.0
778.24,76.0
778.3,71.0
778.36,70.0
778.43,77.0
778.49,54.0
778.55,62.0
778.62,39.0
778.68,41.0
778.74,45.0
778.81,51.0
778.87,39.0
778.93,53.0
778.99,71.0
779.06,49.0
779.12,51.0
779.18,61.0
779.25,60.0
779.31,58.0
779.37,59.0
779.44,65.0
779.5,62.0
779.56,55.0
779.62,68.0
779.69,79.0
779.75,69.0
779.81,84.0
779.88,93.0
779.94,89.0
780.0,98.0
780.07,107.0
780.13,113.0
780.19,118.0
780.25,110.0
780.32,122.0
780.38,126.0
780.44,110.0
780.51,98.0
780.57,102.0
780.63,98.0
780.7,114.0
780.76,110.0
780.82,100.0
780.88,113.0
780.95,112.0
781.01,113.0
781.07,121.0
781.14,106.0
781.2,96.0
781.26,101.0
781.33,101.0
781.39,109.0
781.45,105.0
781.51,77.0
781.58,87.0
781.64,86.0
781.7,97.0
781.77,109.0
781.83,112.0
781.89,98.0
781.96,130.0
782.02,120.0
782.08,105.0
782.14,113.0
782.21,114.0
782.27,109.0
782.33,100.0
782.4,108.0
782.46,107.0
782.52,113.0
782.59,114.0
782.65,94.0
782.71,114.0
782.77,136.0
782.84,140.0
782.9,146.0
782.96,145.0
783.03,146.0
783.09,152.0
783.15,159.0
783.22,166.0
783.28,135.0
783.34,149.0
783.4,161.0
783.47,153.0
783.53,145.0
783.59,126.0
783.66,167.0
783.72,159.0
783.78,166.0
783.85,155.0
783.91,163.0
783.97,158.0
784.03,160.0
784.1,159.0
784.16,151.0
784.22,188.0
784.29,160.0
784.35,152.0
784.41,185.0
784.48,194.0
784.54,167.0
784.6,152.0
784.66,181.0
784.73,175.0
784.79,166.0
784.85,167.0
784.92,168.0
784.98,194.0
785.04,189.0
785.11,183.0
785.17,198.0
785.23,202.0
785.29,188.0
785.36,182.0
785.42,182.0
785.48,191.0
785.55,177.0
785.61,160.0
785.67,171.0
785.74,181.0
785.8,154.0
785.86,138.0
785.92,149.0
785.99,147.0
786.05,141.0
786.11,164.0
786.18,190.0
786.24,176.0
786.3,193.0
786.37,173.0
786.43,163.0
786.49,179.0
786.55,159.0
786.62,166.0
786.68,155.0
786.74,153.0
786.81,171.0
786.87,166.0
786.93,149.0
787.0,135.0
787.06,142.0
787.12,157.0
787.18,138.0
787.25,150.0
787.31,153.0
787.37,163.0
787.44,153.0
787.5,144.0
787.56,148.0
787.63,161.0
787.69,155.0
787.75,130.0
787.81,133.0
787.88,132.0
787.94,148.0
788.0,142.0
788.07,120.0
788.13,112.0
788.19,122.0
788.26,125.0
788.32,108.0
788.38,115.0
788.44,114.0
788.51,122.0
788.57,130.0
788.63,138.0
788.7,136.0
788.76,133.0
788.82,111.0
788.89,98.0
788.95,133.0
789.01,129.0
789.07,114.0
789.14,127.0
789.2,134.0
789.26,140.0
789.33,132.0
789.39,130.0
789.45,125.0
789.52,133.0
789.58,123.0
789.64,128.0
789.7,127.0
789.77,93.0
789.83,108.0
789.89,113.0
789.96,94.0
790.02,89.0
790.08,95.0
790.15,101.0
790.21,114.0
790.27,112.0
790.33,99.0
790.4,94.0
790.46,129.0
790.52,129.0
790.59,119.0
790.65,131.0
790.71,135.0
790.78,145.0
790.84,139.0
790.9,106.0
790.96,132.0
791.03,106.0
791.09,116.0
791.15,120.0
791.22,137.0
791.28,144.0
791.34,131.0
791.41,121.0
791.47,136.0
791.53,128.0
791.59,141.0
791.66,124.0
791.72,135.0
791.78,147.0
791.85,143.0
791.91,129.0
791.97,138.0
792.04,147.0
792.1,128.0
792.16,151.0
792.22,147.0
792.29,117.0
792.35,142.0
792.41,122.0
792.48,115.0
792.54,114.0
792.6,123.0
792.67,119.0
792.73,117.0
792.79,113.0
792.85,103.0
792.92,115.0
792.98,102.0
793.04,98.0
793.11,124.0
793.17,124.0
793.23,129.0
793.3,130.0
793.36,113.0
793.42,109.0
793.48,112.0
793.55,112.0
793.61,97.0
793.67,105.0
793.74,98.0
793.8,98.0
793.86,86.0
793.93,80.0
793.99,94.0
794.05,87.0
794.11,75.0
794.18,83.0
794.24,83.0
794.3,72.0
794.37,89.0
794.43,83.0
794.49,77.0
794.56,79.0
794.62,89.0
794.68,105.0
794.74,72.0
794.81,72.0
794.87,74.0
794.93,73.0
795.0,86.0
795.06,88.0
795.12,89.0
795.19,70.0
795.25,72.0
795.31,89.0
795.37,83.0
795.44,95.0
795.5,97.0
795.56,76.0
795.63,97.0
795.69,89.0
795.75,83.0
795.82,80.0
795.88,75.0
795.94,75.0
796.0,67.0
796.07,57.0
796.13,59.0
796.19,50.0
796.26,70.0
796.32,87.0
796.38,71.0
796.45,65.0
796.51,69.0
796.57,67.0
796.63,80.0
796.7,72.0
796.76,84.0
796.82,60.0
796.89,64.0
796.95,85.0
797.01,92.0
797.08,75.0
797.14,76.0
797.2,86.0
797.26,69.0
797.33,59.0
797.39,73.0
797.45,65.0
797.52,81.0
797.58,56.0
797.64,50.0
797.71,57.0
797.77,67.0
797.83,80.0
797.89,67.0
797.96,62.0
798.02,57.0
798.08,73.0
798.15,64.0
798.21,59.0
798.27,64.0
798.34,86.0
798.4,87.0
798.46,116.0
798.52,119.0
798.59,105.0
798.65,102.0
798.71,109.0
798.78,114.0
798.84,121.0
798.9,116.0
798.97,102.0
799.03,103.0
799.09,100.0
799.15,84.0
799.22,72.0
799.28,89.0
799.34,89.0
799.41,82.0
799.47,92.0
799.53,122.0
799.6,116.0
799.66,87.0
799.72,86.0
799.78,88.0
799.85,100.0
799.91,95.0
799.97,76.0
800.04,86.0
800.1,83.0
800.16,93.0
800.23,90.0
800.29,79.0
800.35,82.0
800.41,86.0
800.48,72.0
800.54,51.0
800.6,71.0
800.67,75.0
800.73,83.0
800.79,67.0
800.86,89.0
800.92,97.0
800.98,82.0
801.04,76.0
801.11,72.0
801.17,66.0
801.23,49.0
801.3,42.0
801.36,54.0
801.42,83.0
801.49,53.0
801.55,57.0
801.61,49.0
801.67,51.0
801.74,61.0
801.8,47.0
801.86,48.0
801.93,70.0
801.99,84.0
802.05,75.0
802.12,56.0
802.18,64.0
802.24,65.0
802.3,53.0
802.37,61.0
802.43,61.0
802.49,72.0
802.56,68.0
802.62,64.0
802.68,64.0
802.75,67.0
802.81,79.0
802.87,94.0
802.93,84.0
803.0,95.0
803.06,103.0
803.12,86.0
803.19,80.0
803.25,88.0
803.31,106.0
803.38,90.0
803.44,70.0
803.5,81.0
803.56,90.0
803.63,77.0
803.69,82.0
803.75,84.0
803.82,100.0
803.88,77.0
803.94,87.0
804.01,92.0
804.07,92.0
804.13,85.0
804.19,79.0
804.26,89.0
804.32,66.0
804.38,87.0
804.45,87.0
804.51,83.0
804.57,68.0
804.64,69.0
804.7,69.0
804.76,87.0
804.82,80.0
804.89,55.0
804.95,76.0
805.01,72.0
805.08,69.0
805.14,69.0
805.2,75.0
805.27,65.0
805.33,69.0
805.39,58.0
805.45,66.0
805.52,56.0
805.58,62.0
805.64,67.0
805.71,86.0
805.77,91.0
805.83,78.0
805.9,60.0
805.96,88.0
806.02,83.0
806.08,68.0
806.15,84.0
806.21,89.0
806.27,92.0
806.34,81.0
806.4,64.0
806.46,72.0
806.53,94.0
806.59,88.0
806.65,89.0
806.71,100.0
806.78,88.0
806.84,100.0
806.9,113.0
806.97,114.0
807.03,106.0
807.09,92.0
807.16,111.0
807.22,99.0
807.28,108.0
807.34,99.0
807.41,94.0
807.47,104.0
807.53,101.0
807.6,93.0
807.66,110.0
807.72,119.0
807.79,101.0
807.85,96.0
807.91,101.0
807.97,107.0
808.04,95.0
808.1,87.0
808.16,86.0
808.23,98.0
808.29,97.0
808.35,112.0
808.42,99.0
808.48,112.0
808.54,84.0
808.6,96.0
808.67,109.0
808.73,110.0
808.79,124.0
808.86,123.0
808.92,97.0
808.98,114.0
809.05,90.0
809.11,113.0
809.17,119.0
809.23,124.0
809.3,112.0
809.36,115.0
809.42,98.0
809.49,104.0
809.55,116.0
809.61,109.0
809.68,86.0
809.74,88.0
809.8,104.0
809.86,86.0
809.93,100.0
809.99,105.0
810.05,112.0
810.12,109.0
810.18,98.0
810.24,84.0
810.31,79.0
810.37,89.0
810.43,87.0
810.49,76.0
810.56,76.0
810.62,94.0
810.68,108.0
810.75,113.0
810.81,98.0
810.87,79.0
810.94,87.0
811.0,81.0
811.06,70.0
811.12,72.0
811.19,80.0
811.25,73.0
811.31,76.0
811.38,77.0
811.44,81.0
811.5,82.0
811.57,82.0
811.63,99.0
811.69,84.0
811.75,81.0
811.82,67.0
811.88,69.0
811.94,76.0
812.01,87.0
812.07,84.0
812.13,65.0
812.2,51.0
812.26,67.0
812.32,74.0
812.38,51.0
812.45,25.0
812.51,36.0
812.57,37.0
812.64,48.0
812.7,59.0
812.76,43.0
812.83,47.0
812.89,63.0
812.95,47.0
813.01,58.0
813.08,43.0
813.14,50.0
813.2,46.0
813.27,39.0
813.33,76.0
813.39,78.0
813.46,88.0
813.52,78.0
813.58,86.0
813.64,90.0
813.71,86.0
813.77,109.0
813.83,94.0
813.9,90.0
813.96,83.0
814.02,83.0
814.09,78.0
814.15,83.0
814.21,78.0
814.27,81.0
814.34,102.0
814.4,109.0
814.46,112.0
814.53,105.0
814.59,115.0
814.65,89.0
814.72,87.0
814.78,76.0
814.84,91.0
814.9,94.0
814.97,89.0
815.03,78.0
815.09,86.0
815.16,91.0
815.22,94.0
815.28,75.0
815.35,93.0
815.41,88.0
815.47,109.0
815.53,100.0
815.6,103.0
815.66,90.0
815.72,74.0
815.79,80.0
815.85,74.0
815.91,76.0
815.98,89.0
816.04,80.0
816.1,61.0
816.16,75.0
816.23,81.0
816.29,76.0
816.35,73.0
816.42,54.0
816.48,73.0
816.54,61.0
816.61,58.0
816.67,93.0
816.73,63.0
816.79,69.0
816.86,84.0
816.92,88.0
816.98,89.0
817.05,78.0
817.11,72.0
817.17,83.0
817.24,81.0
817.3,76.0
817.36,81.0
817.42,100.0
817.49,102.0
817.55,98.0
817.61,100.0
817.68,95.0
817.74,108.0
817.8,91.0
817.87,106.0
817.93,102.0
817.99,101.0
818.05,101.0
818.12,108.0
818.18,93.0
818.24,95.0
818.31,114.0
818.37,111.0
818.43,114.0
818.5,120.0
818.56,123.0
818.62,109.0
818.68,98.0
818.75,104.0
818.81,96.0
818.87,109.0
818.94,121.0
819.0,111.0
819.06,100.0
819.13,119.0
819.19,124.0
819.25,114.0
819.31,108.0
819.38,109.0
819.44,112.0
819.5,100.0
819.57,91.0
819.63,104.0
819.69,100.0
819.76,108.0
819.82,106.0
819.88,95.0
819.94,101.0
820.01,89.0
820.07,102.0
820.13,100.0
820.2,109.0
820.26,103.0
820.32,77.0
820.39,87.0
820.45,79.0
820.51,90.0
820.57,91.0
820.64,92.0
820.7,74.0
820.76,69.0
820.83,84.0
820.89,78.0
820.95,88.0
821.02,91.0
821.08,101.0
821.14,91.0
821.2,90.0
821.27,81.0
821.33,67.0
821.39,94.0
821.46,77.0
821.52,72.0
821.58,68.0
821.65,58.0
821.71,62.0
821.77,61.0
821.83,73.0
821.9,68.0
821.96,52.0
822.02,51.0
822.09,60.0
822.15,74.0
822.21,80.0
822.28,91.0
822.34,80.0
822.4,75.0
822.46,80.0
822.53,90.0
822.59,92.0
822.65,100.0
822.72,87.0
822.78,78.0
822.84,84.0
822.91,82.0
822.97,72.0
823.03,76.0
823.09,69.0
823.16,63.0
823.22,64.0
823.28,56.0
823.35,50.0
823.41,61.0
823.47,54.0
823.54,68.0
823.6,43.0
823.66,45.0
823.72,54.0
823.79,88.0
823.85,72.0
823.91,37.0
823.98,54.0
824.04,54.0
824.1,58.0
824.17,68.0
824.23,80.0
824.29,78.0
824.35,75.0
824.42,91.0
824.48,98.0
824.54,104.0
824.61,90.0
824.67,86.0
824.73,106.0
824.8,100.0
824.86,106.0
824.92,100.0
824.98,105.0
825.05,104.0
825.11,91.0
825.17,98.0
825.24,100.0
825.3,102.0
825.36,113.0
825.43,97.0
825.49,104.0
825.55,91.0
825.61,111.0
825.68,95.0
825.74,78.0
825.8,79.0
825.87,90.0
825.93,90.0
825.99,80.0
826.06,74.0
826.12,65.0
826.18,79.0
826.24,94.0
826.31,109.0
826.37,87.0
826.43,98.0
826.5,94.0
826.56,53.0
826.62,65.0
826.69,72.0
826.75,54.0
826.81,71.0
826.87,72.0
826.94,70.0
827.0,67.0
827.06,63.0
827.13,78.0
827.19,76.0
827.25,85.0
827.32,87.0
827.38,61.0
827.44,65.0
827.5,57.0
827.57,86.0
827.63,79.0
827.69,76.0
827.76,72.0
827.82,63.0
827.88,72.0
827.95,60.0
828.01,71.0
828.07,83.0
828.13,69.0
828.2,47.0
828.26,50.0
828.32,43.0
828.39,47.0
828.45,63.0
828.51,54.0
828.58,38.0
828.64,56.0
828.7,66.0
828.76,58.0
828.83,66.0
828.89,66.0
828.95,62.0
829.02,59.0
829.08,69.0
829.14,59.0
829.21,52.0
829.27,65.0
829.33,75.0
829.39,63.0
829.46,57.0
829.52,83.0
829.58,94.0
829.65,77.0
829.71,75.0
829.77,80.0
829.84,84.0
829.9,83.0
829.96,84.0
830.02,78.0
830.09,73.0
830.15,70.0
830.21,62.0
830.28,81.0
830.34,75.0
830.4,91.0
830.47,87.0
830.53,83.0
830.59,79.0
830.65,79.0
830.72,68.0
830.78,76.0
830.84,82.0
830.91,67.0
830.97,72.0
831.03,83.0
831.1,87.0
831.16,77.0
831.22,72.0
831.28,67.0
831.35,49.0
831.41,62.0
831.47,72.0
831.54,64.0
831.6,81.0
831.66,76.0
831.73,80.0
831.79,69.0
831.85,74.0
831.91,69.0
831.98,61.0
832.04,76.0
832.1,62.0
832.17,50.0
832.23,76.0
832.29,64.0
832.36,51.0
832.42,56.0
832.48,49.0
832.54,67.0
832.61,72.0
832.67,102.0
832.73,87.0
832.8,76.0
832.86,84.0
832.92,72.0
832.99,87.0
833.05,82.0
833.11,78.0
833.17,79.0
833.24,90.0
833.3,68.0
833.36,86.0
833.43,91.0
833.49,70.0
833.55,72.0
833.62,76.0
833.68,91.0
833.74,94.0
833.8,100.0
833.87,92.0
833.93,83.0
833.99,102.0
834.06,93.0
834.12,99.0
834.18,106.0
834.25,98.0
834.31,124.0
834.37,109.0
834.43,120.0
834.5,99.0
834.56,93.0
834.62,118.0
834.69,92.0
834.75,118.0
834.81,114.0
834.88,84.0
834.94,92.0
835.0,95.0
835.06,105.0
835.13,123.0
835.19,106.0
835.25,99.0
835.32,96.0
835.38,117.0
835.44,121.0
835.51,118.0
835.57,122.0
835.63,125.0
835.69,106.0
835.76,108.0
835.82,130.0
835.88,119.0
835.95,128.0
836.01,125.0
836.07,144.0
836.14,133.0
836.2,122.0
836.26,147.0
836.32,132.0
836.39,145.0
836.45,147.0
836.51,144.0
836.58,149.0
836.64,139.0
836.7,144.0
836.77,156.0
836.83,164.0
836.89,159.0
836.95,160.0
837.02,144.0
837.08,136.0
837.14,120.0
837.21,117.0
837.27,105.0
837.33,119.0
837.4,117.0
837.46,118.0
837.52,120.0
837.58,125.0
837.65,121.0
837.71,127.0
837.77,118.0
837.84,125.0
837.9,117.0
837.96,145.0
838.03,145.0
838.09,120.0
838.15,132.0
838.21,127.0
838.28,129.0
838.34,139.0
838.4,133.0
838.47,127.0
838.53,125.0
838.59,127.0
838.66,100.0
838.72,122.0
838.78,137.0
838.84,134.0
838.91,133.0
838.97,123.0
839.03,117.0
839.1,125.0
839.16,127.0
839.22,116.0
839.29,127.0
839.35,134.0
839.41,130.0
839.47,123.0
839.54,139.0
839.6,126.0
839.66,126.0
839.73,127.0
839.79,135.0
839.85,136.0
839.92,135.0
839.98,147.0
840.04,136.0
840.1,151.0
840.17,149.0
840.23,137.0
840.29,161.0
840.36,153.0
840.42,138.0
840.48,133.0
840.55,142.0
840.61,143.0
840.67,152.0
840.73,177.0
840.8,164.0
840.86,183.0
840.92,175.0
840.99,175.0
841.05,169.0
841.11,186.0
841.18,175.0
841.24,177.0
841.3,167.0
841.36,158.0
841.43,144.0
841.49,152.0
841.55,160.0
841.62,157.0
841.68,161.0
841.74,163.0
841.81,161.0
841.87,167.0
841.93,157.0
841.99,157.0
842.06,160.0
842.12,169.0
842.18,165.0
842.25,154.0
842.31,154.0
842.37,138.0
842.44,158.0
842.5,154.0
842.56,129.0
842.62,129.0
842.69,150.0
842.75,155.0
842.81,140.0
842.88,156.0
842.94,155.0
843.0,163.0
843.07,136.0
843.13,141.0
843.19,143.0
843.25,142.0
843.32,142.0
843.38,111.0
843.44,117.0
843.51,112.0
843.57,120.0
843.63,144.0
843.7,156.0
843.76,135.0
843.82,134.0
843.88,142.0
843.95,127.0
844.01,112.0
844.07,136.0
844.14,135.0
844.2,139.0
844.26,136.0
844.33,139.0
844.39,141.0
844.45,139.0
844.51,146.0
844.58,139.0
844.64,163.0
844.7,161.0
844.77,179.0
844.83,168.0
844.89,163.0
844.96,175.0
845.02,164.0
845.08,145.0
845.14,151.0
845.21,156.0
845.27,160.0
845.33,145.0
845.4,182.0
845.46,168.0
845.52,165.0
845.59,157.0
845.65,135.0
845.71,152.0
845.77,141.0
845.84,152.0
845.9,153.0
845.96,134.0
846.03,142.0
846.09,153.0
846.15,116.0
846.22,128.0
846.28,158.0
846.34,141.0
846.4,145.0
846.47,143.0
846.53,138.0
846.59,146.0
846.66,131.0
846.72,143.0
846.78,153.0
846.85,131.0
846.91,130.0
846.97,131.0
847.03,135.0
847.1,127.0
847.16,119.0
847.22,144.0
847.29,123.0
847.35,126.0
847.41,125.0
847.48,138.0
847.54,122.0
847.6,125.0
847.66,124.0
847.73,130.0
847.79,132.0
847.85,121.0
847.92,129.0
847.98,113.0
848.04,128.0
848.11,142.0
848.17,130.0
848.23,148.0
848.29,134.0
848.36,145.0
848.42,140.0
848.48,139.0
848.55,132.0
848.61,124.0
848.67,142.0
848.74,140.0
848.8,155.0
848.86,149.0
848.92,121.0
848.99,131.0
849.05,125.0
849.11,114.0
849.18,112.0
849.24,111.0
849.3,111.0
849.37,112.0
849.43,100.0
849.49,121.0
849.55,143.0
849.62,131.0
849.68,124.0
849.74,121.0
849.81,139.0
849.87,135.0
849.93,137.0
850.0,123.0
850.06,131.0
850.12,138.0
850.18,135.0
850.25,144.0
850.31,137.0
850.37,156.0
850.44,159.0
850.5,138.0
850.56,141.0
850.63,138.0
850.69,139.0
850.75,153.0
850.81,129.0
850.88,136.0
850.94,148.0
851.0,176.0
851.07,162.0
851.13,145.0
851.19,155.0
851.26,161.0
851.32,152.0
851.38,157.0
851.44,135.0
851.51,133.0
851.57,144.0
851.63,117.0
851.7,147.0
851.76,164.0
851.82,154.0
851.89,138.0
851.95,147.0
852.01,130.0
852.07,111.0
852.14,144.0
852.2,138.0
852.26,119.0
852.33,139.0
852.39,129.0
852.45,149.0
852.52,155.0
852.58,144.0
852.64,145.0
852.7,134.0
852.77,145.0
852.83,136.0
852.89,110.0
852.96,120.0
853.02,130.0
853.08,107.0
853.15,101.0
853.21,98.0
853.27,117.0
853.33,81.0
853.4,94.0
853.46,83.0
853.52,78.0
853.59,92.0
853.65,77.0
853.71,83.0
853.78,79.0
853.84,76.0
853.9,65.0
853.96,60.0
854.03,79.0
854.09,86.0
854.15,91.0
854.22,95.0
854.28,81.0
854.34,72.0
854.41,72.0
854.47,74.0
854.53,64.0
854.59,78.0
854.66,73.0
854.72,59.0
854.78,59.0
854.85,59.0
854.91,50.0
854.97,58.0
855.04,61.0
855.1,39.0
855.16,15.0
855.22,23.0
855.29,23.0
855.35,27.0
855.41,30.0
855.48,47.0
855.54,34.0
855.6,43.0
855.67,39.0
855.73,37.0
855.79,61.0
855.85,47.0
855.92,36.0
855.98,24.0
856.04,31.0
856.11,13.0
856.17,28.0
856.23,50.0
856.3,40.0
856.36,53.0
856.42,45.0
856.48,43.0
856.55,51.0
856.61,47.0
856.67,64.0
856.74,26.0
856.8,40.0
856.86,36.0
856.93,41.0
856.99,32.0
857.05,37.0
857.11,51.0
857.18,50.0
857.24,50.0
857.3,46.0
857.37,47.0
857.43,31.0
857.49,45.0
857.56,62.0
857.62,39.0
857.68,54.0
857.74,28.0
857.81,37.0
857.87,53.0
857.93,46.0
858.0,64.0
858.06,58.0
858.12,76.0
858.19,74.0
858.25,57.0
858.31,65.0
858.37,82.0
858.44,97.0
858.5,89.0
858.56,91.0
858.63,102.0
858.69,78.0
858.75,80.0
858.82,93.0
858.88,99.0
858.94,104.0
859.0,100.0
859.07,110.0
859.13,93.0
859.19,72.0
859.26,70.0
859.32,87.0
859.38,90.0
859.45,85.0
859.51,71.0
859.57,60.0
859.63,77.0
859.7,57.0
859.76,57.0
859.82,64.0
859.89,47.0
859.95,45.0
860.01,40.0
860.08,32.0
860.14,53.0
860.2,44.0
860.26,35.0
860.33,39.0
860.39,32.0
860.45,44.0
860.52,48.0
860.58,36.0
860.64,27.0
860.71,38.0
860.77,42.0
860.83,43.0
860.89,36.0
860.96,54.0
861.02,35.0
861.08,31.0
861.15,36.0
861.21,32.0
861.27,59.0
861.34,58.0
861.4,65.0
861.46,61.0
861.52,57.0
861.59,73.0
861.65,88.0
861.71,55.0
861.78,59.0
861.84,59.0
861.9,58.0
861.97,76.0
862.03,72.0
862.09,80.0
862.15,74.0
862.22,72.0
862.28,83.0
862.34,71.0
862.41,74.0
862.47,59.0
862.53,69.0
862.6,67.0
862.66,60.0
862.72,68.0
862.78,57.0
862.85,70.0
862.91,80.0
862.97,82.0
863.04,78.0
863.1,72.0
863.16,76.0
863.23,61.0
863.29,62.0
863.35,91.0
863.41,76.0
863.48,59.0
863.54,85.0
863.6,78.0
863.67,72.0
863.73,83.0
863.79,81.0
863.86,68.0
863.92,67.0
863.98,60.0
864.04,67.0
864.11,77.0
864.17,75.0
864.23,85.0
864.3,90.0
864.36,74.0
864.42,79.0
864.49,95.0
864.55,94.0
864.61,92.0
864.67,91.0
864.74,80.0
864.8,88.0
864.86,88.0
864.93,95.0
864.99,94.0
865.05,102.0
865.12,89.0
865.18,83.0
865.24,97.0
865.3,91.0
865.37,95.0
865.43,96.0
865.49,100.0
865.56,84.0
865.62,111.0
865.68,112.0
865.75,95.0
865.81,100.0
865.87,120.0
865.93,100.0
866.0,109.0
866.06,115.0
866.12,126.0
866.19,125.0
866.25,130.0
866.31,126.0
866.38,136.0
866.44,125.0
866.5,117.0
866.56,130.0
866.63,115.0
866.69,122.0
866.75,133.0
866.82,130.0
866.88,144.0
866.94,134.0
867.01,138.0
867.07,108.0
867.13,106.0
867.19,106.0
867.26,128.0
867.32,124.0
867.38,130.0
867.45,122.0
867.51,105.0
867.57,121.0
867.64,103.0
867.7,109.0
867.76,111.0
867.82,94.0
867.89,116.0
867.95,106.0
868.01,114.0
868.08,120.0
868.14,116.0
868.2,118.0
868.27,116.0
868.33,100.0
868.39,107.0
868.45,112.0
868.52,98.0
868.58,90.0
868.64,113.0
868.71,121.0
868.77,106.0
868.83,95.0
868.9,109.0
868.96,112.0
869.02,100.0
869.08,116.0
869.15,114.0
869.21,115.0
869.27,114.0
869.34,123.0
869.4,118.0
869.46,127.0
869.53,125.0
869.59,102.0
869.65,116.0
869.71,120.0
869.78,118.0
869.84,117.0
869.9,122.0
869.97,108.0
870.03,101.0
870.09,98.0
870.16,119.0
870.22,99.0
870.28,72.0
870.34,76.0
870.41,83.0
870.47,88.0
870.53,79.0
870.6,72.0
870.66,84.0
870.72,87.0
870.79,69.0
870.85,64.0
870.91,73.0
870.97,83.0
871.04,88.0
871.1,77.0
871.16,54.0
871.23,65.0
871.29,58.0
871.35,66.0
871.42,73.0
871.48,71.0
871.54,78.0
871.6,54.0
871.67,41.0
871.73,42.0
871.79,64.0
871.86,42.0
871.92,46.0
871.98,44.0
872.05,53.0
872.11,62.0
872.17,41.0
872.23,56.0
872.3,52.0
872.36,39.0
872.42,43.0
872.49,37.0
872.55,55.0
872.61,50.0
872.68,45.0
872.74,47.0
872.8,35.0
872.86,51.0
872.93,50.0
872.99,32.0
873.05,42.0
873.12,57.0
873.18,54.0
873.24,61.0
873.31,56.0
873.37,47.0
873.43,43.0
873.49,47.0
873.56,58.0
873.62,55.0
873.68,54.0
873.75,48.0
873.81,37.0
873.87,63.0
873.94,59.0
874.0,40.0
874.06,43.0
874.12,50.0
874.19,59.0
874.25,66.0
874.31,75.0
874.38,75.0
874.44,73.0
874.5,59.0
874.57,76.0
874.63,88.0
874.69,76.0
874.75,91.0
874.82,89.0
874.88,76.0
874.94,74.0
875.01,77.0
875.07,66.0
875.13,76.0
875.2,70.0
875.26,76.0
875.32,94.0
875.38,80.0
875.45,77.0
875.51,63.0
875.57,77.0
875.64,85.0
875.7,98.0
875.76,103.0
875.83,90.0
875.89,105.0
875.95,91.0
876.01,58.0
876.08,47.0
876.14,53.0
876.2,67.0
876.27,59.0
876.33,54.0
876.39,60.0
876.46,50.0
876.52,51.0
876.58,68.0
876.64,75.0
876.71,58.0
876.77,57.0
876.83,44.0
876.9,64.0
876.96,61.0
877.02,72.0
877.09,81.0
877.15,69.0
877.21,59.0
877.27,73.0
877.34,69.0
877.4,65.0
877.46,67.0
877.53,72.0
877.59,82.0
877.65,69.0
877.72,74.0
877.78,100.0
877.84,96.0
877.9,96.0
877.97,80.0
878.03,86.0
878.09,65.0
878.16,56.0
878.22,72.0
878.28,56.0
878.35,56.0
878.41,52.0
878.47,64.0
878.53,67.0
878.6,60.0
878.66,54.0
878.72,52.0
878.79,66.0
878.85,73.0
878.91,54.0
878.98,45.0
879.04,58.0
879.1,57.0
879.16,64.0
879.23,51.0
879.29,61.0
879.35,70.0
879.42,69.0
879.48,45.0
879.54,48.0
879.61,62.0
879.67,61.0
879.73,59.0
879.79,63.0
879.86,40.0
879.92,37.0
879.98,47.0
880.05,54.0
880.11,56.0
880.17,47.0
880.24,54.0
880.3,50.0
880.36,53.0
880.42,49.0
880.49,30.0
880.55,40.0
880.61,43.0
880.68,51.0
880.74,31.0
880.8,44.0
880.87,65.0
880.93,54.0
880.99,68.0
881.05,62.0
881.12,64.0
881.18,61.0
881.24,45.0
881.31,46.0
881.37,49.0
881.43,42.0
881.5,43.0
881.56,50.0
881.62,46.0
881.68,34.0
881.75,45.0
881.81,39.0
881.87,51.0
881.94,49.0
882.0,43.0
882.06,39.0
882.13,36.0
882.19,38.0
882.25,28.0
882.31,32.0
882.38,48.0
882.44,44.0
882.5,50.0
882.57,51.0
882.63,44.0
882.69,41.0
882.76,40.0
882.82,43.0
882.88,54.0
882.94,50.0
883.01,45.0
883.07,52.0
883.13,55.0
883.2,52.0
883.26,61.0
883.32,60.0
883.39,63.0
883.45,71.0
883.51,65.0
883.57,65.0
883.64,66.0
883.7,61.0
883.76,65.0
883.83,83.0
883.89,86.0
883.95,94.0
884.02,102.0
884.08,101.0
884.14,97.0
884.2,87.0
884.27,106.0
884.33,93.0
884.39,105.0
884.46,116.0
884.52,119.0
884.58,135.0
884.65,116.0
884.71,110.0
884.77,105.0
884.83,98.0
884.9,94.0
884.96,116.0
885.02,135.0
885.09,91.0
885.15,113.0
885.21,124.0
885.28,108.0
885.34,120.0
885.4,97.0
885.46,118.0
885.53,124.0
885.59,115.0
885.65,139.0
885.72,149.0
885.78,135.0
885.84,149.0
885.91,127.0
885.97,122.0
886.03,139.0
886.09,131.0
886.16,141.0
886.22,133.0
886.28,153.0
886.35,145.0
886.41,154.0
886.47,130.0
886.54,131.0
886.6,138.0
886.66,142.0
886.72,158.0
886.79,160.0
886.85,142.0
886.91,146.0
886.98,163.0
887.04,144.0
887.1,153.0
887.17,142.0
887.23,119.0
887.29,142.0
887.35,136.0
887.42,129.0
887.48,132.0
887.54,123.0
887.61,141.0
887.67,151.0
887.73,155.0
887.8,136.0
887.86,127.0
887.92,136.0
887.98,129.0
888.05,138.0
888.11,120.0
888.17,113.0
888.24,136.0
888.3,107.0
888.36,95.0
888.43,121.0
888.49,102.0
888.55,116.0
888.61,110.0
888.68,106.0
888.74,102.0
888.8,108.0
888.87,112.0
888.93,105.0
888.99,103.0
889.06,90.0
889.12,97.0
889.18,86.0
889.24,119.0
889.31,94.0
889.37,121.0
889.43,118.0
889.5,116.0
889.56,118.0
889.62,94.0
889.69,105.0
889.75,108.0
889.81,116.0
889.87,110.0
889.94,106.0
890.0,117.0
890.06,93.0
890.13,112.0
890.19,107.0
890.25,115.0
890.32,141.0
890.38,126.0
890.44,102.0
890.5,112.0
890.57,106.0
890.63,120.0
890.69,128.0
890.76,112.0
890.82,112.0
890.88,129.0
890.95,144.0
891.01,152.0
891.07,138.0
891.13,129.0
891.2,133.0
891.26,144.0
891.32,145.0
891.39,153.0
891.45,160.0
891.51,130.0
891.58,134.0
891.64,126.0
891.7,134.0
891.76,120.0
891.83,129.0
891.89,136.0
891.95,142.0
892.02,124.0
892.08,134.0
892.14,134.0
892.21,165.0
892.27,142.0
892.33,152.0
892.39,133.0
892.46,160.0
892.52,159.0
892.58,149.0
892.65,168.0
892.71,166.0
892.77,161.0
892.84,127.0
892.9,145.0
892.96,142.0
893.02,125.0
893.09,128.0
893.15,134.0
893.21,127.0
893.28,117.0
893.34,111.0
893.4,127.0
893.47,116.0
893.53,122.0
893.59,123.0
893.65,116.0
893.72,123.0
893.78,128.0
893.84,104.0
893.91,100.0
893.97,97.0
894.03,94.0
894.1,98.0
894.16,95.0
894.22,118.0
894.28,126.0
894.35,142.0
894.41,111.0
894.47,126.0
894.54,132.0
894.6,128.0
894.66,130.0
894.73,143.0
894.79,131.0
894.85,127.0
894.91,136.0
894.98,126.0
895.04,116.0
895.1,115.0
895.17,123.0
895.23,140.0
895.29,152.0
895.36,146.0
895.42,150.0
895.48,142.0
895.54,159.0
895.61,145.0
895.67,145.0
895.73,132.0
895.8,141.0
895.86,155.0
895.92,164.0
895.99,158.0
896.05,147.0
896.11,172.0
896.17,171.0
896.24,158.0
896.3,147.0
896.36,150.0
896.43,147.0
896.49,147.0
896.55,142.0
896.62,143.0
896.68,155.0
896.74,151.0
896.8,147.0
896.87,156.0
896.93,155.0
896.99,155.0
897.06,123.0
897.12,129.0
897.18,102.0
897.25,105.0
897.31,101.0
897.37,99.0
897.43,105.0
897.5,98.0
897.56,86.0
897.62,98.0
897.69,100.0
897.75,91.0
897.81,93.0
897.88,100.0
897.94,100.0
898.0,116.0
898.06,115.0
898.13,105.0
898.19,130.0
898.25,126.0
898.32,134.0
898.38,132.0
898.44,120.0
898.51,102.0
898.57,122.0
898.63,150.0
898.69,119.0
898.76,127.0
898.82,135.0
898.88,135.0
898.95,132.0
899.01,123.0
899.07,128.0
899.14,124.0
899.2,118.0
899.26,116.0
899.32,122.0
899.39,131.0
899.45,115.0
899.51,128.0
899.58,126.0
899.64,128.0
899.7,149.0
899.77,134.0
899.83,149.0
899.89,142.0
899.95,144.0
900.02,162.0
900.08,149.0
900.14,144.0
900.21,139.0
900.27,119.0
900.33,118.0
900.4,127.0
900.46,131.0
900.52,120.0
900.58,117.0
900.65,141.0
900.71,136.0
900.77,122.0
900.84,136.0
900.9,138.0
900.96,115.0
901.03,119.0
901.09,115.0
901.15,125.0
901.21,136.0
901.28,131.0
901.34,128.0
901.4,131.0
901.47,137.0
901.53,131.0
901.59,135.0
901.66,125.0
901.72,130.0
901.78,128.0
901.84,121.0
901.91,141.0
901.97,143.0
902.03,149.0
902.1,142.0
902.16,128.0
902.22,149.0
902.29,141.0
902.35,163.0
902.41,160.0
902.47,166.0
902.54,155.0
902.6,158.0
902.66,163.0
902.73,159.0
902.79,160.0
902.85,146.0
902.92,159.0
902.98,158.0
903.04,144.0
903.1,140.0
903.17,140.0
903.23,142.0
903.29,127.0
903.36,134.0
903.42,136.0
903.48,128.0
903.55,131.0
903.61,116.0
903.67,128.0
903.73,120.0
903.8,116.0
903.86,112.0
903.92,100.0
903.99,127.0
904.05,109.0
904.11,99.0
904.18,107.0
904.24,73.0
904.3,89.0
904.36,71.0
904.43,82.0
904.49,97.0
904.55,89.0
904.62,104.0
904.68,106.0
904.74,102.0
904.81,95.0
904.87,98.0
904.93,105.0
904.99,104.0
905.06,94.0
905.12,105.0
905.18,96.0
905.25,58.0
905.31,72.0
905.37,85.0
905.44,65.0
905.5,61.0
905.56,72.0
905.62,56.0
905.69,47.0
905.75,44.0
905.81,39.0
905.88,29.0
905.94,43.0
906.0,46.0
906.07,44.0
906.13,49.0
906.19,54.0
906.25,54.0
906.32,26.0
906.38,35.0
906.44,51.0
906.51,28.0
906.57,24.0
906.63,42.0
906.7,47.0
906.76,49.0
906.82,51.0
906.88,56.0
906.95,67.0
907.01,51.0
907.07,45.0
907.14,58.0
907.2,53.0
907.26,75.0
907.33,71.0
907.39,69.0
907.45,64.0
907.51,68.0
907.58,78.0
907.64,87.0
907.7,95.0
907.77,68.0
907.83,92.0
907.89,89.0
907.96,84.0
908.02,79.0
908.08,64.0
908.14,73.0
908.21,83.0
908.27,92.0
908.33,95.0
908.4,76.0
908.46,84.0
908.52,64.0
908.59,63.0
908.65,87.0
908.71,64.0
908.77,65.0
908.84,81.0
908.9,71.0
908.96,65.0
909.03,79.0
909.09,71.0
909.15,83.0
909.22,75.0
909.28,66.0
909.34,54.0
909.4,30.0
909.47,55.0
909.53,71.0
909.59,71.0
909.66,72.0
909.72,54.0
909.78,46.0
909.85,56.0
909.91,41.0
909.97,62.0
910.03,69.0
910.1,57.0
910.16,48.0
910.22,64.0
910.29,68.0
910.35,64.0
910.41,81.0
910.48,78.0
910.54,81.0
910.6,84.0
910.66,81.0
910.73,64.0
910.79,55.0
910.85,56.0
910.92,54.0
910.98,70.0
911.04,89.0
911.11,79.0
911.17,79.0
911.23,65.0
911.29,74.0
911.36,75.0
911.42,62.0
911.48,76.0
911.55,82.0
911.61,71.0
911.67,66.0
911.74,65.0
911.8,62.0
911.86,62.0
911.92,62.0
911.99,84.0
912.05,92.0
912.11,70.0
912.18,96.0
912.24,83.0
912.3,75.0
912.37,87.0
912.43,88.0
912.49,70.0
912.55,57.0
912.62,84.0
912.68,57.0
912.74,76.0
912.81,89.0
912.87,72.0
912.93,66.0
913.0,73.0
913.06,63.0
913.12,42.0
913.18,57.0
913.25,86.0
913.31,54.0
913.37,54.0
913.44,71.0
913.5,75.0
913.56,67.0
913.63,67.0
913.69,74.0
913.75,76.0
913.81,90.0
913.88,87.0
913.94,89.0
914.0,85.0
914.07,78.0
914.13,89.0
914.19,73.0
914.26,87.0
914.32,79.0
914.38,91.0
914.44,92.0
914.51,81.0
914.57,88.0
914.63,69.0
914.7,80.0
914.76,65.0
914.82,46.0
914.89,61.0
914.95,65.0
915.01,50.0
915.07,61.0
915.14,64.0
915.2,61.0
915.26,50.0
915.33,51.0
915.39,54.0
915.45,81.0
915.52,103.0
915.58,75.0
915.64,88.0
915.7,76.0
915.77,92.0
915.83,83.0
915.89,88.0
915.96,97.0
916.02,94.0
916.08,108.0
916.15,86.0
916.21,92.0
916.27,91.0
916.33,104.0
916.4,79.0
916.46,78.0
916.52,86.0
916.59,82.0
916.65,87.0
916.71,97.0
916.78,116.0
916.84,112.0
916.9,97.0
916.96,100.0
917.03,109.0
917.09,93.0
917.15,95.0
917.22,102.0
917.28,102.0
917.34,120.0
917.41,130.0
917.47,109.0
917.53,108.0
917.59,131.0
917.66,131.0
917.72,139.0
917.78,128.0
917.85,124.0
917.91,124.0
917.97,135.0
918.04,143.0
918.1,136.0
918.16,128.0
918.22,122.0
918.29,145.0
918.35,131.0
918.41,128.0
918.48,134.0
918.54,127.0
918.6,128.0
918.67,123.0
918.73,110.0
918.79,112.0
918.85,95.0
918.92,122.0
918.98,119.0
919.04,102.0
919.11,122.0
919.17,123.0
919.23,109.0
919.3,109.0
919.36,110.0
919.42,97.0
919.48,106.0
919.55,116.0
919.61,102.0
919.67,133.0
919.74,123.0
919.8,127.0
919.86,142.0
919.93,121.0
919.99,142.0
920.05,105.0
920.11,111.0
920.18,113.0
920.24,116.0
920.3,101.0
920.37,86.0
920.43,108.0
920.49,98.0
920.56,99.0
920.62,126.0
920.68,124.0
920.74,119.0
920.81,125.0
920.87,120.0
920.93,141.0
921.0,109.0
921.06,108.0
921.12,108.0
921.19,104.0
921.25,105.0
921.31,113.0
921.37,106.0
921.44,98.0
921.5,97.0
921.56,104.0
921.63,94.0
921.69,109.0
921.75,105.0
921.82,87.0
921.88,90.0
921.94,95.0
922.0,108.0
922.07,112.0
922.13,105.0
922.19,88.0
922.26,86.0
922.32,89.0
922.38,99.0
922.45,116.0
922.51,84.0
922.57,89.0
922.63,84.0
922.7,77.0
922.76,86.0
922.82,83.0
922.89,76.0
922.95,81.0
923.01,91.0
923.08,94.0
923.14,83.0
923.2,94.0
923.26,76.0
923.33,77.0
923.39,66.0
923.45,73.0
923.52,71.0
923.58,68.0
923.64,83.0
923.71,81.0
923.77,84.0
923.83,78.0
923.89,78.0
923.96,86.0
924.02,84.0
924.08,83.0
924.15,76.0
924.21,69.0
924.27,87.0
924.34,72.0
924.4,77.0
924.46,71.0
924.52,82.0
924.59,95.0
924.65,94.0
924.71,89.0
924.78,79.0
924.84,87.0
924.9,81.0
924.97,82.0
925.03,80.0
925.09,93.0
925.15,101.0
925.22,83.0
925.28,101.0
925.34,97.0
925.41,96.0
925.47,115.0
925.53,109.0
925.6,106.0
925.66,106.0
925.72,101.0
925.78,101.0
925.85,109.0
925.91,114.0
925.97,116.0
926.04,109.0
926.1,96.0
926.16,105.0
926.23,105.0
926.29,100.0
926.35,89.0
926.41,82.0
926.48,88.0
926.54,113.0
926.6,100.0
926.67,90.0
926.73,92.0
926.79,70.0
926.86,57.0
926.92,68.0
926.98,70.0
927.04,76.0
927.11,94.0
927.17,72.0
927.23,76.0
927.3,77.0
927.36,61.0
927.42,75.0
927.49,57.0
927.55,72.0
927.61,90.0
927.67,75.0
927.74,89.0
927.8,70.0
927.86,105.0
927.93,92.0
927.99,86.0
928.05,81.0
928.12,83.0
928.18,96.0
928.24,76.0
928.3,87.0
928.37,90.0
928.43,81.0
928.49,75.0
928.56,63.0
928.62,71.0
928.68,87.0
928.75,80.0
928.81,73.0
928.87,68.0
928.93,63.0
929.0,63.0
929.06,72.0
929.12,87.0
929.19,87.0
929.25,84.0
929.31,97.0
929.38,84.0
929.44,80.0
929.5,86.0
929.56,68.0
929.63,64.0
929.69,92.0
929.75,98.0
929.82,80.0
929.88,93.0
929.94,91.0
930.01,84.0
930.07,96.0
930.13,94.0
930.19,94.0
930.26,79.0
930.32,61.0
930.38,64.0
930.45,67.0
930.51,75.0
930.57,73.0
930.64,70.0
930.7,62.0
930.76,77.0
930.82,65.0
930.89,47.0
930.95,38.0
931.01,57.0
931.08,54.0
931.14,44.0
931.2,61.0
931.27,64.0
931.33,71.0
931.39,58.0
931.45,43.0
931.52,55.0
931.58,47.0
931.64,40.0
931.71,47.0
931.77,59.0
931.83,26.0
931.9,37.0
931.96,46.0
932.02,44.0
932.08,27.0
932.15,32.0
932.21,47.0
932.27,26.0
932.34,15.0
932.4,30.0
932.46,32.0
932.53,45.0
932.59,47.0
932.65,39.0
932.71,47.0
932.78,17.0
932.84,17.0
932.9,12.0
932.97,29.0
933.03,15.0
933.09,12.0
933.16,29.0
933.22,32.0
933.28,21.0
933.34,28.0
933.41,43.0
933.47,34.0
933.53,51.0
933.6,46.0
933.66,42.0
933.72,54.0
933.79,63.0
933.85,43.0
933.91,56.0
933.97,53.0
934.04,60.0
934.1,80.0
934.16,73.0
934.23,70.0
934.29,74.0
934.35,65.0
934.42,83.0
934.48,89.0
934.54,84.0
934.6,83.0
934.67,77.0
934.73,62.0
934.79,61.0
934.86,78.0
934.92,88.0
934.98,93.0
935.05,90.0
935.11,103.0
935.17,107.0
935.23,89.0
935.3,98.0
935.36,84.0
935.42,92.0
935.49,81.0
935.55,103.0
935.61,94.0
935.68,81.0
935.74,73.0
935.8,98.0
935.86,106.0
935.93,96.0
935.99,135.0
936.05,108.0
936.12,123.0
936.18,105.0
936.24,117.0
936.31,126.0
936.37,116.0
936.43,119.0
936.49,105.0
936.56,108.0
936.62,105.0
936.68,96.0
936.75,111.0
936.81,105.0
936.87,112.0
936.94,112.0
937.0,116.0
937.06,136.0
937.12,114.0
937.19,100.0
937.25,102.0
937.31,101.0
937.38,106.0
937.44,102.0
937.5,102.0
937.57,103.0
937.63,105.0
937.69,113.0
937.75,104.0
937.82,98.0
937.88,109.0
937.94,102.0
938.01,94.0
938.07,92.0
938.13,101.0
938.2,97.0
938.26,84.0
938.32,80.0
938.38,61.0
938.45,56.0
938.51,70.0
938.57,80.0
938.64,78.0
938.7,87.0
938.76,84.0
938.83,97.0
938.89,73.0
938.95,76.0
939.01,75.0
939.08,96.0
939.14,95.0
939.2,53.0
939.27,56.0
939.33,58.0
939.39,87.0
939.46,101.0
939.52,90.0
939.58,84.0
939.64,62.0
939.71,69.0
939.77,62.0
939.83,78.0
939.9,86.0
939.96,72.0
940.02,75.0
940.09,87.0
940.15,75.0
940.21,75.0
940.27,81.0
940.34,71.0
940.4,79.0
940.46,88.0
940.53,88.0
940.59,103.0
940.65,106.0
940.72,90.0
940.78,90.0
940.84,87.0
940.9,81.0
940.97,117.0
941.03,98.0
941.09,86.0
941.16,108.0
941.22,84.0
941.28,103.0
941.35,88.0
941.41,90.0
941.47,78.0
941.53,78.0
941.6,93.0
941.66,79.0
941.72,72.0
941.79,48.0
941.85,73.0
941.91,73.0
941.98,64.0
942.04,68.0
942.1,59.0
942.16,75.0
942.23,85.0
942.29,75.0
942.35,84.0
942.42,81.0
942.48,94.0
942.54,54.0
942.61,66.0
942.67,76.0
942.73,92.0
942.79,94.0
942.86,92.0
942.92,87.0
942.98,97.0
943.05,89.0
943.11,87.0
943.17,103.0
943.24,100.0
943.3,93.0
943.36,102.0
943.42,129.0
943.49,97.0
943.55,78.0
943.61,90.0
943.68,93.0
943.74,83.0
943.8,92.0
943.87,91.0
943.93,104.0
943.99,96.0
944.05,72.0
944.12,95.0
944.18,100.0
944.24,95.0
944.31,90.0
944.37,94.0
944.43,100.0
944.5,84.0
944.56,81.0
944.62,83.0
944.68,89.0
944.75,93.0
944.81,86.0
944.87,96.0
944.94,120.0
945.0,136.0
945.06,101.0
945.13,119.0
945.19,117.0
945.25,98.0
945.31,108.0
945.38,108.0
945.44,124.0
945.5,116.0
945.57,88.0
945.63,93.0
945.69,83.0
945.76,98.0
945.82,94.0
945.88,67.0
945.94,72.0
946.01,95.0
946.07,100.0
946.13,88.0
946.2,104.0
946.26,130.0
946.32,117.0
946.39,110.0
946.45,106.0
946.51,117.0
946.57,129.0
946.64,118.0
946.7,132.0
946.76,108.0
946.83,114.0
946.89,116.0
946.95,116.0
947.02,132.0
947.08,127.0
947.14,141.0
947.2,133.0
947.27,129.0
947.33,157.0
947.39,135.0
947.46,137.0
947.52,128.0
947.58,136.0
947.65,123.0
947.71,127.0
947.77,136.0
947.83,147.0
947.9,139.0
947.96,135.0
948.02,142.0
948.09,141.0
948.15,149.0
948.21,138.0
948.28,128.0
948.34,110.0
948.4,122.0
948.46,135.0
948.53,116.0
948.59,110.0
948.65,106.0
948.72,121.0
948.78,113.0
948.84,115.0
948.91,98.0
948.97,101.0
949.03,109.0
949.09,116.0
949.16,110.0
949.22,137.0
949.28,116.0
949.35,131.0
949.41,146.0
949.47,114.0
949.54,119.0
949.6,117.0
949.66,114.0
949.72,102.0
949.79,103.0
949.85,114.0
949.91,116.0
949.98,91.0
950.04,103.0
950.1,141.0
950.17,132.0
950.23,140.0
950.29,138.0
950.35,145.0
950.42,145.0
950.48,137.0
950.54,140.0
950.61,139.0
950.67,135.0
950.73,150.0
950.8,140.0
950.86,134.0
950.92,155.0
950.98,162.0
951.05,145.0
951.11,151.0
951.17,166.0
951.24,165.0
951.3,166.0
951.36,174.0
951.43,161.0
951.49,166.0
951.55,153.0
951.61,149.0
951.68,161.0
951.74,158.0
951.8,171.0
951.87,189.0
951.93,179.0
951.99,164.0
952.06,171.0
952.12,173.0
952.18,174.0
952.24,171.0
952.31,166.0
952.37,171.0
952.43,175.0
952.5,196.0
952.56,184.0
952.62,174.0
952.69,187.0
952.75,169.0
952.81,152.0
952.87,144.0
952.94,174.0
953.0,179.0
953.06,179.0
953.13,166.0
953.19,170.0
953.25,165.0
953.32,152.0
953.38,160.0
953.44,186.0
953.5,164.0
953.57,161.0
953.63,170.0
953.69,181.0
953.76,183.0
953.82,173.0
953.88,168.0
953.95,164.0
954.01,170.0
954.07,166.0
954.13,156.0
954.2,166.0
954.26,156.0
954.32,181.0
954.39,187.0
954.45,176.0
954.51,200.0
954.58,168.0
954.64,171.0
954.7,166.0
954.76,132.0
954.83,167.0
954.89,168.0
954.95,158.0
955.02,167.0
955.08,161.0
955.14,159.0
955.21,155.0
955.27,165.0
955.33,140.0
955.39,131.0
955.46,152.0
955.52,120.0
955.58,116.0
955.65,120.0
955.71,116.0
955.77,141.0
955.84,123.0
955.9,120.0
955.96,109.0
956.02,104.0
956.09,109.0
956.15,96.0
956.21,98.0
956.28,96.0
956.34,87.0
956.4,90.0
956.47,91.0
956.53,95.0
956.59,90.0
956.65,87.0
956.72,76.0
956.78,82.0
956.84,94.0
956.91,90.0
956.97,82.0
957.03,100.0
957.1,90.0
957.16,84.0
957.22,95.0
957.28,98.0
957.35,91.0
957.41,103.0
957.47,102.0
957.54,105.0
957.6,110.0
957.66,114.0
957.73,82.0
957.79,102.0
957.85,92.0
957.91,93.0
957.98,96.0
958.04,109.0
958.1,133.0
958.17,114.0
958.23,115.0
958.29,112.0
958.36,119.0
958.42,105.0
958.48,109.0
958.54,96.0
958.61,105.0
958.67,102.0
958.73,109.0
958.8,111.0
958.86,115.0
958.92,110.0
958.99,105.0
959.05,114.0
959.11,122.0
959.17,122.0
959.24,116.0
959.3,116.0
959.36,110.0
959.43,118.0
959.49,114.0
959.55,120.0
959.62,101.0
959.68,98.0
959.74,101.0
959.8,94.0
959.87,101.0
959.93,69.0
959.99,90.0
960.06,94.0
960.12,109.0
960.18,85.0
960.25,87.0
960.31,84.0
960.37,97.0
960.43,96.0
960.5,106.0
960.56,106.0
960.62,89.0
960.69,81.0
960.75,91.0
960.81,91.0
960.88,98.0
960.94,90.0
961.0,95.0
961.06,98.0
961.13,96.0
961.19,94.0
961.25,87.0
961.32,87.0
961.38,105.0
961.44,101.0
961.51,109.0
961.57,92.0
961.63,92.0
961.69,89.0
961.76,86.0
961.82,89.0
961.88,97.0
961.95,102.0
962.01,105.0
962.07,127.0
962.14,106.0
962.2,107.0
962.26,106.0
962.32,80.0
962.39,89.0
962.45,79.0
962.51,98.0
962.58,115.0
962.64,124.0
962.7,120.0
962.77,119.0
962.83,146.0
962.89,120.0
962.95,121.0
963.02,132.0
963.08,122.0
963.14,101.0
963.21,108.0
963.27,113.0
963.33,118.0
963.4,104.0
963.46,104.0
963.52,111.0
963.58,94.0
963.65,94.0
963.71,81.0
963.77,69.0
963.84,60.0
963.9,67.0
963.96,59.0
964.03,48.0
964.09,48.0
964.15,53.0
964.21,59.0
964.28,67.0
964.34,51.0
964.4,40.0
964.47,64.0
964.53,65.0
964.59,54.0
964.66,53.0
964.72,35.0
964.78,43.0
964.84,41.0
964.91,34.0
964.97,36.0
965.03,49.0
965.1,54.0
965.16,21.0
965.22,36.0
965.29,42.0
965.35,51.0
965.41,59.0
965.47,64.0
965.54,79.0
965.6,72.0
965.66,85.0
965.73,86.0
965.79,88.0
965.85,60.0
965.92,45.0
965.98,62.0
966.04,79.0
966.1,77.0
966.17,62.0
966.23,47.0
966.29,61.0
966.36,70.0
966.42,57.0
966.48,84.0
966.55,85.0
966.61,61.0
966.67,62.0
966.73,78.0
966.8,49.0
966.86,67.0
966.92,62.0
966.99,59.0
967.05,59.0
967.11,65.0
967.18,81.0
967.24,83.0
967.3,61.0
967.36,68.0
967.43,90.0
967.49,89.0
967.55,81.0
967.62,78.0
967.68,86.0
967.74,111.0
967.81,104.0
967.87,106.0
967.93,100.0
967.99,100.0
968.06,90.0
968.12,83.0
968.18,84.0
968.25,91.0
968.31,88.0
968.37,90.0
968.44,76.0
968.5,92.0
968.56,91.0
968.62,80.0
968.69,72.0
968.75,86.0
968.81,90.0
968.88,89.0
968.94,113.0
969.0,106.0
969.07,93.0
969.13,83.0
969.19,103.0
969.25,87.0
969.32,83.0
969.38,106.0
969.44,112.0
969.51,119.0
969.57,135.0
969.63,123.0
969.7,112.0
969.76,112.0
969.82,112.0
969.88,122.0
969.95,120.0
970.01,117.0
970.07,120.0
970.14,140.0
970.2,122.0
970.26,132.0
970.33,122.0
970.39,112.0
970.45,114.0
970.51,117.0
970.58,92.0
970.64,99.0
970.7,118.0
970.77,108.0
970.83,97.0
970.89,94.0
970.96,101.0
971.02,87.0
971.08,103.0
971.14,112.0
971.21,95.0
971.27,101.0
971.33,96.0
971.4,97.0
971.46,98.0
971.52,98.0
971.59,87.0
971.65,88.0
971.71,79.0
971.77,69.0
971.84,54.0
971.9,79.0
971.96,75.0
972.03,72.0
972.09,72.0
972.15,77.0
972.22,87.0
972.28,73.0
972.34,87.0
972.4,76.0
972.47,81.0
972.53,61.0
972.59,69.0
972.66,80.0
972.72,78.0
972.78,92.0
972.85,78.0
972.91,73.0
972.97,89.0
973.03,70.0
973.1,64.0
973.16,62.0
973.22,59.0
973.29,73.0
973.35,80.0
973.41,53.0
973.48,53.0
973.54,65.0
973.6,51.0
973.66,56.0
973.73,47.0
973.79,48.0
973.85,68.0
973.92,65.0
973.98,81.0
974.04,72.0
974.11,66.0
974.17,74.0
974.23,58.0
974.29,74.0
974.36,62.0
974.42,73.0
974.48,56.0
974.55,55.0
974.61,79.0
974.67,81.0
974.74,75.0
974.8,84.0
974.86,83.0
974.92,92.0
974.99,101.0
975.05,101.0
975.11,84.0
975.18,100.0
975.24,92.0
975.3,75.0
975.37,81.0
975.43,98.0
975.49,91.0
975.55,95.0
975.62,92.0
975.68,87.0
975.74,81.0
975.81,86.0
975.87,85.0
975.93,75.0
976.0,74.0
976.06,65.0
976.12,69.0
976.18,76.0
976.25,57.0
976.31,70.0
976.37,70.0
976.44,70.0
976.5,86.0
976.56,84.0
976.63,92.0
976.69,94.0
976.75,95.0
976.81,77.0
976.88,80.0
976.94,81.0
977.0,89.0
977.07,108.0
977.13,117.0
977.19,108.0
977.26,113.0
977.32,108.0
977.38,96.0
977.44,129.0
977.51,106.0
977.57,122.0
977.63,119.0
977.7,120.0
977.76,136.0
977.82,121.0
977.89,116.0
977.95,127.0
978.01,117.0
978.07,119.0
978.14,112.0
978.2,126.0
978.26,117.0
978.33,117.0
978.39,121.0
978.45,99.0
978.52,122.0
978.58,112.0
978.64,102.0
978.7,93.0
978.77,94.0
978.83,84.0
978.89,79.0
978.96,76.0
979.02,92.0
979.08,116.0
979.15,124.0
979.21,109.0
979.27,96.0
979.33,89.0
979.4,81.0
979.46,83.0
979.52,95.0
979.59,97.0
979.65,84.0
979.71,104.0
979.78,93.0
979.84,101.0
979.9,98.0
979.96,92.0
980.03,88.0
980.09,74.0
980.15,92.0
980.22,104.0
980.28,107.0
980.34,88.0
980.41,105.0
980.47,88.0
980.53,77.0
980.59,93.0
980.66,81.0
980.72,95.0
980.78,96.0
980.85,101.0
980.91,103.0
980.97,92.0
981.04,117.0
981.1,124.0
981.16,110.0
981.22,94.0
981.29,81.0
981.35,89.0
981.41,104.0
981.48,76.0
981.54,77.0
981.6,86.0
981.67,87.0
981.73,67.0
981.79,57.0
981.85,49.0
981.92,38.0
981.98,33.0
982.04,34.0
982.11,34.0
982.17,45.0
982.23,57.0
982.3,43.0
982.36,52.0
982.42,52.0
982.48,48.0
982.55,53.0
982.61,33.0
982.67,53.0
982.74,38.0
982.8,41.0
982.86,65.0
982.93,59.0
982.99,60.0
983.05,43.0
983.11,45.0
983.18,42.0
983.24,41.0
983.3,53.0
983.37,54.0
983.43,65.0
983.49,78.0
983.56,73.0
983.62,73.0
983.68,75.0
983.74,68.0
983.81,68.0
983.87,75.0
983.93,69.0
984.0,81.0
984.06,94.0
984.12,104.0
984.19,87.0
984.25,98.0
984.31,115.0
984.37,113.0
984.44,84.0
984.5,95.0
984.56,104.0
984.63,117.0
984.69,107.0
984.75,102.0
984.82,96.0
984.88,73.0
984.94,101.0
985.0,98.0
985.07,88.0
985.13,119.0
985.19,122.0
985.26,115.0
985.32,117.0
985.38,124.0
985.45,126.0
985.51,123.0
985.57,121.0
985.63,119.0
985.7,106.0
985.76,101.0
985.82,124.0
985.89,119.0
985.95,124.0
986.01,130.0
986.08,139.0
986.14,140.0
986.2,135.0
986.26,119.0
986.33,123.0
986.39,139.0
986.45,126.0
986.52,148.0
986.58,163.0
986.64,142.0
986.71,123.0
986.77,131.0
986.83,131.0
986.89,164.0
986.96,169.0
987.02,179.0
987.08,170.0
987.15,160.0
987.21,168.0
987.27,157.0
987.34,162.0
987.4,146.0
987.46,134.0
987.52,141.0
987.59,120.0
987.65,144.0
987.71,149.0
987.78,153.0
987.84,150.0
987.9,144.0
987.97,141.0
988.03,135.0
988.09,127.0
988.15,130.0
988.22,139.0
988.28,126.0
988.34,110.0
988.41,125.0
988.47,127.0
988.53,134.0
988.6,145.0
988.66,131.0
988.72,113.0
988.78,131.0
988.85,130.0
988.91,129.0
988.97,129.0
989.04,111.0
989.1,113.0
989.16,109.0
989.23,103.0
989.29,106.0
989.35,101.0
989.41,116.0
989.48,115.0
989.54,109.0
989.6,116.0
989.67,105.0
989.73,90.0
989.79,112.0
989.86,108.0
989.92,101.0
989.98,91.0
990.04,60.0
990.11,63.0
990.17,85.0
990.23,76.0
990.3,87.0
990.36,84.0
990.42,103.0
990.49,94.0
990.55,108.0
990.61,89.0
990.67,63.0
990.74,78.0
990.8,89.0
990.86,94.0
990.93,90.0
990.99,76.0
991.05,83.0
991.12,95.0
991.18,101.0
991.24,102.0
991.3,109.0
991.37,108.0
991.43,82.0
991.49,97.0
991.56,118.0
991.62,116.0
991.68,90.0
991.75,123.0
991.81,136.0
991.87,128.0
991.93,137.0
992.0,135.0
992.06,123.0
992.12,119.0
992.19,119.0
992.25,113.0
992.31,111.0
992.38,111.0
992.44,116.0
992.5,98.0
992.56,91.0
992.63,95.0
992.69,94.0
992.75,98.0
992.82,100.0
992.88,98.0
992.94,109.0
993.01,92.0
993.07,94.0
993.13,105.0
993.19,116.0
993.26,109.0
993.32,111.0
993.38,117.0
993.45,120.0
993.51,115.0
993.57,103.0
993.64,117.0
993.7,109.0
993.76,141.0
993.82,153.0
993.89,144.0
993.95,123.0
994.01,127.0
994.08,139.0
994.14,140.0
994.2,124.0
994.27,136.0
994.33,138.0
994.39,136.0
994.45,146.0
994.52,134.0
994.58,162.0
994.64,144.0
994.71,141.0
994.77,169.0
994.83,135.0
994.9,154.0
994.96,136.0
995.02,139.0
995.08,134.0
995.15,122.0
995.21,142.0
995.27,141.0
995.34,110.0
995.4,106.0
995.46,131.0
995.53,155.0
995.59,153.0
995.65,147.0
995.71,149.0
995.78,134.0
995.84,129.0
995.9,146.0
995.97,143.0
996.03,120.0
996.09,117.0
996.16,116.0
996.22,122.0
996.28,126.0
996.34,108.0
996.41,115.0
996.47,122.0
996.53,116.0
996.6,99.0
996.66,121.0
996.72,125.0
996.79,101.0
996.85,124.0
996.91,101.0
996.97,109.0
997.04,97.0
997.1,84.0
997.16,98.0
997.23,103.0
997.29,102.0
997.35,113.0
997.42,83.0
997.48,82.0
997.54,91.0
997.6,90.0
997.67,95.0
997.73,94.0
997.79,95.0
997.86,98.0
997.92,96.0
997.98,99.0
998.05,94.0
998.11,105.0
998.17,102.0
998.23,99.0
998.3,89.0
998.36,87.0
998.42,86.0
998.49,76.0
998.55,91.0
998.61,75.0
998.68,63.0
998.74,72.0
998.8,66.0
998.86,64.0
998.93,64.0
998.99,43.0
999.05,66.0
999.12,60.0
999.18,49.0
999.24,62.0
999.31,74.0
999.37,69.0
999.43,75.0
999.49,75.0
999.56,57.0
999.62,52.0
999.68,71.0
999.75,72.0
999.81,90.0
999.87,75.0
