timestamp,intensity
0,-203.0
0.06,-219.0
0.13,-223.0
0.19,-215.0
0.25,-220.0
0.32,-205.0
0.38,-198.0
0.44,-204.0
0.5,-192.0
0.57,-189.0
0.63,-195.0
0.69,-203.0
0.76,-208.0
0.82,-204.0
0.88,-200.0
0.94,-197.0
1.01,-189.0
1.07,-190.0
1.13,-172.0
1.2,-177.0
1.26,-195.0
1.32,-187.0
1.39,-201.0
1.45,-188.0
1.51,-199.0
1.57,-206.0
1.64,-232.0
1.7,-236.0
1.76,-221.0
1.83,-209.0
1.89,-220.0
1.95,-208.0
2.02,-201.0
2.08,-214.0
2.14,-226.0
2.2,-221.0
2.27,-221.0
2.33,-209.0
2.39,-191.0
2.46,-201.0
2.52,-187.0
2.58,-180.0
2.65,-190.0
2.71,-168.0
2.77,-175.0
2.84,-166.0
2.9,-163.0
2.96,-169.0
3.02,-166.0
3.09,-171.0
3.15,-165.0
3.21,-163.0
3.28,-161.0
3.34,-163.0
3.4,-168.0
3.47,-167.0
3.53,-175.0
3.59,-172.0
3.65,-185.0
3.72,-209.0
3.78,-201.0
3.84,-187.0
3.91,-199.0
3.97,-193.0
4.03,-183.0
4.1,-183.0
4.16,-198.0
4.22,-190.0
4.28,-189.0
4.35,-176.0
4.41,-195.0
4.47,-197.0
4.54,-178.0
4.6,-184.0
4.66,-186.0
4.73,-192.0
4.79,-193.0
4.85,-198.0
4.91,-188.0
4.98,-186.0
5.04,-171.0
5.1,-183.0
5.17,-194.0
5.23,-182.0
5.29,-188.0
5.35,-178.0
5.42,-213.0
5.48,-197.0
5.54,-203.0
5.61,-214.0
5.67,-235.0
5.73,-212.0
5.8,-204.0
5.86,-212.0
5.92,-226.0
5.98,-232.0
6.05,-227.0
6.11,-237.0
6.17,-244.0
6.24,-216.0
6.3,-220.0
6.36,-247.0
6.43,-227.0
6.49,-231.0
6.55,-234.0
6.61,-246.0
6.68,-245.0
6.74,-233.0
6.8,-244.0
6.87,-234.0
6.93,-253.0
6.99,-249.0
7.06,-244.0
7.12,-244.0
7.18,-245.0
7.24,-218.0
7.31,-245.0
7.37,-243.0
7.43,-253.0
7.5,-250.0
7.56,-244.0
7.62,-251.0
7.69,-260.0
7.75,-253.0
7.81,-249.0
7.87,-251.0
7.94,-253.0
8.0,-276.0
8.06,-253.0
8.13,-294.0
8.19,-276.0
8.25,-272.0
8.32,-258.0
8.38,-263.0
8.44,-249.0
8.5,-235.0
8.57,-256.0
8.63,-262.0
8.69,-275.0
8.76,-268.0
8.82,-258.0
8.88,-265.0
8.95,-255.0
9.01,-235.0
9.07,-232.0
9.13,-241.0
9.2,-224.0
9.26,-233.0
9.32,-234.0
9.39,-241.0
9.45,-237.0
9.51,-225.0
9.58,-237.0
9.64,-248.0
9.7,-255.0
9.77,-242.0
9.83,-258.0
9.89,-255.0
9.95,-239.0
10.02,-233.0
10.08,-225.0
10.14,-226.0
10.21,-235.0
10.27,-222.0
10.33,-231.0
10.4,-239.0
10.46,-228.0
10.52,-231.0
10.58,-233.0
10.65,-252.0
10.71,-234.0
10.77,-243.0
10.84,-243.0
10.9,-234.0
10.96,-246.0
11.03,-237.0
11.09,-260.0
11.15,-280.0
11.21,-255.0
11.28,-246.0
11.34,-241.0
11.4,-223.0
11.47,-237.0
11.53,-247.0
11.59,-250.0
11.66,-225.0
11.72,-252.0
11.78,-253.0
11.84,-252.0
11.91,-261.0
11.97,-254.0
12.03,-246.0
12.1,-235.0
12.16,-233.0
12.22,-223.0
12.29,-238.0
12.35,-247.0
12.41,-220.0
12.47,-218.0
12.54,-227.0
12.6,-222.0
12.66,-255.0
12.73,-261.0
12.79,-272.0
12.85,-251.0
12.92,-252.0
12.98,-268.0
13.04,-244.0
13.1,-252.0
13.17,-237.0
13.23,-243.0
13.29,-248.0
13.36,-253.0
13.42,-243.0
13.48,-244.0
13.55,-243.0
13.61,-228.0
13.67,-232.0
13.73,-222.0
13.8,-246.0
13.86,-234.0
13.92,-210.0
13.99,-210.0
14.05,-227.0
14.11,-202.0
14.18,-205.0
14.24,-200.0
14.3,-195.0
14.36,-196.0
14.43,-172.0
14.49,-202.0
14.55,-217.0
14.62,-204.0
14.68,-196.0
14.74,-185.0
14.81,-189.0
14.87,-191.0
14.93,-187.0
14.99,-206.0
15.06,-192.0
15.12,-183.0
15.18,-172.0
15.25,-172.0
15.31,-167.0
15.37,-170.0
15.44,-168.0
15.5,-194.0
15.56,-193.0
15.62,-181.0
15.69,-183.0
15.75,-196.0
15.81,-168.0
15.88,-171.0
15.94,-174.0
16.0,-168.0
16.07,-196.0
16.13,-185.0
16.19,-190.0
16.25,-175.0
16.32,-180.0
16.38,-188.0
16.44,-183.0
16.51,-211.0
16.57,-183.0
16.63,-202.0
16.7,-188.0
16.76,-192.0
16.82,-192.0
16.88,-201.0
16.95,-195.0
17.01,-193.0
17.07,-198.0
17.14,-176.0
17.2,-185.0
17.26,-181.0
17.33,-178.0
17.39,-169.0
17.45,-156.0
17.51,-173.0
17.58,-177.0
17.64,-153.0
17.7,-163.0
17.77,-171.0
17.83,-163.0
17.89,-170.0
17.96,-147.0
18.02,-152.0
18.08,-168.0
18.14,-164.0
18.21,-177.0
18.27,-154.0
18.33,-158.0
18.4,-164.0
18.46,-180.0
18.52,-174.0
18.59,-164.0
18.65,-148.0
18.71,-151.0
18.77,-123.0
18.84,-122.0
18.9,-139.0
18.96,-122.0
19.03,-118.0
19.09,-128.0
19.15,-144.0
19.22,-123.0
19.28,-116.0
19.34,-126.0
19.4,-97.0
19.47,-117.0
19.53,-136.0
19.59,-130.0
19.66,-126.0
19.72,-128.0
19.78,-140.0
19.84,-131.0
19.91,-141.0
19.97,-126.0
20.03,-113.0
20.1,-121.0
20.16,-114.0
20.22,-120.0
20.29,-105.0
20.35,-121.0
20.41,-116.0
20.47,-101.0
20.54,-110.0
20.6,-107.0
20.66,-127.0
20.73,-132.0
20.79,-124.0
20.85,-143.0
20.92,-135.0
20.98,-127.0
21.04,-140.0
21.1,-135.0
21.17,-125.0
21.23,-124.0
21.29,-111.0
21.36,-134.0
21.42,-142.0
21.48,-141.0
21.55,-147.0
21.61,-143.0
21.67,-162.0
21.73,-183.0
21.8,-176.0
21.86,-171.0
21.92,-173.0
21.99,-157.0
22.05,-171.0
22.11,-175.0
22.18,-155.0
22.24,-183.0
22.3,-186.0
22.36,-182.0
22.43,-182.0
22.49,-154.0
22.55,-154.0
22.62,-155.0
22.68,-177.0
22.74,-170.0
22.81,-167.0
22.87,-172.0
22.93,-183.0
22.99,-188.0
23.06,-193.0
23.12,-188.0
23.18,-183.0
23.25,-213.0
23.31,-223.0
23.37,-208.0
23.44,-211.0
23.5,-205.0
23.56,-209.0
23.62,-203.0
23.69,-208.0
23.75,-222.0
23.81,-199.0
23.88,-207.0
23.94,-207.0
24.0,-212.0
24.07,-203.0
24.13,-195.0
24.19,-196.0
24.25,-209.0
24.32,-203.0
24.38,-214.0
24.44,-203.0
24.51,-203.0
24.57,-215.0
24.63,-191.0
24.7,-190.0
24.76,-215.0
24.82,-204.0
24.88,-186.0
24.95,-189.0
25.01,-193.0
25.07,-177.0
25.14,-199.0
25.2,-210.0
25.26,-210.0
25.33,-201.0
25.39,-203.0
25.45,-200.0
25.51,-194.0
25.58,-175.0
25.64,-173.0
25.7,-190.0
25.77,-188.0
25.83,-174.0
25.89,-185.0
25.96,-205.0
26.02,-190.0
26.08,-182.0
26.14,-185.0
26.21,-190.0
26.27,-189.0
26.33,-184.0
26.4,-188.0
26.46,-198.0
26.52,-196.0
26.59,-207.0
26.65,-191.0
26.71,-190.0
26.77,-203.0
26.84,-203.0
26.9,-191.0
26.96,-200.0
27.03,-214.0
27.09,-205.0
27.15,-196.0
27.22,-216.0
27.28,-195.0
27.34,-216.0
27.4,-197.0
27.47,-186.0
27.53,-196.0
27.59,-170.0
27.66,-178.0
27.72,-206.0
27.78,-202.0
27.85,-186.0
27.91,-216.0
27.97,-204.0
28.03,-198.0
28.1,-181.0
28.16,-214.0
28.22,-222.0
28.29,-186.0
28.35,-198.0
28.41,-210.0
28.48,-224.0
28.54,-214.0
28.6,-224.0
28.66,-217.0
28.73,-231.0
28.79,-231.0
28.85,-240.0
28.92,-224.0
28.98,-212.0
29.04,-214.0
29.11,-212.0
29.17,-217.0
29.23,-216.0
29.29,-214.0
29.36,-223.0
29.42,-212.0
29.48,-215.0
29.55,-198.0
29.61,-203.0
29.67,-216.0
29.74,-228.0
29.8,-219.0
29.86,-224.0
29.92,-194.0
29.99,-214.0
30.05,-209.0
30.11,-189.0
30.18,-193.0
30.24,-169.0
30.3,-181.0
30.37,-204.0
30.43,-210.0
30.49,-209.0
30.55,-182.0
30.62,-176.0
30.68,-166.0
30.74,-188.0
30.81,-172.0
30.87,-172.0
30.93,-168.0
31.0,-160.0
31.06,-151.0
31.12,-159.0
31.18,-172.0
31.25,-174.0
31.31,-152.0
31.37,-160.0
31.44,-160.0
31.5,-157.0
31.56,-160.0
31.63,-137.0
31.69,-165.0
31.75,-127.0
31.81,-162.0
31.88,-144.0
31.94,-128.0
32.0,-146.0
32.07,-137.0
32.13,-132.0
32.19,-137.0
32.26,-139.0
32.32,-118.0
32.38,-125.0
32.44,-115.0
32.51,-114.0
32.57,-114.0
32.63,-125.0
32.7,-122.0
32.76,-116.0
32.82,-148.0
32.89,-133.0
32.95,-144.0
33.01,-146.0
33.07,-138.0
33.14,-120.0
33.2,-132.0
33.26,-128.0
33.33,-125.0
33.39,-139.0
33.45,-134.0
33.52,-117.0
33.58,-118.0
33.64,-123.0
33.7,-113.0
33.77,-100.0
33.83,-86.0
33.89,-117.0
33.96,-118.0
34.02,-92.0
34.08,-63.0
34.15,-72.0
34.21,-89.0
34.27,-82.0
34.33,-93.0
34.4,-87.0
34.46,-51.0
34.52,-60.0
34.59,-83.0
34.65,-85.0
34.71,-71.0
34.78,-70.0
34.84,-79.0
34.9,-54.0
34.96,-80.0
35.03,-80.0
35.09,-63.0
35.15,-50.0
35.22,-68.0
35.28,-58.0
35.34,-47.0
35.41,-56.0
35.47,-42.0
35.53,-64.0
35.59,-58.0
35.66,-46.0
35.72,-23.0
35.78,-27.0
35.85,-53.0
35.91,-41.0
35.97,-49.0
36.04,-50.0
36.1,-41.0
36.16,-33.0
36.22,-55.0
36.29,-32.0
36.35,-32.0
36.41,-40.0
36.48,-37.0
36.54,-28.0
36.6,-29.0
36.67,-37.0
36.73,-27.0
36.79,-39.0
36.85,-32.0
36.92,-27.0
36.98,-35.0
37.04,-35.0
37.11,-17.0
37.17,-36.0
37.23,-46.0
37.3,-42.0
37.36,-43.0
37.42,-43.0
37.48,-21.0
37.55,-21.0
37.61,-33.0
37.67,-18.0
37.74,-24.0
37.8,-38.0
37.86,-41.0
37.93,-39.0
37.99,-54.0
38.05,-59.0
38.12,-38.0
38.18,-67.0
38.24,-56.0
38.3,-51.0
38.37,-51.0
38.43,-56.0
38.49,-58.0
38.56,-57.0
38.62,-47.0
38.68,-33.0
38.75,-58.0
38.81,-61.0
38.87,-39.0
38.93,-43.0
39.0,-55.0
39.06,-75.0
39.12,-74.0
39.19,-69.0
39.25,-81.0
39.31,-56.0
39.38,-72.0
39.44,-75.0
39.5,-54.0
39.56,-59.0
39.63,-47.0
39.69,-59.0
39.75,-58.0
39.82,-62.0
39.88,-62.0
39.94,-53.0
40.01,-61.0
40.07,-65.0
40.13,-67.0
40.19,-62.0
40.26,-60.0
40.32,-69.0
40.38,-75.0
40.45,-70.0
40.51,-58.0
40.57,-81.0
40.64,-87.0
40.7,-73.0
40.76,-79.0
40.82,-83.0
40.89,-86.0
40.95,-92.0
41.01,-104.0
41.08,-97.0
41.14,-84.0
41.2,-82.0
41.27,-99.0
41.33,-100.0
41.39,-105.0
41.45,-132.0
41.52,-113.0
41.58,-111.0
41.64,-132.0
41.71,-125.0
41.77,-104.0
41.83,-112.0
41.9,-119.0
41.96,-111.0
42.02,-120.0
42.08,-101.0
42.15,-112.0
42.21,-103.0
42.27,-106.0
42.34,-105.0
42.4,-130.0
42.46,-146.0
42.53,-122.0
42.59,-109.0
42.65,-118.0
42.71,-142.0
42.78,-122.0
42.84,-117.0
42.9,-131.0
42.97,-138.0
43.03,-140.0
43.09,-124.0
43.16,-107.0
43.22,-105.0
43.28,-124.0
43.34,-117.0
43.41,-111.0
43.47,-129.0
43.53,-143.0
43.6,-143.0
43.66,-128.0
43.72,-107.0
43.79,-104.0
43.85,-111.0
43.91,-108.0
43.97,-105.0
44.04,-123.0
44.1,-126.0
44.16,-106.0
44.23,-96.0
44.29,-103.0
44.35,-100.0
44.42,-119.0
44.48,-115.0
44.54,-105.0
44.6,-95.0
44.67,-104.0
44.73,-105.0
44.79,-101.0
44.86,-123.0
44.92,-99.0
44.98,-99.0
45.05,-102.0
45.11,-99.0
45.17,-110.0
45.23,-122.0
45.3,-120.0
45.36,-112.0
45.42,-103.0
45.49,-104.0
45.55,-104.0
45.61,-110.0
45.68,-106.0
45.74,-99.0
45.8,-102.0
45.86,-89.0
45.93,-92.0
45.99,-90.0
46.05,-92.0
46.12,-100.0
46.18,-107.0
46.24,-105.0
46.31,-112.0
46.37,-105.0
46.43,-86.0
46.49,-85.0
46.56,-100.0
46.62,-117.0
46.68,-124.0
46.75,-121.0
46.81,-123.0
46.87,-134.0
46.94,-124.0
47.0,-125.0
47.06,-128.0
47.12,-121.0
47.19,-110.0
47.25,-117.0
47.31,-101.0
47.38,-108.0
47.44,-98.0
47.5,-108.0
47.57,-94.0
47.63,-93.0
47.69,-123.0
47.75,-118.0
47.82,-101.0
47.88,-94.0
47.94,-96.0
48.01,-97.0
48.07,-92.0
48.13,-126.0
48.2,-108.0
48.26,-89.0
48.32,-97.0
48.38,-103.0
48.45,-94.0
48.51,-118.0
48.57,-117.0
48.64,-129.0
48.7,-104.0
48.76,-94.0
48.83,-96.0
48.89,-95.0
48.95,-86.0
49.01,-77.0
49.08,-91.0
49.14,-86.0
49.2,-78.0
49.27,-78.0
49.33,-73.0
49.39,-64.0
49.46,-54.0
49.52,-61.0
49.58,-66.0
49.64,-78.0
49.71,-75.0
49.77,-77.0
49.83,-83.0
49.9,-64.0
49.96,-67.0
50.02,-61.0
50.09,-69.0
50.15,-92.0
50.21,-86.0
50.27,-74.0
50.34,-89.0
50.4,-90.0
50.46,-85.0
50.53,-88.0
50.59,-77.0
50.65,-72.0
50.72,-78.0
50.78,-68.0
50.84,-87.0
50.9,-71.0
50.97,-84.0
51.03,-75.0
51.09,-56.0
51.16,-61.0
51.22,-85.0
51.28,-85.0
51.35,-80.0
51.41,-73.0
51.47,-80.0
51.53,-75.0
51.6,-41.0
51.66,-60.0
51.72,-58.0
51.79,-69.0
51.85,-54.0
51.91,-25.0
51.98,-39.0
52.04,-39.0
52.1,-40.0
52.16,-48.0
52.23,-42.0
52.29,-34.0
52.35,-32.0
52.42,-46.0
52.48,-49.0
52.54,-53.0
52.61,-36.0
52.67,-59.0
52.73,-41.0
52.79,-32.0
52.86,-28.0
52.92,-13.0
52.98,-37.0
53.05,-51.0
53.11,-28.0
53.17,-24.0
53.24,-53.0
53.3,-42.0
53.36,-38.0
53.42,-38.0
53.49,-41.0
53.55,-18.0
53.61,-14.0
53.68,-20.0
53.74,-8.0
53.8,-31.0
53.87,-13.0
53.93,-22.0
53.99,-26.0
54.05,-17.0
54.12,-17.0
54.18,-6.0
54.24,-20.0
54.31,-21.0
54.37,-15.0
54.43,-4.0
54.5,5.0
54.56,1.0
54.62,20.0
54.68,-12.0
54.75,-2.0
54.81,8.0
54.87,13.0
54.94,12.0
55.0,7.0
55.06,14.0
55.13,13.0
55.19,9.0
55.25,31.0
55.31,12.0
55.38,-14.0
55.44,-9.0
55.5,10.0
55.57,-7.0
55.63,-8.0
55.69,6.0
55.76,3.0
55.82,1.0
55.88,-5.0
55.94,9.0
56.01,10.0
56.07,7.0
56.13,20.0
56.2,4.0
56.26,7.0
56.32,5.0
56.39,1.0
56.45,-3.0
56.51,21.0
56.57,10.0
56.64,-15.0
56.7,4.0
56.76,10.0
56.83,-4.0
56.89,-14.0
56.95,-1.0
57.02,-13.0
57.08,-23.0
57.14,-5.0
57.2,-21.0
57.27,-27.0
57.33,-35.0
57.39,-51.0
57.46,-35.0
57.52,-37.0
57.58,-51.0
57.65,-63.0
57.71,-63.0
57.77,-61.0
57.83,-64.0
57.9,-63.0
57.96,-68.0
58.02,-62.0
58.09,-79.0
58.15,-77.0
58.21,-73.0
58.28,-88.0
58.34,-99.0
58.4,-99.0
58.46,-91.0
58.53,-68.0
58.59,-80.0
58.65,-76.0
58.72,-70.0
58.78,-83.0
58.84,-78.0
58.91,-79.0
58.97,-97.0
59.03,-93.0
59.09,-78.0
59.16,-98.0
59.22,-113.0
59.28,-101.0
59.35,-110.0
59.41,-100.0
59.47,-85.0
59.54,-81.0
59.6,-92.0
59.66,-78.0
59.72,-71.0
59.79,-71.0
59.85,-68.0
59.91,-69.0
59.98,-65.0
60.04,-70.0
60.1,-54.0
60.17,-68.0
60.23,-59.0
60.29,-58.0
60.35,-67.0
60.42,-67.0
60.48,-55.0
60.54,-60.0
60.61,-45.0
60.67,-54.0
60.73,-41.0
60.8,-34.0
60.86,-36.0
60.92,-19.0
60.98,-44.0
61.05,-41.0
61.11,-63.0
61.17,-49.0
61.24,-46.0
61.3,-62.0
61.36,-47.0
61.43,-34.0
61.49,-49.0
61.55,-27.0
61.61,-18.0
61.68,-39.0
61.74,-36.0
61.8,-38.0
61.87,-42.0
61.93,-33.0
61.99,-40.0
62.06,-52.0
62.12,-38.0
62.18,-36.0
62.24,-45.0
62.31,-40.0
62.37,-46.0
62.43,-45.0
62.5,-56.0
62.56,-55.0
62.62,-29.0
62.69,-45.0
62.75,-34.0
62.81,-4.0
62.87,-29.0
62.94,-40.0
63.0,-41.0
63.06,-29.0
63.13,-25.0
63.19,-40.0
63.25,-36.0
63.32,-16.0
63.38,-13.0
63.44,-13.0
63.5,-4.0
63.57,-46.0
63.63,-37.0
63.69,3.0
63.76,-3.0
63.82,-3.0
63.88,-4.0
63.95,5.0
64.01,-8.0
64.07,-8.0
64.13,-6.0
64.2,-10.0
64.26,-9.0
64.32,-18.0
64.39,-2.0
64.45,-2.0
64.51,3.0
64.58,-2.0
64.64,-18.0
64.7,-19.0
64.76,-18.0
64.83,-23.0
64.89,0.0
64.95,-13.0
65.02,-14.0
65.08,-24.0
65.14,-29.0
65.21,-9.0
65.27,-8.0
65.33,-37.0
65.39,-25.0
65.46,-45.0
65.52,-34.0
65.58,-45.0
65.65,-26.0
65.71,-25.0
65.77,-16.0
65.84,-12.0
65.9,-22.0
65.96,-31.0
66.02,-23.0
66.09,-31.0
66.15,-23.0
66.21,-27.0
66.28,-22.0
66.34,-22.0
66.4,-29.0
66.47,-29.0
66.53,-14.0
66.59,-14.0
66.65,6.0
66.72,10.0
66.78,-13.0
66.84,-6.0
66.91,1.0
66.97,-4.0
67.03,-17.0
67.1,-38.0
67.16,-8.0
67.22,-14.0
67.28,-39.0
67.35,-46.0
67.41,-29.0
67.47,-20.0
67.54,-7.0
67.6,-26.0
67.66,-11.0
67.73,-11.0
67.79,-12.0
67.85,-35.0
67.91,-35.0
67.98,-14.0
68.04,-18.0
68.1,-8.0
68.17,-2.0
68.23,-10.0
68.29,-11.0
68.36,9.0
68.42,9.0
68.48,31.0
68.54,9.0
68.61,10.0
68.67,-9.0
68.73,-15.0
68.8,-11.0
68.86,-11.0
68.92,-1.0
68.99,0.0
69.05,3.0
69.11,33.0
69.17,31.0
69.24,8.0
69.3,21.0
69.36,23.0
69.43,28.0
69.49,35.0
69.55,52.0
69.62,57.0
69.68,63.0
69.74,60.0
69.8,48.0
69.87,49.0
69.93,41.0
69.99,47.0
70.06,30.0
70.12,41.0
70.18,55.0
70.25,63.0
70.31,68.0
70.37,65.0
70.43,63.0
70.5,60.0
70.56,59.0
70.62,63.0
70.69,68.0
70.75,64.0
70.81,78.0
70.88,82.0
70.94,89.0
71.0,80.0
71.06,103.0
71.13,107.0
71.19,104.0
71.25,104.0
71.32,97.0
71.38,93.0
71.44,78.0
71.51,87.0
71.57,83.0
71.63,69.0
71.69,98.0
71.76,93.0
71.82,100.0
71.88,122.0
71.95,121.0
72.01,124.0
72.07,129.0
72.14,119.0
72.2,108.0
72.26,101.0
72.32,79.0
72.39,75.0
72.45,72.0
72.51,64.0
72.58,77.0
72.64,85.0
72.7,84.0
72.77,59.0
72.83,72.0
72.89,53.0
72.95,59.0
73.02,41.0
73.08,33.0
73.14,35.0
73.21,51.0
73.27,48.0
73.33,38.0
73.4,35.0
73.46,25.0
73.52,15.0
73.58,11.0
73.65,30.0
73.71,2.0
73.77,0.0
73.84,-3.0
73.9,21.0
73.96,1.0
74.03,-12.0
74.09,14.0
74.15,-16.0
74.21,-9.0
74.28,-20.0
74.34,-32.0
74.4,-32.0
74.47,-23.0
74.53,-23.0
74.59,-23.0
74.66,-32.0
74.72,-36.0
74.78,-40.0
74.84,-41.0
74.91,-21.0
74.97,-9.0
75.03,-30.0
75.1,-43.0
75.16,-17.0
75.22,-26.0
75.29,-36.0
75.35,-43.0
75.41,-24.0
75.47,-39.0
75.54,-41.0
75.6,-30.0
75.66,-36.0
75.73,-18.0
75.79,-42.0
75.85,-42.0
75.92,-75.0
75.98,-56.0
76.04,-60.0
76.1,-68.0
76.17,-67.0
76.23,-68.0
76.29,-72.0
76.36,-43.0
76.42,-52.0
76.48,-75.0
76.55,-63.0
76.61,-69.0
76.67,-69.0
76.73,-45.0
76.8,-41.0
76.86,-68.0
76.92,-63.0
76.99,-65.0
77.05,-60.0
77.11,-67.0
77.18,-52.0
77.24,-50.0
77.3,-40.0
77.36,-40.0
77.43,-68.0
77.49,-62.0
77.55,-73.0
77.62,-84.0
77.68,-56.0
77.74,-41.0
77.81,-40.0
77.87,-36.0
77.93,-35.0
77.99,-49.0
78.06,-45.0
78.12,-46.0
78.18,-76.0
78.25,-69.0
78.31,-42.0
78.37,-71.0
78.44,-65.0
78.5,-53.0
78.56,-43.0
78.62,-46.0
78.69,-40.0
78.75,-46.0
78.81,-58.0
78.88,-41.0
78.94,-52.0
79.0,-54.0
79.07,-42.0
79.13,-42.0
79.19,-45.0
79.25,-32.0
79.32,-18.0
79.38,-22.0
79.44,-16.0
79.51,-12.0
79.57,-22.0
79.63,-51.0
79.7,-4.0
79.76,-11.0
79.82,-22.0
79.88,-7.0
79.95,28.0
80.01,20.0
80.07,-5.0
80.14,-10.0
80.2,-4.0
80.26,-9.0
80.33,-24.0
80.39,-12.0
80.45,-5.0
80.51,-6.0
80.58,4.0
80.64,11.0
80.7,-1.0
80.77,6.0
80.83,14.0
80.89,23.0
80.96,6.0
81.02,-1.0
81.08,8.0
81.14,15.0
81.21,-10.0
81.27,15.0
81.33,-7.0
81.4,-1.0
81.46,0.0
81.52,-2.0
81.59,13.0
81.65,2.0
81.71,18.0
81.77,30.0
81.84,31.0
81.9,16.0
81.96,9.0
82.03,-3.0
82.09,0.0
82.15,24.0
82.22,30.0
82.28,20.0
82.34,16.0
82.4,-5.0
82.47,5.0
82.53,0.0
82.59,-10.0
82.66,21.0
82.72,30.0
82.78,5.0
82.85,-2.0
82.91,2.0
82.97,11.0
83.03,21.0
83.1,22.0
83.16,17.0
83.22,14.0
83.29,7.0
83.35,23.0
83.41,16.0
83.48,8.0
83.54,7.0
83.6,14.0
83.66,18.0
83.73,16.0
83.79,27.0
83.85,16.0
83.92,1.0
83.98,-21.0
84.04,-9.0
84.11,-13.0
84.17,-2.0
84.23,-5.0
84.29,2.0
84.36,13.0
84.42,7.0
84.48,10.0
84.55,7.0
84.61,-10.0
84.67,-19.0
84.74,-6.0
84.8,-8.0
84.86,-18.0
84.92,-7.0
84.99,0.0
85.05,2.0
85.11,-14.0
85.18,-2.0
85.24,-22.0
85.3,-9.0
85.37,-4.0
85.43,15.0
85.49,14.0
85.55,9.0
85.62,-1.0
85.68,21.0
85.74,48.0
85.81,40.0
85.87,27.0
85.93,17.0
86.0,35.0
86.06,50.0
86.12,47.0
86.18,25.0
86.25,49.0
86.31,41.0
86.37,41.0
86.44,55.0
86.5,60.0
86.56,47.0
86.63,65.0
86.69,77.0
86.75,63.0
86.81,47.0
86.88,44.0
86.94,66.0
87.0,65.0
87.07,65.0
87.13,75.0
87.19,86.0
87.26,87.0
87.32,67.0
87.38,67.0
87.44,87.0
87.51,61.0
87.57,65.0
87.63,97.0
87.7,76.0
87.76,69.0
87.82,60.0
87.89,46.0
87.95,53.0
88.01,69.0
88.07,83.0
88.14,69.0
88.2,82.0
88.26,85.0
88.33,97.0
88.39,110.0
88.45,95.0
88.52,97.0
88.58,102.0
88.64,95.0
88.7,113.0
88.77,104.0
88.83,107.0
88.89,88.0
88.96,63.0
89.02,74.0
89.08,74.0
89.15,86.0
89.21,114.0
89.27,93.0
89.33,98.0
89.4,115.0
89.46,93.0
89.52,79.0
89.59,82.0
89.65,77.0
89.71,79.0
89.78,80.0
89.84,74.0
89.9,87.0
89.96,94.0
90.03,91.0
90.09,81.0
90.15,51.0
90.22,46.0
90.28,57.0
90.34,42.0
90.41,31.0
90.47,34.0
90.53,39.0
90.59,54.0
90.66,39.0
90.72,49.0
90.78,45.0
90.85,44.0
90.91,34.0
90.97,13.0
91.04,16.0
91.1,2.0
91.16,43.0
91.22,21.0
91.29,9.0
91.35,2.0
91.41,-16.0
91.48,-15.0
91.54,-17.0
91.6,-15.0
91.67,-4.0
91.73,-10.0
91.79,1.0
91.85,-7.0
91.92,-8.0
91.98,3.0
92.04,14.0
92.11,1.0
92.17,16.0
92.23,-2.0
92.3,-7.0
92.36,-9.0
92.42,-37.0
92.48,-27.0
92.55,-41.0
92.61,3.0
92.67,4.0
92.74,-2.0
92.8,-18.0
92.86,-22.0
92.93,-17.0
92.99,-22.0
93.05,-22.0
93.11,-27.0
93.18,-19.0
93.24,-3.0
93.3,-9.0
93.37,-16.0
93.43,-11.0
93.49,17.0
93.56,1.0
93.62,-15.0
93.68,-8.0
93.74,-7.0
93.81,-10.0
93.87,-12.0
93.93,-2.0
94.0,-3.0
94.06,-15.0
94.12,-6.0
94.19,-20.0
94.25,-9.0
94.31,1.0
94.37,-11.0
94.44,-5.0
94.5,-16.0
94.56,-4.0
94.63,-5.0
94.69,-6.0
94.75,2.0
94.82,6.0
94.88,7.0
94.94,10.0
95.0,0.0
95.07,-22.0
95.13,-17.0
95.19,-16.0
95.26,-7.0
95.32,6.0
95.38,0.0
95.45,0.0
95.51,6.0
95.57,1.0
95.63,-3.0
95.7,-16.0
95.76,-7.0
95.82,-9.0
95.89,-10.0
95.95,-20.0
96.01,6.0
96.08,6.0
96.14,-15.0
96.2,0.0
96.26,-8.0
96.33,10.0
96.39,3.0
96.45,-24.0
96.52,-1.0
96.58,6.0
96.64,-3.0
96.71,5.0
96.77,28.0
96.83,23.0
96.89,24.0
96.96,34.0
97.02,35.0
97.08,42.0
97.15,44.0
97.21,34.0
97.27,41.0
97.34,27.0
97.4,20.0
97.46,33.0
97.52,44.0
97.59,31.0
97.65,37.0
97.71,42.0
97.78,20.0
97.84,25.0
97.9,36.0
97.97,39.0
98.03,11.0
98.09,14.0
98.15,24.0
98.22,12.0
98.28,11.0
98.34,12.0
98.41,26.0
98.47,-3.0
98.53,3.0
98.6,14.0
98.66,33.0
98.72,33.0
98.78,21.0
98.85,22.0
98.91,23.0
98.97,16.0
99.04,25.0
99.1,14.0
99.16,27.0
99.23,30.0
99.29,37.0
99.35,14.0
99.41,25.0
99.48,31.0
99.54,42.0
99.6,70.0
99.67,53.0
99.73,44.0
99.79,37.0
99.86,52.0
99.92,51.0
99.98,48.0
100.04,35.0
100.11,31.0
100.17,31.0
100.23,39.0
100.3,37.0
100.36,40.0
100.42,27.0
100.49,7.0
100.55,18.0
100.61,30.0
100.67,38.0
100.74,19.0
100.8,23.0
100.86,8.0
100.93,23.0
100.99,1.0
101.05,23.0
101.12,17.0
101.18,34.0
101.24,41.0
101.3,51.0
101.37,25.0
101.43,40.0
101.49,31.0
101.56,39.0
101.62,25.0
101.68,20.0
101.75,44.0
101.81,48.0
101.87,55.0
101.93,67.0
102.0,63.0
102.06,67.0
102.12,62.0
102.19,52.0
102.25,53.0
102.31,54.0
102.38,57.0
102.44,46.0
102.5,59.0
102.56,58.0
102.63,48.0
102.69,72.0
102.75,65.0
102.82,63.0
102.88,85.0
102.94,92.0
103.01,96.0
103.07,91.0
103.13,113.0
103.19,102.0
103.26,108.0
103.32,117.0
103.38,122.0
103.45,127.0
103.51,119.0
103.57,112.0
103.64,103.0
103.7,128.0
103.76,111.0
103.82,124.0
103.89,150.0
103.95,148.0
104.01,153.0
104.08,140.0
104.14,153.0
104.2,131.0
104.27,127.0
104.33,140.0
104.39,138.0
104.45,146.0
104.52,148.0
104.58,136.0
104.64,138.0
104.71,150.0
104.77,128.0
104.83,152.0
104.9,167.0
104.96,164.0
105.02,143.0
105.08,178.0
105.15,182.0
105.21,174.0
105.27,172.0
105.34,182.0
105.4,195.0
105.46,178.0
105.53,171.0
105.59,161.0
105.65,173.0
105.71,151.0
105.78,169.0
105.84,162.0
105.9,149.0
105.97,148.0
106.03,151.0
106.09,163.0
106.16,125.0
106.22,117.0
106.28,125.0
106.34,124.0
106.41,129.0
106.47,138.0
106.53,125.0
106.6,121.0
106.66,135.0
106.72,140.0
106.79,112.0
106.85,125.0
106.91,118.0
106.97,120.0
107.04,126.0
107.1,145.0
107.16,132.0
107.23,136.0
107.29,135.0
107.35,106.0
107.42,118.0
107.48,103.0
107.54,100.0
107.6,114.0
107.67,103.0
107.73,115.0
107.79,96.0
107.86,95.0
107.92,109.0
107.98,92.0
108.05,88.0
108.11,88.0
108.17,81.0
108.23,73.0
108.3,70.0
108.36,78.0
108.42,67.0
108.49,54.0
108.55,26.0
108.61,63.0
108.68,69.0
108.74,30.0
108.8,19.0
108.86,37.0
108.93,37.0
108.99,16.0
109.05,9.0
109.12,23.0
109.18,31.0
109.24,30.0
109.31,7.0
109.37,-7.0
109.43,-2.0
109.49,-12.0
109.56,-10.0
109.62,-3.0
109.68,-1.0
109.75,-4.0
109.81,-4.0
109.87,1.0
109.94,-7.0
110.0,0.0
110.06,-4.0
110.12,11.0
110.19,-3.0
110.25,-1.0
110.31,-9.0
110.38,19.0
110.44,36.0
110.5,5.0
110.57,4.0
110.63,20.0
110.69,14.0
110.75,13.0
110.82,15.0
110.88,22.0
110.94,39.0
111.01,34.0
111.07,23.0
111.13,23.0
111.2,-2.0
111.26,19.0
111.32,3.0
111.38,-15.0
111.45,12.0
111.51,15.0
111.57,2.0
111.64,-12.0
111.7,8.0
111.76,-14.0
111.83,-18.0
111.89,0.0
111.95,-5.0
112.01,0.0
112.08,-25.0
112.14,-18.0
112.2,-18.0
112.27,-1.0
112.33,-3.0
112.39,-2.0
112.46,2.0
112.52,-7.0
112.58,-24.0
112.64,-3.0
112.71,-20.0
112.77,-12.0
112.83,-9.0
112.9,6.0
112.96,16.0
113.02,-4.0
113.09,15.0
113.15,23.0
113.21,25.0
113.27,28.0
113.34,27.0
113.4,31.0
113.46,22.0
113.53,27.0
113.59,28.0
113.65,16.0
113.72,22.0
113.78,34.0
113.84,19.0
113.9,31.0
113.97,22.0
114.03,36.0
114.09,11.0
114.16,13.0
114.22,30.0
114.28,30.0
114.35,33.0
114.41,29.0
114.47,39.0
114.53,26.0
114.6,23.0
114.66,19.0
114.72,16.0
114.79,24.0
114.85,23.0
114.91,34.0
114.98,20.0
115.04,38.0
115.1,30.0
115.16,32.0
115.23,16.0
115.29,8.0
115.35,31.0
115.42,30.0
115.48,30.0
115.54,32.0
115.61,40.0
115.67,38.0
115.73,38.0
115.79,30.0
115.86,42.0
115.92,69.0
115.98,44.0
116.05,59.0
116.11,48.0
116.17,46.0
116.24,57.0
116.3,44.0
116.36,38.0
116.42,38.0
116.49,38.0
116.55,28.0
116.61,24.0
116.68,45.0
116.74,32.0
116.8,38.0
116.87,16.0
116.93,0.0
116.99,4.0
117.05,26.0
117.12,32.0
117.18,3.0
117.24,12.0
117.31,19.0
117.37,2.0
117.43,5.0
117.5,-32.0
117.56,-14.0
117.62,-32.0
117.68,-35.0
117.75,-9.0
117.81,-19.0
117.87,-5.0
117.94,-12.0
118.0,-30.0
118.06,-9.0
118.13,-6.0
118.19,-33.0
118.25,-3.0
118.31,18.0
118.38,18.0
118.44,3.0
118.5,17.0
118.57,-4.0
118.63,4.0
118.69,10.0
118.76,3.0
118.82,19.0
118.88,7.0
118.94,32.0
119.01,58.0
119.07,67.0
119.13,47.0
119.2,43.0
119.26,65.0
119.32,55.0
119.39,62.0
119.45,43.0
119.51,53.0
119.57,61.0
119.64,61.0
119.7,46.0
119.76,40.0
119.83,71.0
119.89,78.0
119.95,75.0
120.02,57.0
120.08,67.0
120.14,74.0
120.2,73.0
120.27,99.0
120.33,90.0
120.39,97.0
120.46,84.0
120.52,106.0
120.58,104.0
120.65,100.0
120.71,120.0
120.77,116.0
120.83,113.0
120.9,121.0
120.96,143.0
121.02,115.0
121.09,95.0
121.15,123.0
121.21,163.0
121.28,166.0
121.34,165.0
121.4,164.0
121.46,150.0
121.53,153.0
121.59,174.0
121.65,163.0
121.72,155.0
121.78,172.0
121.84,170.0
121.91,150.0
121.97,152.0
122.03,159.0
122.09,159.0
122.16,167.0
122.22,180.0
122.28,200.0
122.35,197.0
122.41,208.0
122.47,189.0
122.54,191.0
122.6,195.0
122.66,193.0
122.72,175.0
122.79,177.0
122.85,171.0
122.91,165.0
122.98,153.0
123.04,156.0
123.1,161.0
123.17,151.0
123.23,138.0
123.29,141.0
123.35,132.0
123.42,128.0
123.48,140.0
123.54,114.0
123.61,125.0
123.67,129.0
123.73,142.0
123.8,146.0
123.86,127.0
123.92,96.0
123.98,120.0
124.05,128.0
124.11,112.0
124.17,114.0
124.24,92.0
124.3,102.0
124.36,92.0
124.43,105.0
124.49,103.0
124.55,115.0
124.61,87.0
124.68,98.0
124.74,96.0
124.8,78.0
124.87,85.0
124.93,68.0
124.99,72.0
125.06,65.0
125.12,57.0
125.18,49.0
125.24,31.0
125.31,31.0
125.37,50.0
125.43,48.0
125.5,43.0
125.56,36.0
125.62,19.0
125.69,26.0
125.75,22.0
125.81,28.0
125.87,0.0
125.94,25.0
126.0,20.0
126.06,11.0
126.13,9.0
126.19,0.0
126.25,20.0
126.32,22.0
126.38,24.0
126.44,23.0
126.5,19.0
126.57,12.0
126.63,29.0
126.69,6.0
126.76,38.0
126.82,31.0
126.88,32.0
126.95,39.0
127.01,10.0
127.07,37.0
127.13,32.0
127.2,26.0
127.26,32.0
127.32,20.0
127.39,15.0
127.45,28.0
127.51,64.0
127.58,44.0
127.64,54.0
127.7,61.0
127.76,67.0
127.83,43.0
127.89,57.0
127.95,49.0
128.02,48.0
128.08,57.0
128.14,64.0
128.21,66.0
128.27,44.0
128.33,45.0
128.39,56.0
128.46,54.0
128.52,40.0
128.58,61.0
128.65,41.0
128.71,56.0
128.77,60.0
128.84,63.0
128.9,65.0
128.96,61.0
129.02,82.0
129.09,92.0
129.15,67.0
129.21,67.0
129.28,59.0
129.34,48.0
129.4,59.0
129.47,47.0
129.53,42.0
129.59,50.0
129.65,56.0
129.72,40.0
129.78,20.0
129.84,27.0
129.91,32.0
129.97,29.0
130.03,24.0
130.1,42.0
130.16,57.0
130.22,18.0
130.28,18.0
130.35,52.0
130.41,65.0
130.47,49.0
130.54,51.0
130.6,54.0
130.66,63.0
130.73,59.0
130.79,50.0
130.85,77.0
130.91,43.0
130.98,38.0
131.04,30.0
131.1,54.0
131.17,55.0
131.23,43.0
131.29,51.0
131.36,42.0
131.42,46.0
131.48,37.0
131.54,28.0
131.61,44.0
131.67,49.0
131.73,47.0
131.8,51.0
131.86,39.0
131.92,43.0
131.99,54.0
132.05,52.0
132.11,41.0
132.17,26.0
132.24,39.0
132.3,30.0
132.36,50.0
132.43,46.0
132.49,39.0
132.55,40.0
132.62,44.0
132.68,45.0
132.74,26.0
132.8,46.0
132.87,42.0
132.93,40.0
132.99,55.0
133.06,43.0
133.12,47.0
133.18,27.0
133.25,23.0
133.31,44.0
133.37,47.0
133.43,39.0
133.5,17.0
133.56,49.0
133.62,39.0
133.69,26.0
133.75,27.0
133.81,18.0
133.88,35.0
133.94,29.0
134.0,37.0
134.06,29.0
134.13,39.0
134.19,29.0
134.25,10.0
134.32,37.0
134.38,15.0
134.44,20.0
134.51,4.0
134.57,6.0
134.63,25.0
134.69,31.0
134.76,12.0
134.82,20.0
134.88,27.0
134.95,28.0
135.01,21.0
135.07,12.0
135.14,13.0
135.2,3.0
135.26,2.0
135.32,-4.0
135.39,-2.0
135.45,12.0
135.51,8.0
135.58,40.0
135.64,32.0
135.7,35.0
135.77,40.0
135.83,37.0
135.89,48.0
135.95,45.0
136.02,41.0
136.08,49.0
136.14,40.0
136.21,52.0
136.27,31.0
136.33,27.0
136.4,35.0
136.46,36.0
136.52,25.0
136.58,37.0
136.65,54.0
136.71,67.0
136.77,70.0
136.84,48.0
136.9,31.0
136.96,26.0
137.03,78.0
137.09,63.0
137.15,53.0
137.21,60.0
137.28,71.0
137.34,71.0
137.4,59.0
137.47,59.0
137.53,53.0
137.59,71.0
137.66,71.0
137.72,71.0
137.78,93.0
137.84,103.0
137.91,89.0
137.97,108.0
138.03,87.0
138.1,81.0
138.16,79.0
138.22,78.0
138.29,85.0
138.35,79.0
138.41,96.0
138.47,75.0
138.54,64.0
138.6,72.0
138.66,79.0
138.73,63.0
138.79,77.0
138.85,61.0
138.92,76.0
138.98,82.0
139.04,74.0
139.1,72.0
139.17,44.0
139.23,69.0
139.29,71.0
139.36,72.0
139.42,68.0
139.48,80.0
139.55,82.0
139.61,96.0
139.67,77.0
139.73,57.0
139.8,78.0
139.86,82.0
139.92,78.0
139.99,74.0
140.05,75.0
140.11,61.0
140.18,65.0
140.24,62.0
140.3,35.0
140.36,42.0
140.43,43.0
140.49,34.0
140.55,49.0
140.62,50.0
140.68,51.0
140.74,46.0
140.81,43.0
140.87,30.0
140.93,37.0
140.99,10.0
141.06,15.0
141.12,12.0
141.18,10.0
141.25,15.0
141.31,-1.0
141.37,10.0
141.44,3.0
141.5,15.0
141.56,-5.0
141.62,-14.0
141.69,-12.0
141.75,-27.0
141.81,-45.0
141.88,-31.0
141.94,-34.0
142.0,-28.0
142.07,-5.0
142.13,-16.0
142.19,-7.0
142.25,-1.0
142.32,-24.0
142.38,-12.0
142.44,-8.0
142.51,-13.0
142.57,-8.0
142.63,-13.0
142.7,-44.0
142.76,-14.0
142.82,-23.0
142.88,-35.0
142.95,-31.0
143.01,-33.0
143.07,-27.0
143.14,-36.0
143.2,-35.0
143.26,-35.0
143.33,-42.0
143.39,-48.0
143.45,-38.0
143.51,-38.0
143.58,-36.0
143.64,-25.0
143.7,-40.0
143.77,-16.0
143.83,-23.0
143.89,-21.0
143.96,-19.0
144.02,-7.0
144.08,-30.0
144.14,-34.0
144.21,-24.0
144.27,-16.0
144.33,-4.0
144.4,3.0
144.46,16.0
144.52,11.0
144.59,7.0
144.65,16.0
144.71,-3.0
144.77,11.0
144.84,2.0
144.9,6.0
144.96,3.0
145.03,8.0
145.09,25.0
145.15,3.0
145.22,24.0
145.28,11.0
145.34,13.0
145.4,4.0
145.47,22.0
145.53,16.0
145.59,11.0
145.66,21.0
145.72,-5.0
145.78,15.0
145.85,12.0
145.91,0.0
145.97,19.0
146.03,-16.0
146.1,-18.0
146.16,-7.0
146.22,-2.0
146.29,22.0
146.35,3.0
146.41,1.0
146.47,11.0
146.54,17.0
146.6,23.0
146.66,36.0
146.73,37.0
146.79,37.0
146.85,28.0
146.92,42.0
146.98,54.0
147.04,26.0
147.1,43.0
147.17,50.0
147.23,50.0
147.29,40.0
147.36,36.0
147.42,36.0
147.48,50.0
147.55,51.0
147.61,41.0
147.67,56.0
147.73,62.0
147.8,62.0
147.86,36.0
147.92,44.0
147.99,43.0
148.05,32.0
148.11,37.0
148.18,39.0
148.24,36.0
148.3,40.0
148.36,54.0
148.43,73.0
148.49,65.0
148.55,51.0
148.62,51.0
148.68,49.0
148.74,42.0
148.81,61.0
148.87,69.0
148.93,63.0
148.99,64.0
149.06,65.0
149.12,85.0
149.18,89.0
149.25,69.0
149.31,76.0
149.37,87.0
149.44,77.0
149.5,58.0
149.56,59.0
149.62,51.0
149.69,88.0
149.75,77.0
149.81,68.0
149.88,69.0
149.94,60.0
150.0,73.0
150.07,67.0
150.13,78.0
150.19,56.0
150.25,56.0
150.32,56.0
150.38,48.0
150.44,59.0
150.51,54.0
150.57,64.0
150.63,77.0
150.7,59.0
150.76,47.0
150.82,43.0
150.88,36.0
150.95,40.0
151.01,33.0
151.07,39.0
151.14,44.0
151.2,43.0
151.26,42.0
151.33,25.0
151.39,44.0
151.45,30.0
151.51,14.0
151.58,15.0
151.64,22.0
151.7,33.0
151.77,37.0
151.83,25.0
151.89,31.0
151.96,25.0
152.02,31.0
152.08,23.0
152.14,13.0
152.21,38.0
152.27,32.0
152.33,32.0
152.4,51.0
152.46,44.0
152.52,39.0
152.59,66.0
152.65,44.0
152.71,46.0
152.77,59.0
152.84,55.0
152.9,72.0
152.96,76.0
153.03,79.0
153.09,84.0
153.15,106.0
153.22,111.0
153.28,116.0
153.34,116.0
153.4,138.0
153.47,132.0
153.53,131.0
153.59,154.0
153.66,150.0
153.72,150.0
153.78,152.0
153.85,137.0
153.91,139.0
153.97,146.0
154.03,130.0
154.1,171.0
154.16,157.0
154.22,171.0
154.29,165.0
154.35,145.0
154.41,168.0
154.48,183.0
154.54,185.0
154.6,165.0
154.66,185.0
154.73,168.0
154.79,177.0
154.85,159.0
154.92,176.0
154.98,184.0
155.04,195.0
155.11,176.0
155.17,174.0
155.23,188.0
155.29,168.0
155.36,164.0
155.42,169.0
155.48,212.0
155.55,182.0
155.61,193.0
155.67,190.0
155.74,189.0
155.8,183.0
155.86,187.0
155.92,190.0
155.99,191.0
156.05,182.0
156.11,185.0
156.18,183.0
156.24,177.0
156.3,163.0
156.37,145.0
156.43,159.0
156.49,159.0
156.55,168.0
156.62,165.0
156.68,187.0
156.74,171.0
156.81,163.0
156.87,184.0
156.93,172.0
157.0,174.0
157.06,157.0
157.12,139.0
157.18,144.0
157.25,151.0
157.31,155.0
157.37,152.0
157.44,141.0
157.5,149.0
157.56,142.0
157.63,154.0
157.69,160.0
157.75,146.0
157.81,165.0
157.88,163.0
157.94,166.0
158.0,183.0
158.07,153.0
158.13,151.0
158.19,141.0
158.26,142.0
158.32,140.0
158.38,144.0
158.44,135.0
158.51,86.0
158.57,101.0
158.63,92.0
158.7,100.0
158.76,69.0
158.82,74.0
158.89,70.0
158.95,61.0
159.01,84.0
159.07,43.0
159.14,64.0
159.2,58.0
159.26,67.0
159.33,59.0
159.39,49.0
159.45,45.0
159.52,44.0
159.58,39.0
159.64,27.0
159.7,19.0
159.77,22.0
159.83,40.0
159.89,41.0
159.96,39.0
160.02,29.0
160.08,31.0
160.15,50.0
160.21,45.0
160.27,68.0
160.33,44.0
160.4,26.0
160.46,43.0
160.52,54.0
160.59,24.0
160.65,25.0
160.71,55.0
160.78,34.0
160.84,37.0
160.9,31.0
160.96,11.0
161.03,28.0
161.09,26.0
161.15,11.0
161.22,15.0
161.28,9.0
161.34,-2.0
161.41,10.0
161.47,14.0
161.53,21.0
161.59,21.0
161.66,5.0
161.72,10.0
161.78,12.0
161.85,17.0
161.91,6.0
161.97,2.0
162.04,21.0
162.1,28.0
162.16,6.0
162.22,18.0
162.29,18.0
162.35,39.0
162.41,28.0
162.48,43.0
162.54,30.0
162.6,37.0
162.67,36.0
162.73,32.0
162.79,40.0
162.85,42.0
162.92,49.0
162.98,10.0
163.04,20.0
163.11,29.0
163.17,30.0
163.23,29.0
163.3,35.0
163.36,24.0
163.42,37.0
163.48,21.0
163.55,38.0
163.61,46.0
163.67,52.0
163.74,57.0
163.8,50.0
163.86,42.0
163.93,50.0
163.99,52.0
164.05,57.0
164.11,42.0
164.18,45.0
164.24,43.0
164.3,45.0
164.37,43.0
164.43,45.0
164.49,57.0
164.56,73.0
164.62,69.0
164.68,50.0
164.74,55.0
164.81,61.0
164.87,56.0
164.93,50.0
165.0,39.0
165.06,39.0
165.12,29.0
165.19,33.0
165.25,28.0
165.31,29.0
165.37,35.0
165.44,16.0
165.5,32.0
165.56,31.0
165.63,17.0
165.69,38.0
165.75,56.0
165.82,41.0
165.88,52.0
165.94,42.0
166.0,26.0
166.07,28.0
166.13,56.0
166.19,21.0
166.26,35.0
166.32,42.0
166.38,20.0
166.45,26.0
166.51,27.0
166.57,49.0
166.63,36.0
166.7,27.0
166.76,22.0
166.82,16.0
166.89,15.0
166.95,12.0
167.01,4.0
167.08,28.0
167.14,13.0
167.2,32.0
167.26,20.0
167.33,28.0
167.39,3.0
167.45,5.0
167.52,20.0
167.58,-1.0
167.64,5.0
167.71,-5.0
167.77,-9.0
167.83,-3.0
167.89,5.0
167.96,5.0
168.02,-11.0
168.08,-14.0
168.15,-12.0
168.21,-11.0
168.27,-3.0
168.34,-7.0
168.4,9.0
168.46,-2.0
168.52,-6.0
168.59,7.0
168.65,-4.0
168.71,8.0
168.78,23.0
168.84,20.0
168.9,5.0
168.97,4.0
169.03,12.0
169.09,5.0
169.15,15.0
169.22,40.0
169.28,32.0
169.34,16.0
169.41,32.0
169.47,26.0
169.53,19.0
169.6,45.0
169.66,46.0
169.72,47.0
169.78,51.0
169.85,43.0
169.91,51.0
169.97,80.0
170.04,58.0
170.1,75.0
170.16,81.0
170.23,74.0
170.29,74.0
170.35,103.0
170.41,101.0
170.48,97.0
170.54,106.0
170.6,106.0
170.67,112.0
170.73,133.0
170.79,113.0
170.86,103.0
170.92,97.0
170.98,123.0
171.04,97.0
171.11,89.0
171.17,118.0
171.23,108.0
171.3,135.0
171.36,142.0
171.42,120.0
171.49,116.0
171.55,115.0
171.61,122.0
171.67,109.0
171.74,120.0
171.8,121.0
171.86,122.0
171.93,104.0
171.99,126.0
172.05,136.0
172.12,126.0
172.18,123.0
172.24,126.0
172.3,122.0
172.37,126.0
172.43,124.0
172.49,140.0
172.56,146.0
172.62,144.0
172.68,127.0
172.75,131.0
172.81,147.0
172.87,150.0
172.93,138.0
173.0,138.0
173.06,133.0
173.12,126.0
173.19,141.0
173.25,137.0
173.31,137.0
173.38,134.0
173.44,142.0
173.5,120.0
173.56,129.0
173.63,126.0
173.69,121.0
173.75,131.0
173.82,120.0
173.88,114.0
173.94,93.0
174.01,122.0
174.07,133.0
174.13,119.0
174.19,137.0
174.26,126.0
174.32,124.0
174.38,128.0
174.45,131.0
174.51,139.0
174.57,138.0
174.64,120.0
174.7,118.0
174.76,109.0
174.82,115.0
174.89,120.0
174.95,112.0
175.01,121.0
175.08,117.0
175.14,106.0
175.2,82.0
175.27,87.0
175.33,114.0
175.39,102.0
175.45,97.0
175.52,87.0
175.58,86.0
175.64,100.0
175.71,116.0
175.77,93.0
175.83,84.0
175.9,75.0
175.96,84.0
176.02,82.0
176.08,57.0
176.15,64.0
176.21,60.0
176.27,60.0
176.34,64.0
176.4,67.0
176.46,59.0
176.53,57.0
176.59,55.0
176.65,60.0
176.71,52.0
176.78,54.0
176.84,49.0
176.9,31.0
176.97,58.0
177.03,49.0
177.09,44.0
177.16,62.0
177.22,69.0
177.28,83.0
177.34,93.0
177.41,95.0
177.47,87.0
177.53,81.0
177.6,73.0
177.66,73.0
177.72,72.0
177.79,73.0
177.85,82.0
177.91,82.0
177.97,86.0
178.04,82.0
178.1,95.0
178.16,74.0
178.23,75.0
178.29,64.0
178.35,70.0
178.42,78.0
178.48,81.0
178.54,84.0
178.6,70.0
178.67,69.0
178.73,49.0
178.79,59.0
178.86,64.0
178.92,89.0
178.98,74.0
179.05,73.0
179.11,79.0
179.17,60.0
179.23,74.0
179.3,82.0
179.36,104.0
179.42,86.0
179.49,91.0
179.55,103.0
179.61,100.0
179.68,100.0
179.74,89.0
179.8,74.0
179.86,80.0
179.93,84.0
179.99,65.0
180.05,65.0
180.12,75.0
180.18,89.0
180.24,78.0
180.31,76.0
180.37,78.0
180.43,64.0
180.49,73.0
180.56,71.0
180.62,85.0
180.68,77.0
180.75,93.0
180.81,101.0
180.87,89.0
180.94,103.0
181.0,100.0
181.06,118.0
181.12,125.0
181.19,118.0
181.25,106.0
181.31,107.0
181.38,114.0
181.44,101.0
181.5,87.0
181.57,76.0
181.63,99.0
181.69,91.0
181.75,112.0
181.82,117.0
181.88,98.0
181.94,111.0
182.01,100.0
182.07,87.0
182.13,100.0
182.2,103.0
182.26,90.0
182.32,80.0
182.38,89.0
182.45,97.0
182.51,97.0
182.57,98.0
182.64,92.0
182.7,105.0
182.76,82.0
182.83,89.0
182.89,92.0
182.95,104.0
183.01,83.0
183.08,89.0
183.14,76.0
183.2,76.0
183.27,87.0
183.33,80.0
183.39,95.0
183.46,82.0
183.52,66.0
183.58,70.0
183.64,60.0
183.71,48.0
183.77,48.0
183.83,46.0
183.9,59.0
183.96,42.0
184.02,41.0
184.09,49.0
184.15,60.0
184.21,29.0
184.27,27.0
184.34,56.0
184.4,49.0
184.46,56.0
184.53,47.0
184.59,51.0
184.65,58.0
184.72,63.0
184.78,65.0
184.84,44.0
184.9,48.0
184.97,50.0
185.03,42.0
185.09,59.0
185.16,60.0
185.22,38.0
185.28,25.0
185.35,41.0
185.41,38.0
185.47,60.0
185.53,58.0
185.6,52.0
185.66,45.0
185.72,42.0
185.79,36.0
185.85,46.0
185.91,48.0
185.98,69.0
186.04,59.0
186.1,51.0
186.16,37.0
186.23,39.0
186.29,57.0
186.35,67.0
186.42,52.0
186.48,52.0
186.54,52.0
186.61,41.0
186.67,40.0
186.73,44.0
186.79,52.0
186.86,61.0
186.92,34.0
186.98,21.0
187.05,34.0
187.11,49.0
187.17,65.0
187.24,71.0
187.3,65.0
187.36,65.0
187.42,62.0
187.49,71.0
187.55,65.0
187.61,65.0
187.68,73.0
187.74,64.0
187.8,58.0
187.87,90.0
187.93,87.0
187.99,85.0
188.05,79.0
188.12,80.0
188.18,64.0
188.24,91.0
188.31,89.0
188.37,75.0
188.43,100.0
188.5,89.0
188.56,124.0
188.62,108.0
188.68,101.0
188.75,108.0
188.81,119.0
188.87,123.0
188.94,137.0
189.0,130.0
189.06,130.0
189.13,149.0
189.19,147.0
189.25,151.0
189.31,138.0
189.38,133.0
189.44,150.0
189.5,152.0
189.57,142.0
189.63,154.0
189.69,135.0
189.76,143.0
189.82,137.0
189.88,125.0
189.94,130.0
190.01,128.0
190.07,130.0
190.13,111.0
190.2,108.0
190.26,102.0
190.32,130.0
190.39,116.0
190.45,96.0
190.51,80.0
190.57,83.0
190.64,93.0
190.7,87.0
190.76,91.0
190.83,82.0
190.89,87.0
190.95,87.0
191.02,68.0
191.08,69.0
191.14,88.0
191.2,73.0
191.27,78.0
191.33,79.0
191.39,76.0
191.46,83.0
191.52,68.0
191.58,70.0
191.65,55.0
191.71,59.0
191.77,61.0
191.83,75.0
191.9,73.0
191.96,70.0
192.02,68.0
192.09,57.0
192.15,43.0
192.21,38.0
192.28,46.0
192.34,44.0
192.4,29.0
192.46,30.0
192.53,21.0
192.59,19.0
192.65,12.0
192.72,1.0
192.78,19.0
192.84,-3.0
192.91,0.0
192.97,6.0
193.03,5.0
193.09,-5.0
193.16,3.0
193.22,-1.0
193.28,15.0
193.35,6.0
193.41,16.0
193.47,14.0
193.54,11.0
193.6,-17.0
193.66,16.0
193.72,1.0
193.79,-2.0
193.85,18.0
193.91,16.0
193.98,9.0
194.04,-3.0
194.1,6.0
194.17,-10.0
194.23,4.0
194.29,-4.0
194.35,9.0
194.42,4.0
194.48,5.0
194.54,3.0
194.61,-16.0
194.67,11.0
194.73,17.0
194.8,7.0
194.86,20.0
194.92,1.0
194.98,21.0
195.05,6.0
195.11,15.0
195.17,21.0
195.24,18.0
195.3,28.0
195.36,45.0
195.43,37.0
195.49,7.0
195.55,14.0
195.61,44.0
195.68,40.0
195.74,54.0
195.8,64.0
195.87,52.0
195.93,40.0
195.99,33.0
196.06,20.0
196.12,47.0
196.18,44.0
196.24,43.0
196.31,52.0
196.37,46.0
196.43,69.0
196.5,92.0
196.56,91.0
196.62,83.0
196.69,86.0
196.75,81.0
196.81,69.0
196.87,74.0
196.94,77.0
197.0,112.0
197.06,103.0
197.13,90.0
197.19,104.0
197.25,87.0
197.32,96.0
197.38,88.0
197.44,92.0
197.5,109.0
197.57,117.0
197.63,106.0
197.69,98.0
197.76,119.0
197.82,113.0
197.88,119.0
197.95,129.0
198.01,117.0
198.07,110.0
198.13,118.0
198.2,127.0
198.26,111.0
198.32,102.0
198.39,102.0
198.45,101.0
198.51,134.0
198.58,110.0
198.64,97.0
198.7,94.0
198.76,103.0
198.83,96.0
198.89,91.0
198.95,103.0
199.02,111.0
199.08,116.0
199.14,108.0
199.21,116.0
199.27,113.0
199.33,123.0
199.39,119.0
199.46,125.0
199.52,120.0
199.58,131.0
199.65,142.0
199.71,140.0
199.77,126.0
199.84,134.0
199.9,139.0
199.96,124.0
200.02,126.0
200.09,142.0
200.15,135.0
200.21,128.0
200.28,139.0
200.34,142.0
200.4,150.0
200.47,153.0
200.53,169.0
200.59,140.0
200.65,133.0
200.72,130.0
200.78,124.0
200.84,116.0
200.91,125.0
200.97,114.0
201.03,104.0
201.1,105.0
201.16,99.0
201.22,88.0
201.28,76.0
201.35,100.0
201.41,98.0
201.47,91.0
201.54,88.0
201.6,91.0
201.66,92.0
201.73,70.0
201.79,95.0
201.85,80.0
201.91,83.0
201.98,71.0
202.04,79.0
202.1,80.0
202.17,82.0
202.23,93.0
202.29,83.0
202.36,101.0
202.42,87.0
202.48,78.0
202.54,89.0
202.61,80.0
202.67,89.0
202.73,79.0
202.8,90.0
202.86,106.0
202.92,115.0
202.99,106.0
203.05,111.0
203.11,119.0
203.17,125.0
203.24,114.0
203.3,112.0
203.36,127.0
203.43,142.0
203.49,120.0
203.55,120.0
203.62,125.0
203.68,120.0
203.74,136.0
203.8,116.0
203.87,139.0
203.93,168.0
203.99,140.0
204.06,138.0
204.12,151.0
204.18,123.0
204.25,132.0
204.31,153.0
204.37,167.0
204.43,159.0
204.5,147.0
204.56,156.0
204.62,153.0
204.69,151.0
204.75,161.0
204.81,167.0
204.88,186.0
204.94,211.0
205.0,200.0
205.06,199.0
205.13,205.0
205.19,213.0
205.25,209.0
205.32,207.0
205.38,219.0
205.44,205.0
205.51,209.0
205.57,218.0
205.63,204.0
205.69,211.0
205.76,204.0
205.82,201.0
205.88,218.0
205.95,212.0
206.01,202.0
206.07,214.0
206.14,212.0
206.2,206.0
206.26,198.0
206.32,202.0
206.39,212.0
206.45,214.0
206.51,204.0
206.58,211.0
206.64,204.0
206.7,199.0
206.77,198.0
206.83,213.0
206.89,199.0
206.95,193.0
207.02,194.0
207.08,181.0
207.14,166.0
207.21,178.0
207.27,170.0
207.33,169.0
207.4,186.0
207.46,169.0
207.52,165.0
207.58,166.0
207.65,182.0
207.71,184.0
207.77,181.0
207.84,152.0
207.9,172.0
207.96,167.0
208.03,153.0
208.09,173.0
208.15,150.0
208.21,158.0
208.28,155.0
208.34,151.0
208.4,177.0
208.47,177.0
208.53,159.0
208.59,157.0
208.66,172.0
208.72,160.0
208.78,158.0
208.84,164.0
208.91,140.0
208.97,132.0
209.03,132.0
209.1,131.0
209.16,134.0
209.22,117.0
209.29,117.0
209.35,127.0
209.41,101.0
209.47,100.0
209.54,108.0
209.6,97.0
209.66,103.0
209.73,75.0
209.79,99.0
209.85,105.0
209.92,90.0
209.98,74.0
210.04,70.0
210.1,75.0
210.17,62.0
210.23,68.0
210.29,76.0
210.36,39.0
210.42,62.0
210.48,67.0
210.55,81.0
210.61,65.0
210.67,43.0
210.73,54.0
210.8,61.0
210.86,58.0
210.92,52.0
210.99,32.0
211.05,17.0
211.11,25.0
211.18,25.0
211.24,29.0
211.3,32.0
211.36,39.0
211.43,53.0
211.49,33.0
211.55,34.0
211.62,39.0
211.68,32.0
211.74,68.0
211.81,67.0
211.87,62.0
211.93,66.0
211.99,76.0
212.06,76.0
212.12,75.0
212.18,63.0
212.25,53.0
212.31,56.0
212.37,51.0
212.44,55.0
212.5,73.0
212.56,62.0
212.62,65.0
212.69,57.0
212.75,48.0
212.81,51.0
212.88,37.0
212.94,61.0
213.0,59.0
213.07,61.0
213.13,62.0
213.19,54.0
213.25,56.0
213.32,61.0
213.38,59.0
213.44,54.0
213.51,71.0
213.57,53.0
213.63,60.0
213.7,56.0
213.76,51.0
213.82,54.0
213.88,61.0
213.95,50.0
214.01,70.0
214.07,55.0
214.14,73.0
214.2,58.0
214.26,49.0
214.33,69.0
214.39,65.0
214.45,67.0
214.51,58.0
214.58,47.0
214.64,60.0
214.7,65.0
214.77,61.0
214.83,64.0
214.89,65.0
214.96,63.0
215.02,51.0
215.08,58.0
215.14,66.0
215.21,50.0
215.27,61.0
215.33,81.0
215.4,80.0
215.46,57.0
215.52,76.0
215.59,100.0
215.65,84.0
215.71,87.0
215.77,81.0
215.84,89.0
215.9,87.0
215.96,100.0
216.03,112.0
216.09,89.0
216.15,100.0
216.22,92.0
216.28,90.0
216.34,81.0
216.4,87.0
216.47,70.0
216.53,56.0
216.59,87.0
216.66,92.0
216.72,87.0
216.78,68.0
216.85,65.0
216.91,66.0
216.97,57.0
217.03,59.0
217.1,53.0
217.16,46.0
217.22,37.0
217.29,25.0
217.35,13.0
217.41,26.0
217.48,10.0
217.54,11.0
217.6,17.0
217.66,20.0
217.73,28.0
217.79,6.0
217.85,13.0
217.92,24.0
217.98,12.0
218.04,17.0
218.11,23.0
218.17,17.0
218.23,-4.0
218.29,-2.0
218.36,-1.0
218.42,2.0
218.48,3.0
218.55,-20.0
218.61,-26.0
218.67,-4.0
218.74,3.0
218.8,10.0
218.86,11.0
218.92,9.0
218.99,26.0
219.05,-7.0
219.11,-2.0
219.18,0.0
219.24,17.0
219.3,14.0
219.37,1.0
219.43,12.0
219.49,29.0
219.55,12.0
219.62,27.0
219.68,41.0
219.74,30.0
219.81,31.0
219.87,64.0
219.93,63.0
220.0,62.0
220.06,67.0
220.12,74.0
220.18,90.0
220.25,80.0
220.31,78.0
220.37,86.0
220.44,95.0
220.5,109.0
220.56,78.0
220.63,80.0
220.69,86.0
220.75,90.0
220.81,79.0
220.88,91.0
220.94,94.0
221.0,104.0
221.07,111.0
221.13,96.0
221.19,114.0
221.26,110.0
221.32,108.0
221.38,90.0
221.44,113.0
221.51,137.0
221.57,129.0
221.63,141.0
221.7,128.0
221.76,117.0
221.82,126.0
221.89,133.0
221.95,136.0
222.01,157.0
222.07,152.0
222.14,146.0
222.2,144.0
222.26,160.0
222.33,144.0
222.39,146.0
222.45,170.0
222.52,165.0
222.58,154.0
222.64,165.0
222.7,181.0
222.77,185.0
222.83,190.0
222.89,189.0
222.96,185.0
223.02,171.0
223.08,167.0
223.15,175.0
223.21,171.0
223.27,168.0
223.33,169.0
223.4,153.0
223.46,163.0
223.52,146.0
223.59,142.0
223.65,150.0
223.71,138.0
223.78,142.0
223.84,130.0
223.9,116.0
223.96,135.0
224.03,134.0
224.09,151.0
224.15,124.0
224.22,121.0
224.28,133.0
224.34,146.0
224.41,129.0
224.47,140.0
224.53,145.0
224.59,130.0
224.66,143.0
224.72,153.0
224.78,133.0
224.85,131.0
224.91,123.0
224.97,119.0
225.04,120.0
225.1,117.0
225.16,117.0
225.22,128.0
225.29,111.0
225.35,111.0
225.41,113.0
225.48,118.0
225.54,121.0
225.6,131.0
225.67,125.0
225.73,96.0
225.79,122.0
225.85,137.0
225.92,129.0
225.98,119.0
226.04,110.0
226.11,139.0
226.17,125.0
226.23,112.0
226.3,116.0
226.36,108.0
226.42,81.0
226.48,80.0
226.55,88.0
226.61,92.0
226.67,77.0
226.74,85.0
226.8,96.0
226.86,89.0
226.93,73.0
226.99,78.0
227.05,81.0
227.11,72.0
227.18,77.0
227.24,79.0
227.3,84.0
227.37,76.0
227.43,83.0
227.49,86.0
227.56,76.0
227.62,84.0
227.68,70.0
227.74,81.0
227.81,69.0
227.87,68.0
227.93,59.0
228.0,55.0
228.06,66.0
228.12,64.0
228.19,56.0
228.25,53.0
228.31,54.0
228.37,45.0
228.44,44.0
228.5,36.0
228.56,40.0
228.63,47.0
228.69,38.0
228.75,34.0
228.82,27.0
228.88,44.0
228.94,30.0
229.0,33.0
229.07,23.0
229.13,23.0
229.19,20.0
229.26,33.0
229.32,56.0
229.38,34.0
229.45,54.0
229.51,54.0
229.57,36.0
229.63,28.0
229.7,53.0
229.76,36.0
229.82,44.0
229.89,48.0
229.95,38.0
230.01,42.0
230.08,45.0
230.14,45.0
230.2,56.0
230.26,59.0
230.33,56.0
230.39,48.0
230.45,61.0
230.52,61.0
230.58,72.0
230.64,84.0
230.71,47.0
230.77,63.0
230.83,67.0
230.89,91.0
230.96,81.0
231.02,78.0
231.08,75.0
231.15,73.0
231.21,54.0
231.27,56.0
231.34,51.0
231.4,55.0
231.46,63.0
231.52,57.0
231.59,70.0
231.65,54.0
231.71,57.0
231.78,81.0
231.84,94.0
231.9,83.0
231.97,69.0
232.03,83.0
232.09,89.0
232.15,83.0
232.22,83.0
232.28,63.0
232.34,64.0
232.41,88.0
232.47,65.0
232.53,82.0
232.6,69.0
232.66,70.0
232.72,64.0
232.78,48.0
232.85,50.0
232.91,72.0
232.97,53.0
233.04,65.0
233.1,39.0
233.16,61.0
233.23,74.0
233.29,76.0
233.35,73.0
233.41,68.0
233.48,51.0
233.54,52.0
233.6,48.0
233.67,50.0
233.73,48.0
233.79,33.0
233.86,27.0
233.92,24.0
233.98,10.0
234.04,-9.0
234.11,22.0
234.17,21.0
234.23,22.0
234.3,5.0
234.36,22.0
234.42,6.0
234.49,31.0
234.55,34.0
234.61,26.0
234.67,33.0
234.74,22.0
234.8,9.0
234.86,26.0
234.93,23.0
234.99,22.0
235.05,37.0
235.12,15.0
235.18,15.0
235.24,6.0
235.3,0.0
235.37,-6.0
235.43,6.0
235.49,9.0
235.56,-1.0
235.62,-2.0
235.68,9.0
235.75,11.0
235.81,4.0
235.87,9.0
235.93,-12.0
236.0,-14.0
236.06,-12.0
236.12,6.0
236.19,-25.0
236.25,-23.0
236.31,2.0
236.38,-14.0
236.44,-7.0
236.5,5.0
236.56,4.0
236.63,-5.0
236.69,10.0
236.75,-7.0
236.82,-13.0
236.88,-1.0
236.94,32.0
237.01,12.0
237.07,-1.0
237.13,21.0
237.19,22.0
237.26,34.0
237.32,16.0
237.38,18.0
237.45,23.0
237.51,20.0
237.57,48.0
237.64,44.0
237.7,51.0
237.76,51.0
237.82,54.0
237.89,39.0
237.95,40.0
238.01,38.0
238.08,26.0
238.14,51.0
238.2,54.0
238.27,38.0
238.33,38.0
238.39,21.0
238.45,17.0
238.52,16.0
238.58,29.0
238.64,49.0
238.71,28.0
238.77,34.0
238.83,27.0
238.9,29.0
238.96,43.0
239.02,48.0
239.08,46.0
239.15,64.0
239.21,68.0
239.27,70.0
239.34,49.0
239.4,78.0
239.46,73.0
239.53,89.0
239.59,82.0
239.65,72.0
239.71,63.0
239.78,68.0
239.84,96.0
239.9,90.0
239.97,93.0
240.03,94.0
240.09,86.0
240.16,89.0
240.22,95.0
240.28,78.0
240.34,85.0
240.41,101.0
240.47,98.0
240.53,86.0
240.6,83.0
240.66,124.0
240.72,114.0
240.79,106.0
240.85,110.0
240.91,104.0
240.97,103.0
241.04,96.0
241.1,113.0
241.16,101.0
241.23,93.0
241.29,92.0
241.35,109.0
241.42,116.0
241.48,94.0
241.54,111.0
241.6,108.0
241.67,104.0
241.73,89.0
241.79,97.0
241.86,108.0
241.92,92.0
241.98,95.0
242.05,120.0
242.11,93.0
242.17,99.0
242.23,96.0
242.3,86.0
242.36,91.0
242.42,80.0
242.49,85.0
242.55,88.0
242.61,92.0
242.68,82.0
242.74,79.0
242.8,81.0
242.86,84.0
242.93,75.0
242.99,65.0
243.05,64.0
243.12,71.0
243.18,90.0
243.24,65.0
243.31,58.0
243.37,71.0
243.43,46.0
243.49,61.0
243.56,67.0
243.62,37.0
243.68,27.0
243.75,42.0
243.81,16.0
243.87,19.0
243.94,24.0
244.0,39.0
244.06,36.0
244.12,34.0
244.19,52.0
244.25,40.0
244.31,49.0
244.38,46.0
244.44,63.0
244.5,55.0
244.57,45.0
244.63,40.0
244.69,43.0
244.75,68.0
244.82,53.0
244.88,31.0
244.94,21.0
245.01,18.0
245.07,34.0
245.13,31.0
245.2,30.0
245.26,25.0
245.32,32.0
245.38,63.0
245.45,74.0
245.51,81.0
245.57,61.0
245.64,56.0
245.7,55.0
245.76,54.0
245.83,53.0
245.89,57.0
245.95,29.0
246.01,50.0
246.08,43.0
246.14,45.0
246.2,59.0
246.27,54.0
246.33,75.0
246.39,61.0
246.46,60.0
246.52,38.0
246.58,70.0
246.64,58.0
246.71,72.0
246.77,59.0
246.83,46.0
246.9,53.0
246.96,83.0
247.02,70.0
247.09,67.0
247.15,77.0
247.21,73.0
247.27,70.0
247.34,57.0
247.4,90.0
247.46,96.0
247.53,89.0
247.59,91.0
247.65,110.0
247.72,90.0
247.78,94.0
247.84,85.0
247.9,90.0
247.97,89.0
248.03,78.0
248.09,91.0
248.16,79.0
248.22,70.0
248.28,67.0
248.35,84.0
248.41,82.0
248.47,77.0
248.53,87.0
248.6,78.0
248.66,86.0
248.72,76.0
248.79,78.0
248.85,98.0
248.91,108.0
248.98,93.0
249.04,93.0
249.1,84.0
249.16,100.0
249.23,106.0
249.29,112.0
249.35,118.0
249.42,115.0
249.48,103.0
249.54,99.0
249.61,104.0
249.67,101.0
249.73,96.0
249.79,98.0
249.86,86.0
249.92,82.0
249.98,82.0
250.05,84.0
250.11,86.0
250.17,97.0
250.24,104.0
250.3,101.0
250.36,106.0
250.42,90.0
250.49,87.0
250.55,84.0
250.61,59.0
250.68,62.0
250.74,90.0
250.8,82.0
250.87,95.0
250.93,85.0
250.99,71.0
251.05,62.0
251.12,72.0
251.18,69.0
251.24,70.0
251.31,69.0
251.37,69.0
251.43,65.0
251.5,61.0
251.56,34.0
251.62,50.0
251.68,49.0
251.75,49.0
251.81,41.0
251.87,43.0
251.94,54.0
252.0,57.0
252.06,49.0
252.13,51.0
252.19,52.0
252.25,52.0
252.31,51.0
252.38,44.0
252.44,52.0
252.5,49.0
252.57,33.0
252.63,35.0
252.69,52.0
252.76,71.0
252.82,57.0
252.88,60.0
252.94,34.0
253.01,35.0
253.07,38.0
253.13,33.0
253.2,45.0
253.26,46.0
253.32,42.0
253.39,61.0
253.45,67.0
253.51,80.0
253.57,90.0
253.64,61.0
253.7,58.0
253.76,50.0
253.83,53.0
253.89,54.0
253.95,45.0
254.02,48.0
254.08,41.0
254.14,45.0
254.2,18.0
254.27,45.0
254.33,45.0
254.39,36.0
254.46,58.0
254.52,69.0
254.58,63.0
254.65,62.0
254.71,73.0
254.77,71.0
254.83,67.0
254.9,67.0
254.96,73.0
255.02,81.0
255.09,93.0
255.15,90.0
255.21,112.0
255.28,98.0
255.34,86.0
255.4,97.0
255.46,90.0
255.53,100.0
255.59,84.0
255.65,105.0
255.72,123.0
255.78,104.0
255.84,105.0
255.91,120.0
255.97,124.0
256.03,137.0
256.09,156.0
256.16,125.0
256.22,157.0
256.28,147.0
256.35,153.0
256.41,157.0
256.47,166.0
256.54,158.0
256.6,153.0
256.66,172.0
256.72,160.0
256.79,158.0
256.85,147.0
256.91,150.0
256.98,169.0
257.04,157.0
257.1,150.0
257.17,156.0
257.23,161.0
257.29,149.0
257.35,173.0
257.42,168.0
257.48,151.0
257.54,156.0
257.61,153.0
257.67,162.0
257.73,172.0
257.8,147.0
257.86,140.0
257.92,137.0
257.98,162.0
258.05,149.0
258.11,152.0
258.17,163.0
258.24,155.0
258.3,155.0
258.36,150.0
258.43,146.0
258.49,167.0
258.55,176.0
258.61,170.0
258.68,154.0
258.74,133.0
258.8,128.0
258.87,126.0
258.93,137.0
258.99,130.0
259.06,136.0
259.12,132.0
259.18,136.0
259.24,120.0
259.31,119.0
259.37,137.0
259.43,117.0
259.5,112.0
259.56,102.0
259.62,107.0
259.69,127.0
259.75,115.0
259.81,100.0
259.87,106.0
259.94,118.0
260.0,106.0
260.06,115.0
260.13,107.0
260.19,105.0
260.25,97.0
260.32,93.0
260.38,104.0
260.44,84.0
260.5,98.0
260.57,95.0
260.63,101.0
260.69,93.0
260.76,76.0
260.82,95.0
260.88,82.0
260.95,86.0
261.01,77.0
261.07,74.0
261.13,80.0
261.2,81.0
261.26,87.0
261.32,94.0
261.39,82.0
261.45,70.0
261.51,48.0
261.58,54.0
261.64,58.0
261.7,81.0
261.76,74.0
261.83,69.0
261.89,80.0
261.95,64.0
262.02,71.0
262.08,72.0
262.14,59.0
262.21,77.0
262.27,76.0
262.33,68.0
262.39,63.0
262.46,75.0
262.52,74.0
262.58,76.0
262.65,75.0
262.71,59.0
262.77,67.0
262.84,71.0
262.9,83.0
262.96,85.0
263.02,104.0
263.09,95.0
263.15,87.0
263.21,92.0
263.28,74.0
263.34,58.0
263.4,75.0
263.47,75.0
263.53,82.0
263.59,66.0
263.65,61.0
263.72,74.0
263.78,71.0
263.84,67.0
263.91,78.0
263.97,57.0
264.03,71.0
264.1,81.0
264.16,27.0
264.22,34.0
264.28,59.0
264.35,27.0
264.41,59.0
264.47,54.0
264.54,45.0
264.6,53.0
264.66,54.0
264.73,62.0
264.79,52.0
264.85,60.0
264.91,54.0
264.98,55.0
265.04,56.0
265.1,50.0
265.17,53.0
265.23,49.0
265.29,69.0
265.36,74.0
265.42,99.0
265.48,93.0
265.54,74.0
265.61,71.0
265.67,94.0
265.73,95.0
265.8,81.0
265.86,94.0
265.92,101.0
265.99,104.0
266.05,107.0
266.11,120.0
266.17,111.0
266.24,120.0
266.3,128.0
266.36,121.0
266.43,113.0
266.49,116.0
266.55,108.0
266.62,107.0
266.68,98.0
266.74,118.0
266.8,100.0
266.87,113.0
266.93,101.0
266.99,112.0
267.06,116.0
267.12,102.0
267.18,90.0
267.25,107.0
267.31,106.0
267.37,115.0
267.43,121.0
267.5,111.0
267.56,116.0
267.62,115.0
267.69,112.0
267.75,97.0
267.81,116.0
267.88,131.0
267.94,109.0
268.0,106.0
268.06,100.0
268.13,90.0
268.19,74.0
268.25,50.0
268.32,65.0
268.38,66.0
268.44,62.0
268.51,81.0
268.57,56.0
268.63,58.0
268.69,54.0
268.76,59.0
268.82,86.0
268.88,66.0
268.95,58.0
269.01,78.0
269.07,68.0
269.14,65.0
269.2,50.0
269.26,53.0
269.32,38.0
269.39,47.0
269.45,62.0
269.51,39.0
269.58,54.0
269.64,17.0
269.7,27.0
269.77,56.0
269.83,40.0
269.89,54.0
269.95,65.0
270.02,60.0
270.08,34.0
270.14,66.0
270.21,58.0
270.27,64.0
270.33,74.0
270.4,68.0
270.46,51.0
270.52,47.0
270.58,70.0
270.65,68.0
270.71,93.0
270.77,84.0
270.84,91.0
270.9,82.0
270.96,65.0
271.03,101.0
271.09,107.0
271.15,114.0
271.21,119.0
271.28,113.0
271.34,124.0
271.4,122.0
271.47,132.0
271.53,114.0
271.59,128.0
271.66,121.0
271.72,104.0
271.78,126.0
271.84,106.0
271.91,92.0
271.97,88.0
272.03,101.0
272.1,111.0
272.16,104.0
272.22,114.0
272.29,123.0
272.35,120.0
272.41,118.0
272.47,138.0
272.54,137.0
272.6,161.0
272.66,160.0
272.73,162.0
272.79,172.0
272.85,175.0
272.92,167.0
272.98,170.0
273.04,167.0
273.1,168.0
273.17,164.0
273.23,177.0
273.29,191.0
273.36,201.0
273.42,188.0
273.48,190.0
273.55,181.0
273.61,178.0
273.67,189.0
273.73,194.0
273.8,187.0
273.86,171.0
273.92,184.0
273.99,176.0
274.05,172.0
274.11,177.0
274.18,153.0
274.24,141.0
274.3,148.0
274.36,164.0
274.43,145.0
274.49,133.0
274.55,132.0
274.62,130.0
274.68,143.0
274.74,156.0
274.81,139.0
274.87,151.0
274.93,137.0
274.99,144.0
275.06,163.0
275.12,157.0
275.18,142.0
275.25,146.0
275.31,155.0
275.37,171.0
275.44,179.0
275.5,160.0
275.56,158.0
275.62,159.0
275.69,139.0
275.75,138.0
275.81,139.0
275.88,161.0
275.94,156.0
276.0,153.0
276.07,148.0
276.13,139.0
276.19,135.0
276.25,131.0
276.32,128.0
276.38,142.0
276.44,143.0
276.51,148.0
276.57,156.0
276.63,130.0
276.7,125.0
276.76,118.0
276.82,136.0
276.88,111.0
276.95,144.0
277.01,147.0
277.07,142.0
277.14,141.0
277.2,135.0
277.26,131.0
277.33,136.0
277.39,128.0
277.45,115.0
277.51,115.0
277.58,119.0
277.64,123.0
277.7,122.0
277.77,119.0
277.83,115.0
277.89,99.0
277.96,108.0
278.02,131.0
278.08,130.0
278.14,124.0
278.21,108.0
278.27,98.0
278.33,115.0
278.4,87.0
278.46,93.0
278.52,87.0
278.59,81.0
278.65,96.0
278.71,77.0
278.77,63.0
278.84,60.0
278.9,74.0
278.96,94.0
279.03,82.0
279.09,76.0
279.15,101.0
279.22,90.0
279.28,68.0
279.34,84.0
279.4,73.0
279.47,93.0
279.53,84.0
279.59,101.0
279.66,91.0
279.72,92.0
279.78,85.0
279.85,68.0
279.91,81.0
279.97,61.0
280.03,62.0
280.1,60.0
280.16,39.0
280.22,29.0
280.29,38.0
280.35,32.0
280.41,31.0
280.48,48.0
280.54,45.0
280.6,42.0
280.66,33.0
280.73,61.0
280.79,58.0
280.85,46.0
280.92,71.0
280.98,72.0
281.04,64.0
281.11,74.0
281.17,78.0
281.23,86.0
281.29,75.0
281.36,62.0
281.42,53.0
281.48,49.0
281.55,78.0
281.61,73.0
281.67,50.0
281.74,89.0
281.8,76.0
281.86,54.0
281.92,65.0
281.99,84.0
282.05,85.0
282.11,90.0
282.18,81.0
282.24,52.0
282.3,52.0
282.37,49.0
282.43,59.0
282.49,64.0
282.55,54.0
282.62,67.0
282.68,82.0
282.74,85.0
282.81,75.0
282.87,44.0
282.93,39.0
283.0,72.0
283.06,58.0
283.12,53.0
283.18,52.0
283.25,64.0
283.31,58.0
283.37,48.0
283.44,41.0
283.5,39.0
283.56,50.0
283.63,53.0
283.69,72.0
283.75,70.0
283.81,60.0
283.88,50.0
283.94,62.0
284.0,56.0
284.07,55.0
284.13,42.0
284.19,27.0
284.26,26.0
284.32,42.0
284.38,34.0
284.44,27.0
284.51,42.0
284.57,43.0
284.63,42.0
284.7,27.0
284.76,12.0
284.82,15.0
284.89,27.0
284.95,26.0
285.01,26.0
285.07,35.0
285.14,27.0
285.2,46.0
285.26,28.0
285.33,19.0
285.39,19.0
285.45,1.0
285.52,9.0
285.58,10.0
285.64,16.0
285.7,2.0
285.77,15.0
285.83,15.0
285.89,-2.0
285.96,21.0
286.02,10.0
286.08,5.0
286.15,37.0
286.21,37.0
286.27,10.0
286.33,10.0
286.4,16.0
286.46,29.0
286.52,11.0
286.59,26.0
286.65,33.0
286.71,30.0
286.78,40.0
286.84,44.0
286.9,13.0
286.96,1.0
287.03,5.0
287.09,4.0
287.15,16.0
287.22,15.0
287.28,-14.0
287.34,-6.0
287.41,-4.0
287.47,3.0
287.53,6.0
287.59,9.0
287.66,-2.0
287.72,23.0
287.78,25.0
287.85,21.0
287.91,31.0
287.97,17.0
288.04,46.0
288.1,27.0
288.16,24.0
288.22,36.0
288.29,22.0
288.35,41.0
288.41,48.0
288.48,50.0
288.54,47.0
288.6,40.0
288.67,50.0
288.73,81.0
288.79,67.0
288.85,55.0
288.92,74.0
288.98,70.0
289.04,64.0
289.11,63.0
289.17,55.0
289.23,54.0
289.3,64.0
289.36,53.0
289.42,38.0
289.48,36.0
289.55,17.0
289.61,38.0
289.67,61.0
289.74,56.0
289.8,44.0
289.86,53.0
289.93,62.0
289.99,73.0
290.05,64.0
290.11,75.0
290.18,85.0
290.24,56.0
290.3,65.0
290.37,83.0
290.43,64.0
290.49,71.0
290.56,71.0
290.62,72.0
290.68,73.0
290.74,64.0
290.81,71.0
290.87,80.0
290.93,74.0
291.0,69.0
291.06,73.0
291.12,72.0
291.19,101.0
291.25,78.0
291.31,67.0
291.37,103.0
291.44,111.0
291.5,105.0
291.56,106.0
291.63,81.0
291.69,98.0
291.75,95.0
291.82,83.0
291.88,77.0
291.94,82.0
292.0,97.0
292.07,86.0
292.13,93.0
292.19,91.0
292.26,102.0
292.32,105.0
292.38,95.0
292.45,115.0
292.51,123.0
292.57,111.0
292.63,112.0
292.7,123.0
292.76,127.0
292.82,131.0
292.89,126.0
292.95,134.0
293.01,124.0
293.08,111.0
293.14,115.0
293.2,112.0
293.26,125.0
293.33,104.0
293.39,143.0
293.45,128.0
293.52,121.0
293.58,132.0
293.64,128.0
293.71,105.0
293.77,100.0
293.83,108.0
293.89,118.0
293.96,109.0
294.02,100.0
294.08,100.0
294.15,100.0
294.21,94.0
294.27,94.0
294.34,107.0
294.4,94.0
294.46,93.0
294.52,74.0
294.59,86.0
294.65,80.0
294.71,101.0
294.78,112.0
294.84,104.0
294.9,107.0
294.97,105.0
295.03,104.0
295.09,99.0
295.15,101.0
295.22,88.0
295.28,82.0
295.34,93.0
295.41,79.0
295.47,80.0
295.53,80.0
295.6,79.0
295.66,96.0
295.72,93.0
295.78,107.0
295.85,98.0
295.91,91.0
295.97,103.0
296.04,86.0
296.1,91.0
296.16,99.0
296.23,101.0
296.29,74.0
296.35,61.0
296.41,81.0
296.48,74.0
296.54,78.0
296.6,78.0
296.67,74.0
296.73,59.0
296.79,67.0
296.86,77.0
296.92,85.0
296.98,65.0
297.04,69.0
297.11,72.0
297.17,88.0
297.23,71.0
297.3,74.0
297.36,67.0
297.42,76.0
297.49,71.0
297.55,61.0
297.61,80.0
297.67,55.0
297.74,44.0
297.8,52.0
297.86,67.0
297.93,69.0
297.99,76.0
298.05,68.0
298.12,84.0
298.18,65.0
298.24,79.0
298.3,66.0
298.37,58.0
298.43,61.0
298.49,77.0
298.56,79.0
298.62,64.0
298.68,58.0
298.75,56.0
298.81,56.0
298.87,49.0
298.93,36.0
299.0,36.0
299.06,63.0
299.12,62.0
299.19,62.0
299.25,53.0
299.31,55.0
299.38,68.0
299.44,77.0
299.5,58.0
299.56,44.0
299.63,69.0
299.69,79.0
299.75,71.0
299.82,79.0
299.88,57.0
299.94,61.0
300.01,60.0
300.07,63.0
300.13,86.0
300.19,67.0
300.26,56.0
300.32,71.0
300.38,83.0
300.45,95.0
300.51,78.0
300.57,75.0
300.64,62.0
300.7,74.0
300.76,76.0
300.82,49.0
300.89,39.0
300.95,46.0
301.01,32.0
301.08,48.0
301.14,54.0
301.2,43.0
301.27,34.0
301.33,43.0
301.39,33.0
301.45,40.0
301.52,27.0
301.58,6.0
301.64,3.0
301.71,1.0
301.77,6.0
301.83,16.0
301.9,13.0
301.96,7.0
302.02,18.0
302.08,13.0
302.15,16.0
302.21,31.0
302.27,30.0
302.34,27.0
302.4,26.0
302.46,38.0
302.53,54.0
302.59,42.0
302.65,31.0
302.71,23.0
302.78,17.0
302.84,27.0
302.9,36.0
302.97,29.0
303.03,42.0
303.09,42.0
303.16,36.0
303.22,49.0
303.28,47.0
303.34,42.0
303.41,35.0
303.47,22.0
303.53,44.0
303.6,36.0
303.66,28.0
303.72,45.0
303.79,46.0
303.85,61.0
303.91,54.0
303.97,43.0
304.04,74.0
304.1,60.0
304.16,65.0
304.23,58.0
304.29,67.0
304.35,58.0
304.42,56.0
304.48,49.0
304.54,56.0
304.6,47.0
304.67,47.0
304.73,41.0
304.79,31.0
304.86,36.0
304.92,40.0
304.98,44.0
305.05,44.0
305.11,51.0
305.17,43.0
305.23,86.0
305.3,71.0
305.36,52.0
305.42,64.0
305.49,68.0
305.55,79.0
305.61,99.0
305.68,113.0
305.74,99.0
305.8,104.0
305.86,102.0
305.93,94.0
305.99,84.0
306.05,97.0
306.12,96.0
306.18,96.0
306.24,86.0
306.31,108.0
306.37,92.0
306.43,100.0
306.49,119.0
306.56,119.0
306.62,137.0
306.68,130.0
306.75,114.0
306.81,123.0
306.87,140.0
306.94,131.0
307.0,133.0
307.06,135.0
307.12,149.0
307.19,156.0
307.25,177.0
307.31,174.0
307.38,164.0
307.44,188.0
307.5,176.0
307.57,173.0
307.63,165.0
307.69,163.0
307.75,168.0
307.82,162.0
307.88,150.0
307.94,152.0
308.01,156.0
308.07,160.0
308.13,163.0
308.2,166.0
308.26,151.0
308.32,173.0
308.38,177.0
308.45,170.0
308.51,169.0
308.57,165.0
308.64,180.0
308.7,175.0
308.76,163.0
308.83,188.0
308.89,170.0
308.95,161.0
309.01,194.0
309.08,190.0
309.14,189.0
309.2,213.0
309.27,198.0
309.33,193.0
309.39,181.0
309.46,182.0
309.52,198.0
309.58,197.0
309.64,203.0
309.71,182.0
309.77,177.0
309.83,187.0
309.9,188.0
309.96,196.0
310.02,201.0
310.09,200.0
310.15,202.0
310.21,209.0
310.27,207.0
310.34,202.0
310.4,191.0
310.46,212.0
310.53,195.0
310.59,173.0
310.65,166.0
310.72,168.0
310.78,175.0
310.84,155.0
310.9,172.0
310.97,175.0
311.03,157.0
311.09,152.0
311.16,152.0
311.22,171.0
311.28,177.0
311.35,172.0
311.41,170.0
311.47,158.0
311.53,151.0
311.6,176.0
311.66,173.0
311.72,160.0
311.79,159.0
311.85,162.0
311.91,155.0
311.98,156.0
312.04,139.0
312.1,149.0
312.16,149.0
312.23,127.0
312.29,133.0
312.35,116.0
312.42,129.0
312.48,140.0
312.54,138.0
312.61,146.0
312.67,134.0
312.73,124.0
312.79,120.0
312.86,133.0
312.92,117.0
312.98,110.0
313.05,124.0
313.11,111.0
313.17,114.0
313.24,119.0
313.3,98.0
313.36,90.0
313.42,75.0
313.49,94.0
313.55,108.0
313.61,94.0
313.68,96.0
313.74,99.0
313.8,99.0
313.87,89.0
313.93,86.0
313.99,81.0
314.05,72.0
314.12,67.0
314.18,75.0
314.24,83.0
314.31,109.0
314.37,106.0
314.43,90.0
314.5,90.0
314.56,100.0
314.62,108.0
314.68,100.0
314.75,96.0
314.81,88.0
314.87,111.0
314.94,110.0
315.0,93.0
315.06,82.0
315.13,105.0
315.19,118.0
315.25,113.0
315.31,132.0
315.38,133.0
315.44,112.0
315.5,107.0
315.57,118.0
315.63,111.0
315.69,112.0
315.76,117.0
315.82,105.0
315.88,99.0
315.94,115.0
316.01,109.0
316.07,97.0
316.13,91.0
316.2,90.0
316.26,96.0
316.32,99.0
316.39,105.0
316.45,86.0
316.51,96.0
316.57,93.0
316.64,84.0
316.7,107.0
316.76,91.0
316.83,90.0
316.89,96.0
316.95,109.0
317.02,92.0
317.08,98.0
317.14,115.0
317.2,95.0
317.27,86.0
317.33,71.0
317.39,93.0
317.46,66.0
317.52,60.0
317.58,65.0
317.65,80.0
317.71,85.0
317.77,68.0
317.83,98.0
317.9,90.0
317.96,93.0
318.02,84.0
318.09,54.0
318.15,68.0
318.21,62.0
318.28,63.0
318.34,55.0
318.4,67.0
318.46,67.0
318.53,60.0
318.59,85.0
318.65,85.0
318.72,85.0
318.78,97.0
318.84,87.0
318.91,66.0
318.97,58.0
319.03,58.0
319.09,61.0
319.16,65.0
319.22,62.0
319.28,53.0
319.35,41.0
319.41,46.0
319.47,51.0
319.54,67.0
319.6,67.0
319.66,40.0
319.72,40.0
319.79,75.0
319.85,73.0
319.91,66.0
319.98,60.0
320.04,60.0
320.1,67.0
320.17,64.0
320.23,59.0
320.29,49.0
320.35,40.0
320.42,42.0
320.48,40.0
320.54,36.0
320.61,29.0
320.67,26.0
320.73,35.0
320.8,23.0
320.86,51.0
320.92,55.0
320.98,53.0
321.05,44.0
321.11,59.0
321.17,62.0
321.24,62.0
321.3,63.0
321.36,79.0
321.43,67.0
321.49,62.0
321.55,52.0
321.61,69.0
321.68,75.0
321.74,64.0
321.8,56.0
321.87,58.0
321.93,68.0
321.99,51.0
322.06,55.0
322.12,68.0
322.18,75.0
322.24,75.0
322.31,80.0
322.37,72.0
322.43,64.0
322.5,69.0
322.56,66.0
322.62,60.0
322.69,77.0
322.75,75.0
322.81,67.0
322.87,82.0
322.94,72.0
323.0,71.0
323.06,66.0
323.13,80.0
323.19,61.0
323.25,49.0
323.32,61.0
323.38,88.0
323.44,86.0
323.5,75.0
323.57,85.0
323.63,82.0
323.69,75.0
323.76,66.0
323.82,78.0
323.88,73.0
323.95,88.0
324.01,79.0
324.07,97.0
324.13,102.0
324.2,96.0
324.26,95.0
324.32,88.0
324.39,93.0
324.45,105.0
324.51,103.0
324.58,100.0
324.64,95.0
324.7,90.0
324.76,114.0
324.83,125.0
324.89,121.0
324.95,98.0
325.02,122.0
325.08,141.0
325.14,126.0
325.21,134.0
325.27,133.0
325.33,135.0
325.39,131.0
325.46,166.0
325.52,162.0
325.58,156.0
325.65,159.0
325.71,153.0
325.77,149.0
325.84,138.0
325.9,156.0
325.96,141.0
326.02,133.0
326.09,119.0
326.15,115.0
326.21,134.0
326.28,145.0
326.34,138.0
326.4,141.0
326.47,122.0
326.53,101.0
326.59,130.0
326.65,134.0
326.72,139.0
326.78,105.0
326.84,109.0
326.91,111.0
326.97,104.0
327.03,104.0
327.1,124.0
327.16,110.0
327.22,116.0
327.28,123.0
327.35,97.0
327.41,111.0
327.47,102.0
327.54,116.0
327.6,131.0
327.66,115.0
327.73,116.0
327.79,115.0
327.85,127.0
327.91,134.0
327.98,115.0
328.04,98.0
328.1,95.0
328.17,127.0
328.23,115.0
328.29,107.0
328.36,115.0
328.42,129.0
328.48,119.0
328.54,104.0
328.61,131.0
328.67,126.0
328.73,105.0
328.8,95.0
328.86,83.0
328.92,103.0
328.99,82.0
329.05,89.0
329.11,97.0
329.17,86.0
329.24,97.0
329.3,91.0
329.36,70.0
329.43,73.0
329.49,79.0
329.55,78.0
329.62,72.0
329.68,58.0
329.74,50.0
329.8,46.0
329.87,42.0
329.93,49.0
329.99,58.0
330.06,62.0
330.12,52.0
330.18,37.0
330.25,67.0
330.31,68.0
330.37,75.0
330.43,72.0
330.5,70.0
330.56,56.0
330.62,53.0
330.69,52.0
330.75,73.0
330.81,75.0
330.88,58.0
330.94,66.0
331.0,55.0
331.06,74.0
331.13,68.0
331.19,56.0
331.25,53.0
331.32,16.0
331.38,20.0
331.44,46.0
331.51,31.0
331.57,46.0
331.63,31.0
331.69,36.0
331.76,40.0
331.82,24.0
331.88,41.0
331.95,34.0
332.01,21.0
332.07,41.0
332.14,41.0
332.2,50.0
332.26,41.0
332.32,28.0
332.39,47.0
332.45,24.0
332.51,21.0
332.58,42.0
332.64,46.0
332.7,33.0
332.77,44.0
332.83,33.0
332.89,33.0
332.95,38.0
333.02,53.0
333.08,60.0
333.14,54.0
333.21,59.0
333.27,54.0
333.33,55.0
333.4,60.0
333.46,43.0
333.52,52.0
333.58,48.0
333.65,41.0
333.71,82.0
333.77,47.0
333.84,53.0
333.9,61.0
333.96,79.0
334.03,77.0
334.09,68.0
334.15,80.0
334.21,67.0
334.28,69.0
334.34,70.0
334.4,71.0
334.47,72.0
334.53,53.0
334.59,55.0
334.66,66.0
334.72,45.0
334.78,52.0
334.84,58.0
334.91,53.0
334.97,45.0
335.03,41.0
335.1,36.0
335.16,56.0
335.22,59.0
335.29,43.0
335.35,46.0
335.41,64.0
335.47,64.0
335.54,33.0
335.6,28.0
335.66,33.0
335.73,23.0
335.79,38.0
335.85,62.0
335.92,47.0
335.98,43.0
336.04,51.0
336.1,34.0
336.17,31.0
336.23,34.0
336.29,38.0
336.36,29.0
336.42,32.0
336.48,36.0
336.55,32.0
336.61,50.0
336.67,35.0
336.73,44.0
336.8,42.0
336.86,49.0
336.92,44.0
336.99,50.0
337.05,54.0
337.11,53.0
337.18,53.0
337.24,47.0
337.3,59.0
337.36,56.0
337.43,66.0
337.49,61.0
337.55,71.0
337.62,66.0
337.68,86.0
337.74,73.0
337.81,55.0
337.87,81.0
337.93,50.0
337.99,56.0
338.06,61.0
338.12,81.0
338.18,68.0
338.25,71.0
338.31,64.0
338.37,51.0
338.44,57.0
338.5,56.0
338.56,53.0
338.62,54.0
338.69,42.0
338.75,55.0
338.81,74.0
338.88,58.0
338.94,74.0
339.0,67.0
339.07,71.0
339.13,66.0
339.19,68.0
339.25,81.0
339.32,69.0
339.38,72.0
339.44,91.0
339.51,75.0
339.57,66.0
339.63,76.0
339.7,75.0
339.76,87.0
339.82,93.0
339.88,78.0
339.95,73.0
340.01,99.0
340.07,94.0
340.14,75.0
340.2,88.0
340.26,99.0
340.33,107.0
340.39,108.0
340.45,99.0
340.51,100.0
340.58,109.0
340.64,107.0
340.7,117.0
340.77,86.0
340.83,85.0
340.89,87.0
340.96,87.0
341.02,97.0
341.08,76.0
341.14,78.0
341.21,76.0
341.27,58.0
341.33,60.0
341.4,86.0
341.46,102.0
341.52,113.0
341.59,104.0
341.65,125.0
341.71,118.0
341.77,119.0
341.84,111.0
341.9,111.0
341.96,130.0
342.03,117.0
342.09,97.0
342.15,104.0
342.22,105.0
342.28,102.0
342.34,86.0
342.4,103.0
342.47,101.0
342.53,106.0
342.59,115.0
342.66,97.0
342.72,75.0
342.78,80.0
342.85,89.0
342.91,98.0
342.97,75.0
343.03,68.0
343.1,96.0
343.16,92.0
343.22,96.0
343.29,71.0
343.35,88.0
343.41,94.0
343.48,86.0
343.54,89.0
343.6,92.0
343.66,116.0
343.73,108.0
343.79,122.0
343.85,116.0
343.92,119.0
343.98,90.0
344.04,103.0
344.11,112.0
344.17,88.0
344.23,82.0
344.29,87.0
344.36,86.0
344.42,78.0
344.48,67.0
344.55,98.0
344.61,87.0
344.67,76.0
344.74,115.0
344.8,122.0
344.86,106.0
344.92,105.0
344.99,115.0
345.05,90.0
345.11,106.0
345.18,102.0
345.24,90.0
345.3,99.0
345.37,81.0
345.43,56.0
345.49,64.0
345.55,64.0
345.62,63.0
345.68,72.0
345.74,73.0
345.81,80.0
345.87,79.0
345.93,52.0
346.0,46.0
346.06,49.0
346.12,41.0
346.18,50.0
346.25,52.0
346.31,17.0
346.37,48.0
346.44,50.0
346.5,45.0
346.56,38.0
346.63,27.0
346.69,25.0
346.75,42.0
346.81,13.0
346.88,9.0
346.94,-2.0
347.0,9.0
347.07,23.0
347.13,10.0
347.19,22.0
347.26,10.0
347.32,0.0
347.38,6.0
347.44,8.0
347.51,8.0
347.57,1.0
347.63,9.0
347.7,20.0
347.76,11.0
347.82,23.0
347.89,15.0
347.95,31.0
348.01,14.0
348.07,24.0
348.14,27.0
348.2,0.0
348.26,22.0
348.33,33.0
348.39,44.0
348.45,36.0
348.52,48.0
348.58,49.0
348.64,45.0
348.7,25.0
348.77,44.0
348.83,60.0
348.89,48.0
348.96,61.0
349.02,50.0
349.08,69.0
349.15,53.0
349.21,37.0
349.27,36.0
349.33,57.0
349.4,54.0
349.46,50.0
349.52,53.0
349.59,52.0
349.65,72.0
349.71,59.0
349.78,65.0
349.84,44.0
349.9,69.0
349.96,55.0
350.03,42.0
350.09,38.0
350.15,50.0
350.22,49.0
350.28,53.0
350.34,58.0
350.41,53.0
350.47,45.0
350.53,41.0
350.59,57.0
350.66,60.0
350.72,57.0
350.78,53.0
350.85,59.0
350.91,69.0
350.97,52.0
351.04,69.0
351.1,74.0
351.16,70.0
351.22,45.0
351.29,60.0
351.35,53.0
351.41,57.0
351.48,54.0
351.54,58.0
351.6,45.0
351.67,58.0
351.73,45.0
351.79,38.0
351.85,49.0
351.92,41.0
351.98,63.0
352.04,63.0
352.11,59.0
352.17,70.0
352.23,58.0
352.3,52.0
352.36,56.0
352.42,41.0
352.48,46.0
352.55,34.0
352.61,25.0
352.67,36.0
352.74,20.0
352.8,29.0
352.86,41.0
352.93,50.0
352.99,36.0
353.05,28.0
353.11,33.0
353.18,25.0
353.24,18.0
353.3,22.0
353.37,12.0
353.43,14.0
353.49,-1.0
353.56,-2.0
353.62,-2.0
353.68,10.0
353.74,5.0
353.81,14.0
353.87,18.0
353.93,19.0
354.0,37.0
354.06,25.0
354.12,50.0
354.19,62.0
354.25,44.0
354.31,48.0
354.37,55.0
354.44,61.0
354.5,51.0
354.56,52.0
354.63,54.0
354.69,41.0
354.75,36.0
354.82,36.0
354.88,49.0
354.94,47.0
355.0,58.0
355.07,48.0
355.13,35.0
355.19,54.0
355.26,53.0
355.32,54.0
355.38,52.0
355.45,49.0
355.51,55.0
355.57,58.0
355.63,54.0
355.7,78.0
355.76,81.0
355.82,65.0
355.89,71.0
355.95,83.0
356.01,90.0
356.08,87.0
356.14,92.0
356.2,98.0
356.26,81.0
356.33,98.0
356.39,96.0
356.45,89.0
356.52,92.0
356.58,82.0
356.64,94.0
356.71,115.0
356.77,98.0
356.83,120.0
356.89,103.0
356.96,101.0
357.02,109.0
357.08,98.0
357.15,94.0
357.21,109.0
357.27,103.0
357.34,98.0
357.4,121.0
357.46,114.0
357.52,120.0
357.59,138.0
357.65,120.0
357.71,99.0
357.78,106.0
357.84,139.0
357.9,140.0
357.97,130.0
358.03,120.0
358.09,133.0
358.15,145.0
358.22,148.0
358.28,146.0
358.34,133.0
358.41,123.0
358.47,140.0
358.53,138.0
358.6,132.0
358.66,144.0
358.72,139.0
358.78,129.0
358.85,140.0
358.91,154.0
358.97,160.0
359.04,158.0
359.1,173.0
359.16,171.0
359.23,156.0
359.29,158.0
359.35,191.0
359.41,168.0
359.48,157.0
359.54,177.0
359.6,181.0
359.67,185.0
359.73,168.0
359.79,180.0
359.86,203.0
359.92,196.0
359.98,200.0
360.04,202.0
360.11,189.0
360.17,183.0
360.23,182.0
360.3,175.0
360.36,170.0
360.42,169.0
360.49,191.0
360.55,194.0
360.61,186.0
360.67,190.0
360.74,201.0
360.8,200.0
360.86,177.0
360.93,179.0
360.99,173.0
361.05,186.0
361.12,189.0
361.18,190.0
361.24,186.0
361.3,202.0
361.37,197.0
361.43,197.0
361.49,201.0
361.56,200.0
361.62,193.0
361.68,182.0
361.75,199.0
361.81,177.0
361.87,158.0
361.93,192.0
362.0,164.0
362.06,161.0
362.12,167.0
362.19,155.0
362.25,160.0
362.31,168.0
362.38,165.0
362.44,157.0
362.5,136.0
362.56,140.0
362.63,151.0
362.69,145.0
362.75,125.0
362.82,146.0
362.88,144.0
362.94,140.0
363.01,139.0
363.07,124.0
363.13,132.0
363.19,138.0
363.26,138.0
363.32,127.0
363.38,147.0
363.45,130.0
363.51,139.0
363.57,142.0
363.64,132.0
363.7,150.0
363.76,114.0
363.82,133.0
363.89,145.0
363.95,142.0
364.01,147.0
364.08,117.0
364.14,144.0
364.2,153.0
364.27,141.0
364.33,160.0
364.39,162.0
364.45,153.0
364.52,164.0
364.58,145.0
364.64,149.0
364.71,147.0
364.77,130.0
364.83,131.0
364.9,136.0
364.96,155.0
365.02,136.0
365.08,134.0
365.15,144.0
365.21,147.0
365.27,142.0
365.34,161.0
365.4,149.0
365.46,140.0
365.53,146.0
365.59,152.0
365.65,153.0
365.71,140.0
365.78,133.0
365.84,120.0
365.9,127.0
365.97,142.0
366.03,149.0
366.09,138.0
366.16,116.0
366.22,128.0
366.28,141.0
366.34,131.0
366.41,134.0
366.47,120.0
366.53,134.0
366.6,125.0
366.66,124.0
366.72,138.0
366.79,131.0
366.85,136.0
366.91,127.0
366.97,113.0
367.04,108.0
367.1,112.0
367.16,102.0
367.23,113.0
367.29,124.0
367.35,111.0
367.42,113.0
367.48,107.0
367.54,111.0
367.6,98.0
367.67,114.0
367.73,102.0
367.79,120.0
367.86,114.0
367.92,111.0
367.98,97.0
368.05,103.0
368.11,99.0
368.17,106.0
368.23,100.0
368.3,76.0
368.36,101.0
368.42,94.0
368.49,79.0
368.55,100.0
368.61,96.0
368.68,76.0
368.74,80.0
368.8,68.0
368.86,66.0
368.93,84.0
368.99,71.0
369.05,70.0
369.12,68.0
369.18,64.0
369.24,76.0
369.31,69.0
369.37,77.0
369.43,63.0
369.49,67.0
369.56,61.0
369.62,67.0
369.68,78.0
369.75,76.0
369.81,84.0
369.87,78.0
369.94,95.0
370.0,79.0
370.06,77.0
370.12,87.0
370.19,85.0
370.25,75.0
370.31,90.0
370.38,88.0
370.44,105.0
370.5,80.0
370.57,64.0
370.63,80.0
370.69,98.0
370.75,80.0
370.82,80.0
370.88,92.0
370.94,82.0
371.01,76.0
371.07,94.0
371.13,92.0
371.2,67.0
371.26,80.0
371.32,90.0
371.38,96.0
371.45,68.0
371.51,73.0
371.57,56.0
371.64,66.0
371.7,81.0
371.76,65.0
371.83,76.0
371.89,79.0
371.95,70.0
372.01,58.0
372.08,68.0
372.14,85.0
372.2,91.0
372.27,80.0
372.33,62.0
372.39,64.0
372.46,92.0
372.52,87.0
372.58,78.0
372.64,88.0
372.71,67.0
372.77,78.0
372.83,77.0
372.9,85.0
372.96,75.0
373.02,64.0
373.09,70.0
373.15,67.0
373.21,51.0
373.27,68.0
373.34,64.0
373.4,71.0
373.46,58.0
373.53,57.0
373.59,56.0
373.65,54.0
373.72,64.0
373.78,63.0
373.84,61.0
373.9,32.0
373.97,56.0
374.03,72.0
374.09,50.0
374.16,61.0
374.22,38.0
374.28,45.0
374.35,81.0
374.41,91.0
374.47,80.0
374.53,57.0
374.6,70.0
374.66,70.0
374.72,79.0
374.79,93.0
374.85,90.0
374.91,59.0
374.98,59.0
375.04,60.0
375.1,72.0
375.16,56.0
375.23,53.0
375.29,63.0
375.35,33.0
375.42,28.0
375.48,50.0
375.54,58.0
375.61,67.0
375.67,71.0
375.73,64.0
375.79,75.0
375.86,95.0
375.92,83.0
375.98,95.0
376.05,96.0
376.11,86.0
376.17,97.0
376.24,98.0
376.3,82.0
376.36,65.0
376.42,83.0
376.49,83.0
376.55,85.0
376.61,80.0
376.68,69.0
376.74,74.0
376.8,63.0
376.87,87.0
376.93,81.0
376.99,102.0
377.05,94.0
377.12,97.0
377.18,98.0
377.24,114.0
377.31,122.0
377.37,98.0
377.43,96.0
377.5,113.0
377.56,109.0
377.62,103.0
377.68,113.0
377.75,102.0
377.81,109.0
377.87,98.0
377.94,120.0
378.0,130.0
378.06,128.0
378.13,146.0
378.19,141.0
378.25,140.0
378.31,135.0
378.38,125.0
378.44,117.0
378.5,127.0
378.57,112.0
378.63,135.0
378.69,120.0
378.76,134.0
378.82,139.0
378.88,127.0
378.94,135.0
379.01,142.0
379.07,131.0
379.13,118.0
379.2,130.0
379.26,106.0
379.32,120.0
379.39,120.0
379.45,127.0
379.51,95.0
379.57,111.0
379.64,126.0
379.7,113.0
379.76,123.0
379.83,108.0
379.89,104.0
379.95,104.0
380.02,109.0
380.08,99.0
380.14,75.0
380.2,92.0
380.27,89.0
380.33,99.0
380.39,92.0
380.46,77.0
380.52,92.0
380.58,102.0
380.65,100.0
380.71,91.0
380.77,93.0
380.83,104.0
380.9,100.0
380.96,115.0
381.02,109.0
381.09,89.0
381.15,101.0
381.21,94.0
381.28,103.0
381.34,114.0
381.4,107.0
381.46,108.0
381.53,100.0
381.59,87.0
381.65,94.0
381.72,95.0
381.78,102.0
381.84,102.0
381.91,127.0
381.97,106.0
382.03,103.0
382.09,98.0
382.16,95.0
382.22,101.0
382.28,103.0
382.35,102.0
382.41,106.0
382.47,103.0
382.54,108.0
382.6,106.0
382.66,113.0
382.72,128.0
382.79,128.0
382.85,126.0
382.91,108.0
382.98,68.0
383.04,98.0
383.1,87.0
383.17,101.0
383.23,116.0
383.29,117.0
383.35,132.0
383.42,117.0
383.48,107.0
383.54,109.0
383.61,111.0
383.67,106.0
383.73,99.0
383.8,92.0
383.86,100.0
383.92,91.0
383.98,105.0
384.05,93.0
384.11,100.0
384.17,117.0
384.24,97.0
384.3,90.0
384.36,95.0
384.43,88.0
384.49,89.0
384.55,79.0
384.61,94.0
384.68,82.0
384.74,83.0
384.8,86.0
384.87,102.0
384.93,91.0
384.99,84.0
385.06,106.0
385.12,106.0
385.18,115.0
385.24,97.0
385.31,102.0
385.37,97.0
385.43,100.0
385.5,99.0
385.56,88.0
385.62,76.0
385.69,61.0
385.75,85.0
385.81,81.0
385.87,80.0
385.94,79.0
386.0,67.0
386.06,77.0
386.13,79.0
386.19,96.0
386.25,84.0
386.32,57.0
386.38,67.0
386.44,77.0
386.5,77.0
386.57,71.0
386.63,79.0
386.69,109.0
386.76,92.0
386.82,104.0
386.88,79.0
386.95,95.0
387.01,74.0
387.07,77.0
387.13,73.0
387.2,68.0
387.26,82.0
387.32,64.0
387.39,89.0
387.45,92.0
387.51,86.0
387.58,87.0
387.64,84.0
387.7,112.0
387.76,109.0
387.83,99.0
387.89,85.0
387.95,85.0
388.02,94.0
388.08,97.0
388.14,78.0
388.21,106.0
388.27,103.0
388.33,105.0
388.39,113.0
388.46,81.0
388.52,93.0
388.58,97.0
388.65,111.0
388.71,96.0
388.77,88.0
388.84,103.0
388.9,107.0
388.96,104.0
389.02,106.0
389.09,101.0
389.15,87.0
389.21,74.0
389.28,105.0
389.34,106.0
389.4,86.0
389.47,97.0
389.53,91.0
389.59,79.0
389.65,95.0
389.72,90.0
389.78,72.0
389.84,81.0
389.91,74.0
389.97,80.0
390.03,77.0
390.1,77.0
390.16,88.0
390.22,70.0
390.28,61.0
390.35,72.0
390.41,86.0
390.47,87.0
390.54,86.0
390.6,81.0
390.66,75.0
390.73,61.0
390.79,82.0
390.85,84.0
390.91,82.0
390.98,79.0
391.04,83.0
391.1,74.0
391.17,83.0
391.23,69.0
391.29,64.0
391.36,92.0
391.42,75.0
391.48,77.0
391.54,69.0
391.61,76.0
391.67,82.0
391.73,85.0
391.8,94.0
391.86,100.0
391.92,103.0
391.99,76.0
392.05,108.0
392.11,123.0
392.17,117.0
392.24,107.0
392.3,80.0
392.36,92.0
392.43,104.0
392.49,122.0
392.55,113.0
392.62,111.0
392.68,113.0
392.74,101.0
392.8,118.0
392.87,129.0
392.93,105.0
392.99,100.0
393.06,84.0
393.12,98.0
393.18,103.0
393.25,97.0
393.31,87.0
393.37,87.0
393.43,87.0
393.5,111.0
393.56,107.0
393.62,98.0
393.69,128.0
393.75,111.0
393.81,108.0
393.88,126.0
393.94,110.0
394.0,112.0
394.06,107.0
394.13,110.0
394.19,122.0
394.25,106.0
394.32,97.0
394.38,111.0
394.44,98.0
394.51,87.0
394.57,91.0
394.63,92.0
394.69,80.0
394.76,89.0
394.82,85.0
394.88,67.0
394.95,66.0
395.01,66.0
395.07,79.0
395.14,67.0
395.2,61.0
395.26,69.0
395.32,61.0
395.39,48.0
395.45,66.0
395.51,91.0
395.58,81.0
395.64,68.0
395.7,75.0
395.77,65.0
395.83,54.0
395.89,47.0
395.95,47.0
396.02,65.0
396.08,57.0
396.14,66.0
396.21,77.0
396.27,92.0
396.33,66.0
396.4,70.0
396.46,73.0
396.52,86.0
396.58,72.0
396.65,57.0
396.71,39.0
396.77,44.0
396.84,53.0
396.9,58.0
396.96,74.0
397.03,78.0
397.09,61.0
397.15,53.0
397.21,67.0
397.28,75.0
397.34,47.0
397.4,53.0
397.47,61.0
397.53,61.0
397.59,58.0
397.66,64.0
397.72,75.0
397.78,83.0
397.84,83.0
397.91,77.0
397.97,76.0
398.03,63.0
398.1,69.0
398.16,56.0
398.22,52.0
398.29,68.0
398.35,64.0
398.41,33.0
398.47,21.0
398.54,40.0
398.6,75.0
398.66,73.0
398.73,64.0
398.79,69.0
398.85,54.0
398.92,65.0
398.98,39.0
399.04,30.0
399.1,52.0
399.17,57.0
399.23,64.0
399.29,41.0
399.36,31.0
399.42,27.0
399.48,36.0
399.55,24.0
399.61,17.0
399.67,20.0
399.73,25.0
399.8,20.0
399.86,32.0
399.92,38.0
399.99,51.0
400.05,43.0
400.11,31.0
400.18,31.0
400.24,24.0
400.3,18.0
400.36,24.0
400.43,19.0
400.49,28.0
400.55,20.0
400.62,34.0
400.68,43.0
400.74,39.0
400.81,44.0
400.87,49.0
400.93,34.0
400.99,22.0
401.06,34.0
401.12,32.0
401.18,22.0
401.25,45.0
401.31,43.0
401.37,28.0
401.44,41.0
401.5,18.0
401.56,24.0
401.62,26.0
401.69,18.0
401.75,28.0
401.81,33.0
401.88,34.0
401.94,67.0
402.0,65.0
402.07,39.0
402.13,52.0
402.19,49.0
402.25,32.0
402.32,34.0
402.38,24.0
402.44,34.0
402.51,34.0
402.57,24.0
402.63,17.0
402.7,13.0
402.76,3.0
402.82,5.0
402.88,10.0
402.95,7.0
403.01,-18.0
403.07,-9.0
403.14,-8.0
403.2,4.0
403.26,7.0
403.33,-17.0
403.39,-1.0
403.45,-1.0
403.51,-8.0
403.58,0.0
403.64,-13.0
403.7,-10.0
403.77,-8.0
403.83,-16.0
403.89,5.0
403.96,7.0
404.02,-1.0
404.08,15.0
404.14,16.0
404.21,24.0
404.27,18.0
404.33,38.0
404.4,27.0
404.46,32.0
404.52,29.0
404.59,31.0
404.65,31.0
404.71,34.0
404.77,34.0
404.84,45.0
404.9,28.0
404.96,20.0
405.03,19.0
405.09,29.0
405.15,29.0
405.22,39.0
405.28,42.0
405.34,28.0
405.4,34.0
405.47,38.0
405.53,62.0
405.59,75.0
405.66,83.0
405.72,80.0
405.78,86.0
405.85,79.0
405.91,81.0
405.97,94.0
406.03,98.0
406.1,114.0
406.16,80.0
406.22,90.0
406.29,99.0
406.35,103.0
406.41,102.0
406.48,97.0
406.54,108.0
406.6,96.0
406.66,89.0
406.73,87.0
406.79,98.0
406.85,87.0
406.92,82.0
406.98,95.0
407.04,86.0
407.11,97.0
407.17,102.0
407.23,106.0
407.29,98.0
407.36,112.0
407.42,88.0
407.48,105.0
407.55,114.0
407.61,105.0
407.67,117.0
407.74,116.0
407.8,104.0
407.86,128.0
407.92,121.0
407.99,127.0
408.05,109.0
408.11,110.0
408.18,112.0
408.24,111.0
408.3,130.0
408.37,133.0
408.43,121.0
408.49,125.0
408.55,138.0
408.62,139.0
408.68,151.0
408.74,140.0
408.81,141.0
408.87,131.0
408.93,129.0
409.0,136.0
409.06,135.0
409.12,150.0
409.18,130.0
409.25,146.0
409.31,153.0
409.37,146.0
409.44,142.0
409.5,126.0
409.56,142.0
409.63,154.0
409.69,167.0
409.75,167.0
409.81,169.0
409.88,171.0
409.94,164.0
410.0,189.0
410.07,180.0
410.13,174.0
410.19,171.0
410.26,180.0
410.32,172.0
410.38,163.0
410.44,172.0
410.51,169.0
410.57,155.0
410.63,168.0
410.7,193.0
410.76,174.0
410.82,182.0
410.89,171.0
410.95,182.0
411.01,185.0
411.07,174.0
411.14,193.0
411.2,214.0
411.26,221.0
411.33,222.0
411.39,213.0
411.45,204.0
411.52,205.0
411.58,202.0
411.64,203.0
411.7,193.0
411.77,186.0
411.83,183.0
411.89,170.0
411.96,187.0
412.02,196.0
412.08,188.0
412.15,211.0
412.21,192.0
412.27,190.0
412.33,197.0
412.4,185.0
412.46,183.0
412.52,195.0
412.59,183.0
412.65,206.0
412.71,199.0
412.78,186.0
412.84,185.0
412.9,190.0
412.96,185.0
413.03,193.0
413.09,192.0
413.15,181.0
413.22,168.0
413.28,189.0
413.34,189.0
413.41,172.0
413.47,160.0
413.53,169.0
413.59,176.0
413.66,163.0
413.72,178.0
413.78,173.0
413.85,176.0
413.91,163.0
413.97,190.0
414.04,174.0
414.1,174.0
414.16,179.0
414.22,167.0
414.29,171.0
414.35,171.0
414.41,170.0
414.48,173.0
414.54,169.0
414.6,181.0
414.67,174.0
414.73,164.0
414.79,155.0
414.85,164.0
414.92,164.0
414.98,148.0
415.04,173.0
415.11,170.0
415.17,181.0
415.23,180.0
415.3,176.0
415.36,157.0
415.42,152.0
415.48,174.0
415.55,181.0
415.61,173.0
415.67,159.0
415.74,180.0
415.8,183.0
415.86,166.0
415.93,158.0
415.99,162.0
416.05,144.0
416.11,135.0
416.18,151.0
416.24,145.0
416.3,164.0
416.37,145.0
416.43,142.0
416.49,164.0
416.56,174.0
416.62,143.0
416.68,155.0
416.74,161.0
416.81,153.0
416.87,130.0
416.93,157.0
417.0,145.0
417.06,139.0
417.12,136.0
417.19,127.0
417.25,125.0
417.31,145.0
417.37,144.0
417.44,128.0
417.5,125.0
417.56,131.0
417.63,143.0
417.69,160.0
417.75,133.0
417.82,141.0
417.88,140.0
417.94,139.0
418.0,144.0
418.07,128.0
418.13,126.0
418.19,122.0
418.26,127.0
418.32,134.0
418.38,127.0
418.45,120.0
418.51,125.0
418.57,124.0
418.63,121.0
418.7,126.0
418.76,99.0
418.82,108.0
418.89,103.0
418.95,96.0
419.01,89.0
419.08,82.0
419.14,71.0
419.2,70.0
419.26,92.0
419.33,80.0
419.39,60.0
419.45,69.0
419.52,70.0
419.58,72.0
419.64,82.0
419.71,76.0
419.77,77.0
419.83,70.0
419.89,59.0
419.96,53.0
420.02,29.0
420.08,19.0
420.15,30.0
420.21,45.0
420.27,50.0
420.34,52.0
420.4,52.0
420.46,46.0
420.52,36.0
420.59,47.0
420.65,35.0
420.71,28.0
420.78,20.0
420.84,35.0
420.9,33.0
420.97,31.0
421.03,26.0
421.09,39.0
421.15,60.0
421.22,28.0
421.28,69.0
421.34,47.0
421.41,50.0
421.47,43.0
421.53,37.0
421.6,63.0
421.66,71.0
421.72,60.0
421.78,55.0
421.85,53.0
421.91,47.0
421.97,60.0
422.04,61.0
422.1,74.0
422.16,58.0
422.23,35.0
422.29,54.0
422.35,61.0
422.41,40.0
422.48,55.0
422.54,45.0
422.6,43.0
422.67,54.0
422.73,56.0
422.79,41.0
422.86,43.0
422.92,56.0
422.98,56.0
423.04,55.0
423.11,65.0
423.17,44.0
423.23,54.0
423.3,76.0
423.36,67.0
423.42,48.0
423.49,56.0
423.55,61.0
423.61,75.0
423.67,60.0
423.74,70.0
423.8,72.0
423.86,58.0
423.93,57.0
423.99,42.0
424.05,65.0
424.12,48.0
424.18,57.0
424.24,43.0
424.3,50.0
424.37,64.0
424.43,48.0
424.49,68.0
424.56,48.0
424.62,50.0
424.68,57.0
424.75,40.0
424.81,45.0
424.87,39.0
424.93,68.0
425.0,57.0
425.06,46.0
425.12,48.0
425.19,56.0
425.25,71.0
425.31,64.0
425.38,70.0
425.44,68.0
425.5,81.0
425.56,62.0
425.63,98.0
425.69,89.0
425.75,61.0
425.82,74.0
425.88,86.0
425.94,88.0
426.01,66.0
426.07,76.0
426.13,90.0
426.19,79.0
426.26,69.0
426.32,69.0
426.38,79.0
426.45,90.0
426.51,68.0
426.57,78.0
426.64,67.0
426.7,67.0
426.76,73.0
426.82,97.0
426.89,99.0
426.95,100.0
427.01,104.0
427.08,94.0
427.14,93.0
427.2,96.0
427.27,99.0
427.33,82.0
427.39,80.0
427.45,94.0
427.52,79.0
427.58,76.0
427.64,94.0
427.71,90.0
427.77,87.0
427.83,77.0
427.9,89.0
427.96,84.0
428.02,82.0
428.08,103.0
428.15,91.0
428.21,88.0
428.27,102.0
428.34,97.0
428.4,98.0
428.46,108.0
428.53,97.0
428.59,119.0
428.65,98.0
428.71,98.0
428.78,102.0
428.84,107.0
428.9,123.0
428.97,106.0
429.03,126.0
429.09,114.0
429.16,113.0
429.22,111.0
429.28,105.0
429.34,87.0
429.41,103.0
429.47,81.0
429.53,79.0
429.6,78.0
429.66,76.0
429.72,100.0
429.79,88.0
429.85,73.0
429.91,83.0
429.97,93.0
430.04,100.0
430.1,112.0
430.16,101.0
430.23,107.0
430.29,102.0
430.35,109.0
430.42,101.0
430.48,100.0
430.54,109.0
430.6,99.0
430.67,92.0
430.73,101.0
430.79,96.0
430.86,114.0
430.92,124.0
430.98,129.0
431.05,116.0
431.11,104.0
431.17,112.0
431.23,111.0
431.3,125.0
431.36,115.0
431.42,122.0
431.49,119.0
431.55,142.0
431.61,131.0
431.68,115.0
431.74,126.0
431.8,113.0
431.86,145.0
431.93,137.0
431.99,143.0
432.05,152.0
432.12,135.0
432.18,152.0
432.24,148.0
432.31,145.0
432.37,160.0
432.43,137.0
432.49,142.0
432.56,147.0
432.62,148.0
432.68,126.0
432.75,132.0
432.81,125.0
432.87,120.0
432.94,129.0
433.0,112.0
433.06,115.0
433.12,96.0
433.19,109.0
433.25,123.0
433.31,122.0
433.38,130.0
433.44,125.0
433.5,142.0
433.57,133.0
433.63,130.0
433.69,121.0
433.75,121.0
433.82,110.0
433.88,121.0
433.94,127.0
434.01,136.0
434.07,124.0
434.13,129.0
434.2,128.0
434.26,120.0
434.32,123.0
434.38,128.0
434.45,121.0
434.51,123.0
434.57,97.0
434.64,93.0
434.7,111.0
434.76,106.0
434.83,92.0
434.89,97.0
434.95,98.0
435.01,100.0
435.08,100.0
435.14,111.0
435.2,104.0
435.27,103.0
435.33,111.0
435.39,101.0
435.46,98.0
435.52,77.0
435.58,96.0
435.64,100.0
435.71,84.0
435.77,90.0
435.83,97.0
435.9,89.0
435.96,57.0
436.02,61.0
436.09,46.0
436.15,54.0
436.21,68.0
436.27,71.0
436.34,77.0
436.4,42.0
436.46,48.0
436.53,64.0
436.59,81.0
436.65,68.0
436.72,62.0
436.78,63.0
436.84,60.0
436.9,65.0
436.97,73.0
437.03,54.0
437.09,58.0
437.16,60.0
437.22,46.0
437.28,33.0
437.35,12.0
437.41,40.0
437.47,42.0
437.53,41.0
437.6,42.0
437.66,53.0
437.72,69.0
437.79,54.0
437.85,61.0
437.91,65.0
437.98,56.0
438.04,50.0
438.1,56.0
438.16,60.0
438.23,61.0
438.29,70.0
438.35,67.0
438.42,88.0
438.48,79.0
438.54,63.0
438.61,62.0
438.67,75.0
438.73,82.0
438.79,65.0
438.86,65.0
438.92,52.0
438.98,81.0
439.05,76.0
439.11,75.0
439.17,65.0
439.24,59.0
439.3,60.0
439.36,60.0
439.42,61.0
439.49,51.0
439.55,64.0
439.61,64.0
439.68,63.0
439.74,68.0
439.8,78.0
439.87,76.0
439.93,67.0
439.99,79.0
440.05,78.0
440.12,95.0
440.18,95.0
440.24,81.0
440.31,75.0
440.37,60.0
440.43,78.0
440.5,79.0
440.56,59.0
440.62,61.0
440.68,60.0
440.75,71.0
440.81,61.0
440.87,74.0
440.94,61.0
441.0,65.0
441.06,84.0
441.13,90.0
441.19,75.0
441.25,59.0
441.31,44.0
441.38,57.0
441.44,53.0
441.5,46.0
441.57,58.0
441.63,68.0
441.69,79.0
441.76,84.0
441.82,67.0
441.88,76.0
441.94,60.0
442.01,58.0
442.07,59.0
442.13,70.0
442.2,66.0
442.26,72.0
442.32,81.0
442.39,64.0
442.45,59.0
442.51,65.0
442.57,67.0
442.64,81.0
442.7,71.0
442.76,71.0
442.83,66.0
442.89,81.0
442.95,80.0
443.02,70.0
443.08,68.0
443.14,58.0
443.2,69.0
443.27,56.0
443.33,42.0
443.39,64.0
443.46,56.0
443.52,63.0
443.58,68.0
443.65,83.0
443.71,70.0
443.77,67.0
443.83,73.0
443.9,65.0
443.96,61.0
444.02,71.0
444.09,88.0
444.15,90.0
444.21,103.0
444.28,78.0
444.34,82.0
444.4,79.0
444.46,102.0
444.53,80.0
444.59,94.0
444.65,86.0
444.72,79.0
444.78,94.0
444.84,101.0
444.91,106.0
444.97,99.0
445.03,69.0
445.09,64.0
445.16,67.0
445.22,57.0
445.28,71.0
445.35,73.0
445.41,83.0
445.47,79.0
445.54,79.0
445.6,79.0
445.66,92.0
445.72,89.0
445.79,101.0
445.85,93.0
445.91,90.0
445.98,92.0
446.04,109.0
446.1,95.0
446.17,76.0
446.23,96.0
446.29,84.0
446.35,76.0
446.42,77.0
446.48,89.0
446.54,75.0
446.61,86.0
446.67,84.0
446.73,81.0
446.8,89.0
446.86,84.0
446.92,91.0
446.98,94.0
447.05,90.0
447.11,93.0
447.17,99.0
447.24,105.0
447.3,99.0
447.36,100.0
447.43,84.0
447.49,87.0
447.55,73.0
447.61,88.0
447.68,103.0
447.74,95.0
447.8,109.0
447.87,88.0
447.93,89.0
447.99,101.0
448.06,94.0
448.12,114.0
448.18,123.0
448.24,112.0
448.31,100.0
448.37,109.0
448.43,106.0
448.5,98.0
448.56,93.0
448.62,97.0
448.69,96.0
448.75,95.0
448.81,97.0
448.87,116.0
448.94,119.0
449.0,115.0
449.06,117.0
449.13,122.0
449.19,108.0
449.25,88.0
449.32,102.0
449.38,95.0
449.44,101.0
449.5,125.0
449.57,108.0
449.63,118.0
449.69,112.0
449.76,120.0
449.82,123.0
449.88,100.0
449.95,86.0
450.01,88.0
450.07,83.0
450.13,92.0
450.2,88.0
450.26,90.0
450.32,81.0
450.39,84.0
450.45,91.0
450.51,100.0
450.58,81.0
450.64,86.0
450.7,99.0
450.76,105.0
450.83,94.0
450.89,78.0
450.95,86.0
451.02,81.0
451.08,86.0
451.14,84.0
451.21,74.0
451.27,85.0
451.33,86.0
451.39,94.0
451.46,90.0
451.52,81.0
451.58,81.0
451.65,89.0
451.71,76.0
451.77,85.0
451.84,68.0
451.9,78.0
451.96,68.0
452.02,58.0
452.09,64.0
452.15,72.0
452.21,72.0
452.28,70.0
452.34,82.0
452.4,72.0
452.47,71.0
452.53,50.0
452.59,41.0
452.65,59.0
452.72,61.0
452.78,59.0
452.84,53.0
452.91,37.0
452.97,40.0
453.03,46.0
453.1,29.0
453.16,49.0
453.22,24.0
453.28,13.0
453.35,37.0
453.41,44.0
453.47,49.0
453.54,60.0
453.6,51.0
453.66,53.0
453.73,24.0
453.79,38.0
453.85,40.0
453.91,57.0
453.98,81.0
454.04,63.0
454.1,49.0
454.17,60.0
454.23,68.0
454.29,74.0
454.36,73.0
454.42,53.0
454.48,54.0
454.54,52.0
454.61,57.0
454.67,52.0
454.73,28.0
454.8,37.0
454.86,37.0
454.92,28.0
454.99,37.0
455.05,45.0
455.11,35.0
455.17,32.0
455.24,42.0
455.3,49.0
455.36,54.0
455.43,27.0
455.49,40.0
455.55,28.0
455.62,21.0
455.68,64.0
455.74,57.0
455.8,20.0
455.87,53.0
455.93,57.0
455.99,63.0
456.06,46.0
456.12,53.0
456.18,39.0
456.25,68.0
456.31,60.0
456.37,57.0
456.43,59.0
456.5,57.0
456.56,59.0
456.62,53.0
456.69,64.0
456.75,65.0
456.81,57.0
456.88,54.0
456.94,54.0
457.0,58.0
457.06,76.0
457.13,88.0
457.19,87.0
457.25,77.0
457.32,63.0
457.38,74.0
457.44,68.0
457.51,64.0
457.57,61.0
457.63,60.0
457.69,62.0
457.76,59.0
457.82,94.0
457.88,104.0
457.95,97.0
458.01,104.0
458.07,86.0
458.14,104.0
458.2,75.0
458.26,79.0
458.32,94.0
458.39,66.0
458.45,61.0
458.51,72.0
458.58,77.0
458.64,84.0
458.7,85.0
458.77,81.0
458.83,100.0
458.89,88.0
458.95,70.0
459.02,78.0
459.08,86.0
459.14,92.0
459.21,92.0
459.27,93.0
459.33,83.0
459.4,74.0
459.46,91.0
459.52,100.0
459.58,112.0
459.65,101.0
459.71,115.0
459.77,97.0
459.84,105.0
459.9,100.0
459.96,112.0
460.03,109.0
460.09,99.0
460.15,129.0
460.21,127.0
460.28,109.0
460.34,101.0
460.4,97.0
460.47,119.0
460.53,119.0
460.59,123.0
460.66,142.0
460.72,128.0
460.78,126.0
460.84,133.0
460.91,128.0
460.97,130.0
461.03,118.0
461.1,127.0
461.16,123.0
461.22,129.0
461.29,132.0
461.35,115.0
461.41,123.0
461.47,123.0
461.54,134.0
461.6,118.0
461.66,108.0
461.73,99.0
461.79,111.0
461.85,95.0
461.92,108.0
461.98,130.0
462.04,112.0
462.1,127.0
462.17,109.0
462.23,112.0
462.29,95.0
462.36,96.0
462.42,115.0
462.48,107.0
462.55,115.0
462.61,105.0
462.67,113.0
462.73,111.0
462.8,100.0
462.86,86.0
462.92,102.0
462.99,97.0
463.05,108.0
463.11,126.0
463.18,126.0
463.24,116.0
463.3,119.0
463.36,114.0
463.43,120.0
463.49,112.0
463.55,101.0
463.62,102.0
463.68,112.0
463.74,117.0
463.81,129.0
463.87,130.0
463.93,129.0
463.99,152.0
464.06,156.0
464.12,127.0
464.18,130.0
464.25,147.0
464.31,140.0
464.37,142.0
464.44,151.0
464.5,159.0
464.56,154.0
464.62,163.0
464.69,159.0
464.75,156.0
464.81,149.0
464.88,157.0
464.94,144.0
465.0,145.0
465.07,142.0
465.13,152.0
465.19,132.0
465.25,131.0
465.32,138.0
465.38,141.0
465.44,134.0
465.51,124.0
465.57,121.0
465.63,128.0
465.7,122.0
465.76,111.0
465.82,125.0
465.88,134.0
465.95,122.0
466.01,121.0
466.07,131.0
466.14,141.0
466.2,150.0
466.26,155.0
466.33,141.0
466.39,120.0
466.45,126.0
466.51,120.0
466.58,109.0
466.64,108.0
466.7,115.0
466.77,131.0
466.83,114.0
466.89,118.0
466.96,122.0
467.02,144.0
467.08,123.0
467.14,113.0
467.21,126.0
467.27,123.0
467.33,134.0
467.4,128.0
467.46,107.0
467.52,116.0
467.59,112.0
467.65,121.0
467.71,119.0
467.77,118.0
467.84,115.0
467.9,115.0
467.96,103.0
468.03,96.0
468.09,102.0
468.15,118.0
468.22,120.0
468.28,105.0
468.34,115.0
468.4,86.0
468.47,92.0
468.53,98.0
468.59,104.0
468.66,115.0
468.72,123.0
468.78,107.0
468.85,93.0
468.91,97.0
468.97,113.0
469.03,117.0
469.1,90.0
469.16,100.0
469.22,104.0
469.29,109.0
469.35,101.0
469.41,83.0
469.48,100.0
469.54,110.0
469.6,93.0
469.66,97.0
469.73,86.0
469.79,82.0
469.85,101.0
469.92,100.0
469.98,87.0
470.04,89.0
470.11,86.0
470.17,77.0
470.23,81.0
470.29,46.0
470.36,54.0
470.42,88.0
470.48,80.0
470.55,82.0
470.61,77.0
470.67,84.0
470.74,87.0
470.8,84.0
470.86,86.0
470.92,81.0
470.99,75.0
471.05,65.0
471.11,82.0
471.18,93.0
471.24,123.0
471.3,116.0
471.37,79.0
471.43,85.0
471.49,98.0
471.55,96.0
471.62,79.0
471.68,82.0
471.74,78.0
471.81,90.0
471.87,100.0
471.93,86.0
472.0,97.0
472.06,108.0
472.12,122.0
472.18,113.0
472.25,127.0
472.31,125.0
472.37,122.0
472.44,118.0
472.5,127.0
472.56,111.0
472.63,130.0
472.69,107.0
472.75,113.0
472.81,108.0
472.88,108.0
472.94,106.0
473.0,117.0
473.07,112.0
473.13,103.0
473.19,115.0
473.26,111.0
473.32,123.0
473.38,132.0
473.44,137.0
473.51,96.0
473.57,99.0
473.63,106.0
473.7,94.0
473.76,111.0
473.82,119.0
473.89,114.0
473.95,103.0
474.01,109.0
474.07,114.0
474.14,119.0
474.2,91.0
474.26,99.0
474.33,102.0
474.39,116.0
474.45,100.0
474.52,103.0
474.58,122.0
474.64,105.0
474.7,97.0
474.77,82.0
474.83,79.0
474.89,105.0
474.96,112.0
475.02,101.0
475.08,74.0
475.15,73.0
475.21,97.0
475.27,68.0
475.33,89.0
475.4,106.0
475.46,79.0
475.52,95.0
475.59,96.0
475.65,104.0
475.71,109.0
475.78,103.0
475.84,97.0
475.9,97.0
475.96,89.0
476.03,73.0
476.09,86.0
476.15,109.0
476.22,98.0
476.28,93.0
476.34,97.0
476.41,96.0
476.47,90.0
476.53,86.0
476.59,106.0
476.66,114.0
476.72,112.0
476.78,120.0
476.85,120.0
476.91,99.0
476.97,102.0
477.04,77.0
477.1,94.0
477.16,114.0
477.22,90.0
477.29,97.0
477.35,104.0
477.41,103.0
477.48,89.0
477.54,72.0
477.6,76.0
477.67,69.0
477.73,82.0
477.79,78.0
477.85,78.0
477.92,92.0
477.98,93.0
478.04,85.0
478.11,84.0
478.17,87.0
478.23,79.0
478.3,86.0
478.36,99.0
478.42,101.0
478.48,134.0
478.55,127.0
478.61,117.0
478.67,107.0
478.74,116.0
478.8,94.0
478.86,94.0
478.93,94.0
478.99,102.0
479.05,112.0
479.11,98.0
479.18,103.0
479.24,107.0
479.3,78.0
479.37,85.0
479.43,113.0
479.49,88.0
479.56,84.0
479.62,101.0
479.68,95.0
479.74,68.0
479.81,70.0
479.87,87.0
479.93,69.0
480.0,87.0
480.06,90.0
480.12,98.0
480.19,101.0
480.25,98.0
480.31,99.0
480.37,106.0
480.44,104.0
480.5,106.0
480.56,117.0
480.63,117.0
480.69,101.0
480.75,125.0
480.82,117.0
480.88,130.0
480.94,139.0
481.0,126.0
481.07,125.0
481.13,128.0
481.19,118.0
481.26,113.0
481.32,101.0
481.38,119.0
481.45,142.0
481.51,140.0
481.57,133.0
481.63,134.0
481.7,121.0
481.76,122.0
481.82,128.0
481.89,105.0
481.95,119.0
482.01,112.0
482.08,128.0
482.14,143.0
482.2,161.0
482.26,135.0
482.33,136.0
482.39,155.0
482.45,150.0
482.52,142.0
482.58,129.0
482.64,129.0
482.71,141.0
482.77,119.0
482.83,126.0
482.89,126.0
482.96,132.0
483.02,107.0
483.08,94.0
483.15,93.0
483.21,119.0
483.27,105.0
483.34,105.0
483.4,130.0
483.46,108.0
483.52,101.0
483.59,101.0
483.65,91.0
483.71,106.0
483.78,120.0
483.84,118.0
483.9,130.0
483.97,125.0
484.03,128.0
484.09,119.0
484.15,116.0
484.22,133.0
484.28,111.0
484.34,101.0
484.41,105.0
484.47,109.0
484.53,104.0
484.6,119.0
484.66,113.0
484.72,83.0
484.78,97.0
484.85,83.0
484.91,84.0
484.97,91.0
485.04,86.0
485.1,76.0
485.16,64.0
485.23,71.0
485.29,71.0
485.35,73.0
485.41,72.0
485.48,64.0
485.54,55.0
485.6,69.0
485.67,76.0
485.73,77.0
485.79,70.0
485.86,67.0
485.92,64.0
485.98,57.0
486.04,43.0
486.11,40.0
486.17,50.0
486.23,39.0
486.3,38.0
486.36,42.0
486.42,35.0
486.49,54.0
486.55,60.0
486.61,61.0
486.67,75.0
486.74,78.0
486.8,71.0
486.86,65.0
486.93,48.0
486.99,31.0
487.05,55.0
487.12,38.0
487.18,46.0
487.24,50.0
487.3,53.0
487.37,49.0
487.43,43.0
487.49,27.0
487.56,27.0
487.62,46.0
487.68,42.0
487.75,38.0
487.81,43.0
487.87,48.0
487.93,30.0
488.0,79.0
488.06,70.0
488.12,60.0
488.19,45.0
488.25,67.0
488.31,71.0
488.38,65.0
488.44,70.0
488.5,58.0
488.56,66.0
488.63,63.0
488.69,73.0
488.75,53.0
488.82,45.0
488.88,42.0
488.94,60.0
489.01,39.0
489.07,57.0
489.13,71.0
489.19,81.0
489.26,65.0
489.32,58.0
489.38,79.0
489.45,62.0
489.51,75.0
489.57,64.0
489.64,67.0
489.7,79.0
489.76,58.0
489.82,57.0
489.89,64.0
489.95,85.0
490.01,75.0
490.08,68.0
490.14,93.0
490.2,99.0
490.27,98.0
490.33,94.0
490.39,91.0
490.45,107.0
490.52,107.0
490.58,87.0
490.64,72.0
490.71,89.0
490.77,109.0
490.83,106.0
490.9,85.0
490.96,57.0
491.02,65.0
491.08,59.0
491.15,75.0
491.21,57.0
491.27,59.0
491.34,49.0
491.4,48.0
491.46,45.0
491.53,58.0
491.59,77.0
491.65,66.0
491.71,71.0
491.78,59.0
491.84,64.0
491.9,59.0
491.97,53.0
492.03,37.0
492.09,53.0
492.16,46.0
492.22,51.0
492.28,27.0
492.34,31.0
492.41,47.0
492.47,64.0
492.53,63.0
492.6,63.0
492.66,59.0
492.72,49.0
492.79,67.0
492.85,64.0
492.91,57.0
492.97,73.0
493.04,71.0
493.1,80.0
493.16,89.0
493.23,77.0
493.29,98.0
493.35,80.0
493.42,77.0
493.48,73.0
493.54,81.0
493.6,86.0
493.67,82.0
493.73,67.0
493.79,82.0
493.86,105.0
493.92,118.0
493.98,89.0
494.05,79.0
494.11,96.0
494.17,84.0
494.23,94.0
494.3,82.0
494.36,64.0
494.42,72.0
494.49,68.0
494.55,65.0
494.61,84.0
494.68,67.0
494.74,79.0
494.8,86.0
494.86,80.0
494.93,82.0
494.99,92.0
495.05,104.0
495.12,93.0
495.18,92.0
495.24,98.0
495.31,91.0
495.37,105.0
495.43,98.0
495.49,102.0
495.56,107.0
495.62,103.0
495.68,113.0
495.75,122.0
495.81,106.0
495.87,111.0
495.94,105.0
496.0,108.0
496.06,87.0
496.12,106.0
496.19,108.0
496.25,93.0
496.31,85.0
496.38,90.0
496.44,85.0
496.5,84.0
496.57,90.0
496.63,95.0
496.69,81.0
496.75,93.0
496.82,84.0
496.88,88.0
496.94,84.0
497.01,75.0
497.07,99.0
497.13,86.0
497.2,95.0
497.26,98.0
497.32,111.0
497.38,132.0
497.45,106.0
497.51,98.0
497.57,97.0
497.64,87.0
497.7,101.0
497.76,93.0
497.83,92.0
497.89,114.0
497.95,93.0
498.01,97.0
498.08,115.0
498.14,127.0
498.2,116.0
498.27,128.0
498.33,125.0
498.39,122.0
498.46,125.0
498.52,126.0
498.58,130.0
498.64,124.0
498.71,131.0
498.77,145.0
498.83,152.0
498.9,129.0
498.96,124.0
499.02,127.0
499.09,132.0
499.15,121.0
499.21,132.0
499.27,117.0
499.34,128.0
499.4,114.0
499.46,110.0
499.53,122.0
499.59,113.0
499.65,132.0
499.72,116.0
499.78,127.0
499.84,115.0
499.9,113.0
499.97,117.0
500.03,119.0
500.09,143.0
500.16,125.0
500.22,114.0
500.28,109.0
500.35,120.0
500.41,118.0
500.47,120.0
500.53,107.0
500.6,105.0
500.66,95.0
500.72,106.0
500.79,122.0
500.85,118.0
500.91,84.0
500.98,75.0
501.04,78.0
501.1,63.0
501.16,85.0
501.23,100.0
501.29,94.0
501.35,89.0
501.42,74.0
501.48,81.0
501.54,92.0
501.61,81.0
501.67,90.0
501.73,75.0
501.79,81.0
501.86,69.0
501.92,53.0
501.98,66.0
502.05,65.0
502.11,59.0
502.17,64.0
502.24,67.0
502.3,72.0
502.36,54.0
502.42,45.0
502.49,51.0
502.55,39.0
502.61,22.0
502.68,20.0
502.74,23.0
502.8,36.0
502.87,29.0
502.93,18.0
502.99,22.0
503.05,20.0
503.12,14.0
503.18,-6.0
503.24,1.0
503.31,8.0
503.37,10.0
503.43,6.0
503.5,14.0
503.56,7.0
503.62,14.0
503.68,13.0
503.75,21.0
503.81,23.0
503.87,10.0
503.94,7.0
504.0,3.0
504.06,-10.0
504.13,3.0
504.19,-3.0
504.25,-18.0
504.31,-22.0
504.38,-24.0
504.44,4.0
504.5,-2.0
504.57,1.0
504.63,-14.0
504.69,-13.0
504.76,-1.0
504.82,-19.0
504.88,-14.0
504.94,2.0
505.01,-24.0
505.07,-7.0
505.13,16.0
505.2,-9.0
505.26,-4.0
505.32,10.0
505.39,0.0
505.45,21.0
505.51,16.0
505.57,19.0
505.64,6.0
505.7,20.0
505.76,15.0
505.83,4.0
505.89,7.0
505.95,5.0
506.02,25.0
506.08,10.0
506.14,3.0
506.2,9.0
506.27,0.0
506.33,-11.0
506.39,16.0
506.46,8.0
506.52,2.0
506.58,-2.0
506.65,1.0
506.71,-2.0
506.77,19.0
506.83,35.0
506.9,17.0
506.96,14.0
507.02,8.0
507.09,14.0
507.15,19.0
507.21,13.0
507.28,34.0
507.34,30.0
507.4,14.0
507.46,22.0
507.53,38.0
507.59,29.0
507.65,25.0
507.72,27.0
507.78,31.0
507.84,31.0
507.91,17.0
507.97,37.0
508.03,42.0
508.09,18.0
508.16,12.0
508.22,33.0
508.28,34.0
508.35,32.0
508.41,25.0
508.47,33.0
508.54,37.0
508.6,36.0
508.66,35.0
508.72,32.0
508.79,30.0
508.85,56.0
508.91,75.0
508.98,55.0
509.04,69.0
509.1,67.0
509.17,82.0
509.23,70.0
509.29,64.0
509.35,54.0
509.42,64.0
509.48,53.0
509.54,90.0
509.61,102.0
509.67,92.0
509.73,96.0
509.8,75.0
509.86,58.0
509.92,53.0
509.98,72.0
510.05,76.0
510.11,73.0
510.17,78.0
510.24,81.0
510.3,64.0
510.36,70.0
510.43,64.0
510.49,58.0
510.55,69.0
510.61,67.0
510.68,42.0
510.74,55.0
510.8,77.0
510.87,73.0
510.93,63.0
510.99,89.0
511.06,88.0
511.12,88.0
511.18,60.0
511.24,75.0
511.31,85.0
511.37,100.0
511.43,88.0
511.5,96.0
511.56,113.0
511.62,94.0
511.69,83.0
511.75,97.0
511.81,92.0
511.87,92.0
511.94,74.0
512.0,90.0
512.06,113.0
512.13,95.0
512.19,114.0
512.25,120.0
512.32,117.0
512.38,122.0
512.44,123.0
512.5,125.0
512.57,136.0
512.63,127.0
512.69,124.0
512.76,125.0
512.82,122.0
512.88,132.0
512.95,136.0
513.01,121.0
513.07,146.0
513.13,141.0
513.2,146.0
513.26,130.0
513.32,139.0
513.39,123.0
513.45,131.0
513.51,146.0
513.58,120.0
513.64,134.0
513.7,140.0
513.76,121.0
513.83,135.0
513.89,156.0
513.95,138.0
514.02,141.0
514.08,123.0
514.14,143.0
514.21,154.0
514.27,152.0
514.33,154.0
514.39,147.0
514.46,144.0
514.52,138.0
514.58,148.0
514.65,130.0
514.71,152.0
514.77,146.0
514.84,138.0
514.9,135.0
514.96,143.0
515.02,162.0
515.09,159.0
515.15,160.0
515.21,156.0
515.28,170.0
515.34,163.0
515.4,155.0
515.47,173.0
515.53,157.0
515.59,181.0
515.65,186.0
515.72,184.0
515.78,172.0
515.84,169.0
515.91,171.0
515.97,147.0
516.03,153.0
516.1,166.0
516.16,187.0
516.22,182.0
516.28,181.0
516.35,193.0
516.41,185.0
516.47,192.0
516.54,181.0
516.6,194.0
516.66,198.0
516.73,196.0
516.79,176.0
516.85,173.0
516.91,165.0
516.98,147.0
517.04,175.0
517.1,158.0
517.17,158.0
517.23,180.0
517.29,177.0
517.36,183.0
517.42,158.0
517.48,166.0
517.54,165.0
517.61,169.0
517.67,169.0
517.73,150.0
517.8,154.0
517.86,146.0
517.92,159.0
517.99,165.0
518.05,169.0
518.11,182.0
518.17,179.0
518.24,177.0
518.3,174.0
518.36,174.0
518.43,185.0
518.49,167.0
518.55,155.0
518.62,168.0
518.68,157.0
518.74,158.0
518.8,147.0
518.87,141.0
518.93,148.0
518.99,126.0
519.06,120.0
519.12,130.0
519.18,114.0
519.25,111.0
519.31,107.0
519.37,102.0
519.43,114.0
519.5,92.0
519.56,96.0
519.62,114.0
519.69,102.0
519.75,111.0
519.81,100.0
519.88,118.0
519.94,101.0
520.0,117.0
520.06,118.0
520.13,83.0
520.19,102.0
520.25,109.0
520.32,107.0
520.38,100.0
520.44,104.0
520.51,99.0
520.57,87.0
520.63,84.0
520.69,97.0
520.76,78.0
520.82,81.0
520.88,89.0
520.95,83.0
521.01,81.0
521.07,77.0
521.14,71.0
521.2,75.0
521.26,67.0
521.32,75.0
521.39,85.0
521.45,75.0
521.51,80.0
521.58,61.0
521.64,78.0
521.7,81.0
521.77,63.0
521.83,68.0
521.89,63.0
521.95,67.0
522.02,83.0
522.08,71.0
522.14,89.0
522.21,86.0
522.27,65.0
522.33,68.0
522.4,91.0
522.46,79.0
522.52,85.0
522.58,95.0
522.65,81.0
522.71,81.0
522.77,85.0
522.84,94.0
522.9,77.0
522.96,90.0
523.03,96.0
523.09,86.0
523.15,114.0
523.21,104.0
523.28,98.0
523.34,108.0
523.4,84.0
523.47,86.0
523.53,116.0
523.59,104.0
523.66,104.0
523.72,86.0
523.78,95.0
523.84,104.0
523.91,89.0
523.97,101.0
524.03,95.0
524.1,104.0
524.16,118.0
524.22,95.0
524.29,84.0
524.35,103.0
524.41,77.0
524.47,67.0
524.54,76.0
524.6,82.0
524.66,111.0
524.73,87.0
524.79,79.0
524.85,111.0
524.92,115.0
524.98,93.0
525.04,94.0
525.1,107.0
525.17,113.0
525.23,107.0
525.29,104.0
525.36,111.0
525.42,102.0
525.48,79.0
525.55,80.0
525.61,89.0
525.67,78.0
525.73,87.0
525.8,77.0
525.86,77.0
525.92,75.0
525.99,86.0
526.05,67.0
526.11,66.0
526.18,64.0
526.24,70.0
526.3,70.0
526.36,74.0
526.43,83.0
526.49,97.0
526.55,95.0
526.62,78.0
526.68,92.0
526.74,92.0
526.81,83.0
526.87,90.0
526.93,83.0
526.99,102.0
527.06,103.0
527.12,90.0
527.18,73.0
527.25,102.0
527.31,95.0
527.37,83.0
527.44,81.0
527.5,56.0
527.56,74.0
527.62,71.0
527.69,72.0
527.75,88.0
527.81,90.0
527.88,78.0
527.94,76.0
528.0,92.0
528.07,78.0
528.13,111.0
528.19,94.0
528.25,98.0
528.32,97.0
528.38,95.0
528.44,84.0
528.51,94.0
528.57,99.0
528.63,101.0
528.7,81.0
528.76,80.0
528.82,75.0
528.88,79.0
528.95,79.0
529.01,88.0
529.07,106.0
529.14,97.0
529.2,111.0
529.26,100.0
529.33,97.0
529.39,77.0
529.45,93.0
529.51,95.0
529.58,93.0
529.64,110.0
529.7,111.0
529.77,122.0
529.83,109.0
529.89,88.0
529.96,90.0
530.02,100.0
530.08,110.0
530.14,95.0
530.21,94.0
530.27,87.0
530.33,91.0
530.4,107.0
530.46,95.0
530.52,96.0
530.59,87.0
530.65,103.0
530.71,105.0
530.77,99.0
530.84,118.0
530.9,113.0
530.96,102.0
531.03,130.0
531.09,121.0
531.15,135.0
531.22,127.0
531.28,116.0
531.34,136.0
531.4,139.0
531.47,154.0
531.53,151.0
531.59,145.0
531.66,143.0
531.72,155.0
531.78,157.0
531.85,150.0
531.91,157.0
531.97,145.0
532.03,139.0
532.1,154.0
532.16,160.0
532.22,165.0
532.29,184.0
532.35,172.0
532.41,174.0
532.48,162.0
532.54,162.0
532.6,162.0
532.66,150.0
532.73,156.0
532.79,150.0
532.85,157.0
532.92,151.0
532.98,174.0
533.04,164.0
533.11,159.0
533.17,174.0
533.23,167.0
533.29,170.0
533.36,167.0
533.42,177.0
533.48,189.0
533.55,183.0
533.61,176.0
533.67,174.0
533.74,185.0
533.8,185.0
533.86,168.0
533.92,178.0
533.99,166.0
534.05,190.0
534.11,198.0
534.18,191.0
534.24,190.0
534.3,187.0
534.37,191.0
534.43,200.0
534.49,188.0
534.55,175.0
534.62,184.0
534.68,179.0
534.74,169.0
534.81,154.0
534.87,186.0
534.93,149.0
535.0,148.0
535.06,148.0
535.12,145.0
535.18,148.0
535.25,147.0
535.31,147.0
535.37,161.0
535.44,154.0
535.5,144.0
535.56,150.0
535.63,134.0
535.69,150.0
535.75,162.0
535.81,146.0
535.88,141.0
535.94,128.0
536.0,136.0
536.07,143.0
536.13,118.0
536.19,136.0
536.26,109.0
536.32,122.0
536.38,127.0
536.44,110.0
536.51,119.0
536.57,98.0
536.63,92.0
536.7,86.0
536.76,108.0
536.82,89.0
536.89,94.0
536.95,102.0
537.01,77.0
537.07,88.0
537.14,74.0
537.2,57.0
537.26,79.0
537.33,97.0
537.39,99.0
537.45,75.0
537.52,86.0
537.58,99.0
537.64,74.0
537.7,77.0
537.77,74.0
537.83,74.0
537.89,78.0
537.96,80.0
538.02,80.0
538.08,68.0
538.15,70.0
538.21,92.0
538.27,89.0
538.33,74.0
538.4,50.0
538.46,63.0
538.52,61.0
538.59,61.0
538.65,58.0
538.71,68.0
538.78,65.0
538.84,95.0
538.9,106.0
538.96,103.0
539.03,89.0
539.09,94.0
539.15,114.0
539.22,123.0
539.28,110.0
539.34,140.0
539.41,125.0
539.47,141.0
539.53,133.0
539.59,123.0
539.66,129.0
539.72,149.0
539.78,125.0
539.85,105.0
539.91,114.0
539.97,95.0
540.04,116.0
540.1,96.0
540.16,103.0
540.22,111.0
540.29,132.0
540.35,126.0
540.41,111.0
540.48,122.0
540.54,120.0
540.6,125.0
540.67,124.0
540.73,119.0
540.79,130.0
540.85,132.0
540.92,122.0
540.98,110.0
541.04,120.0
541.11,115.0
541.17,113.0
541.23,101.0
541.3,113.0
541.36,88.0
541.42,95.0
541.48,92.0
541.55,97.0
541.61,86.0
541.67,89.0
541.74,99.0
541.8,95.0
541.86,91.0
541.93,102.0
541.99,84.0
542.05,99.0
542.11,123.0
542.18,101.0
542.24,92.0
542.3,102.0
542.37,86.0
542.43,95.0
542.49,94.0
542.56,94.0
542.62,78.0
542.68,70.0
542.74,86.0
542.81,87.0
542.87,86.0
542.93,87.0
543.0,89.0
543.06,122.0
543.12,114.0
543.19,116.0
543.25,117.0
543.31,108.0
543.37,106.0
543.44,113.0
543.5,111.0
543.56,107.0
543.63,102.0
543.69,89.0
543.75,83.0
543.82,73.0
543.88,75.0
543.94,68.0
544.0,49.0
544.07,69.0
544.13,65.0
544.19,63.0
544.26,59.0
544.32,47.0
544.38,60.0
544.45,55.0
544.51,53.0
544.57,57.0
544.63,37.0
544.7,25.0
544.76,38.0
544.82,35.0
544.89,55.0
544.95,41.0
545.01,45.0
545.08,58.0
545.14,29.0
545.2,70.0
545.26,43.0
545.33,66.0
545.39,77.0
545.45,72.0
545.52,59.0
545.58,52.0
545.64,48.0
545.71,22.0
545.77,33.0
545.83,52.0
545.89,48.0
545.96,48.0
546.02,60.0
546.08,56.0
546.15,33.0
546.21,26.0
546.27,35.0
546.34,37.0
546.4,41.0
546.46,44.0
546.52,44.0
546.59,52.0
546.65,40.0
546.71,52.0
546.78,59.0
546.84,45.0
546.9,41.0
546.97,45.0
547.03,64.0
547.09,62.0
547.15,67.0
547.22,77.0
547.28,78.0
547.34,75.0
547.41,60.0
547.47,76.0
547.53,97.0
547.6,90.0
547.66,96.0
547.72,96.0
547.78,86.0
547.85,88.0
547.91,82.0
547.97,91.0
548.04,75.0
548.1,92.0
548.16,96.0
548.23,84.0
548.29,92.0
548.35,79.0
548.41,90.0
548.48,87.0
548.54,88.0
548.6,89.0
548.67,79.0
548.73,76.0
548.79,80.0
548.86,100.0
548.92,100.0
548.98,106.0
549.04,116.0
549.11,107.0
549.17,102.0
549.23,99.0
549.3,91.0
549.36,99.0
549.42,110.0
549.49,119.0
549.55,102.0
549.61,108.0
549.67,103.0
549.74,108.0
549.8,132.0
549.86,129.0
549.93,143.0
549.99,137.0
550.05,136.0
550.12,158.0
550.18,165.0
550.24,126.0
550.3,156.0
550.37,154.0
550.43,154.0
550.49,178.0
550.56,142.0
550.62,130.0
550.68,134.0
550.75,144.0
550.81,158.0
550.87,158.0
550.93,169.0
551.0,167.0
551.06,156.0
551.12,158.0
551.19,157.0
551.25,132.0
551.31,149.0
551.38,133.0
551.44,127.0
551.5,147.0
551.56,149.0
551.63,136.0
551.69,118.0
551.75,118.0
551.82,124.0
551.88,122.0
551.94,131.0
552.01,106.0
552.07,94.0
552.13,83.0
552.19,96.0
552.26,114.0
552.32,84.0
552.38,88.0
552.45,92.0
552.51,94.0
552.57,93.0
552.64,90.0
552.7,70.0
552.76,87.0
552.82,73.0
552.89,93.0
552.95,77.0
553.01,88.0
553.08,84.0
553.14,89.0
553.2,99.0
553.27,98.0
553.33,106.0
553.39,114.0
553.45,97.0
553.52,89.0
553.58,85.0
553.64,108.0
553.71,114.0
553.77,101.0
553.83,86.0
553.9,62.0
553.96,85.0
554.02,69.0
554.08,67.0
554.15,66.0
554.21,81.0
554.27,74.0
554.34,64.0
554.4,70.0
554.46,65.0
554.53,53.0
554.59,40.0
554.65,49.0
554.71,52.0
554.78,67.0
554.84,47.0
554.9,41.0
554.97,56.0
555.03,58.0
555.09,73.0
555.16,59.0
555.22,61.0
555.28,61.0
555.34,59.0
555.41,53.0
555.47,49.0
555.53,44.0
555.6,46.0
555.66,44.0
555.72,47.0
555.79,62.0
555.85,63.0
555.91,68.0
555.97,56.0
556.04,59.0
556.1,68.0
556.16,58.0
556.23,61.0
556.29,84.0
556.35,87.0
556.42,83.0
556.48,121.0
556.54,120.0
556.6,111.0
556.67,113.0
556.73,104.0
556.79,111.0
556.86,114.0
556.92,115.0
556.98,105.0
557.05,113.0
557.11,117.0
557.17,114.0
557.23,106.0
557.3,111.0
557.36,105.0
557.42,117.0
557.49,107.0
557.55,111.0
557.61,100.0
557.68,103.0
557.74,108.0
557.8,101.0
557.86,109.0
557.93,107.0
557.99,102.0
558.05,104.0
558.12,97.0
558.18,121.0
558.24,99.0
558.31,110.0
558.37,83.0
558.43,61.0
558.49,91.0
558.56,89.0
558.62,94.0
558.68,97.0
558.75,99.0
558.81,103.0
558.87,110.0
558.94,99.0
559.0,97.0
559.06,92.0
559.12,94.0
559.19,73.0
559.25,86.0
559.31,104.0
559.38,98.0
559.44,81.0
559.5,77.0
559.57,86.0
559.63,89.0
559.69,74.0
559.75,79.0
559.82,70.0
559.88,90.0
559.94,107.0
560.01,112.0
560.07,109.0
560.13,103.0
560.2,103.0
560.26,108.0
560.32,104.0
560.38,104.0
560.45,110.0
560.51,117.0
560.57,118.0
560.64,119.0
560.7,111.0
560.76,105.0
560.83,111.0
560.89,116.0
560.95,124.0
561.01,127.0
561.08,128.0
561.14,124.0
561.2,106.0
561.27,110.0
561.33,105.0
561.39,96.0
561.46,101.0
561.52,112.0
561.58,102.0
561.64,110.0
561.71,119.0
561.77,114.0
561.83,111.0
561.9,99.0
561.96,117.0
562.02,105.0
562.09,94.0
562.15,103.0
562.21,99.0
562.27,96.0
562.34,87.0
562.4,86.0
562.46,72.0
562.53,80.0
562.59,78.0
562.65,70.0
562.72,61.0
562.78,92.0
562.84,70.0
562.9,67.0
562.97,70.0
563.03,56.0
563.09,47.0
563.16,58.0
563.22,63.0
563.28,69.0
563.35,56.0
563.41,73.0
563.47,58.0
563.53,57.0
563.6,78.0
563.66,59.0
563.72,73.0
563.79,69.0
563.85,80.0
563.91,71.0
563.98,72.0
564.04,66.0
564.1,91.0
564.16,90.0
564.23,99.0
564.29,101.0
564.35,86.0
564.42,90.0
564.48,77.0
564.54,63.0
564.61,89.0
564.67,70.0
564.73,61.0
564.79,94.0
564.86,84.0
564.92,77.0
564.98,67.0
565.05,93.0
565.11,105.0
565.17,84.0
565.24,102.0
565.3,114.0
565.36,111.0
565.42,107.0
565.49,99.0
565.55,116.0
565.61,109.0
565.68,130.0
565.74,108.0
565.8,96.0
565.87,114.0
565.93,97.0
565.99,118.0
566.05,135.0
566.12,107.0
566.18,106.0
566.24,125.0
566.31,127.0
566.37,134.0
566.43,123.0
566.5,126.0
566.56,132.0
566.62,130.0
566.68,141.0
566.75,136.0
566.81,132.0
566.87,150.0
566.94,132.0
567.0,133.0
567.06,122.0
567.13,144.0
567.19,129.0
567.25,127.0
567.31,140.0
567.38,143.0
567.44,126.0
567.5,145.0
567.57,127.0
567.63,124.0
567.69,141.0
567.76,130.0
567.82,129.0
567.88,138.0
567.94,140.0
568.01,152.0
568.07,159.0
568.13,157.0
568.2,160.0
568.26,149.0
568.32,158.0
568.39,155.0
568.45,154.0
568.51,150.0
568.57,146.0
568.64,114.0
568.7,138.0
568.76,140.0
568.83,128.0
568.89,148.0
568.95,137.0
569.02,131.0
569.08,111.0
569.14,124.0
569.2,110.0
569.27,105.0
569.33,113.0
569.39,105.0
569.46,83.0
569.52,88.0
569.58,99.0
569.65,105.0
569.71,92.0
569.77,81.0
569.83,70.0
569.9,56.0
569.96,81.0
570.02,77.0
570.09,77.0
570.15,69.0
570.21,80.0
570.28,69.0
570.34,53.0
570.4,70.0
570.46,65.0
570.53,64.0
570.59,36.0
570.65,40.0
570.72,27.0
570.78,32.0
570.84,26.0
570.91,20.0
570.97,39.0
571.03,51.0
571.09,33.0
571.16,41.0
571.22,27.0
571.28,32.0
571.35,59.0
571.41,45.0
571.47,57.0
571.54,64.0
571.6,45.0
571.66,58.0
571.72,54.0
571.79,52.0
571.85,45.0
571.91,45.0
571.98,45.0
572.04,33.0
572.1,58.0
572.17,61.0
572.23,45.0
572.29,59.0
572.35,55.0
572.42,43.0
572.48,64.0
572.54,52.0
572.61,45.0
572.67,41.0
572.73,47.0
572.8,61.0
572.86,56.0
572.92,60.0
572.98,44.0
573.05,37.0
573.11,33.0
573.17,33.0
573.24,55.0
573.3,55.0
573.36,64.0
573.43,54.0
573.49,63.0
573.55,48.0
573.61,56.0
573.68,59.0
573.74,49.0
573.8,63.0
573.87,64.0
573.93,58.0
573.99,61.0
574.06,60.0
574.12,62.0
574.18,69.0
574.24,75.0
574.31,62.0
574.37,62.0
574.43,74.0
574.5,67.0
574.56,62.0
574.62,59.0
574.69,58.0
574.75,59.0
574.81,65.0
574.87,50.0
574.94,72.0
575.0,83.0
575.06,77.0
575.13,72.0
575.19,55.0
575.25,72.0
575.32,78.0
575.38,91.0
575.44,67.0
575.5,84.0
575.57,81.0
575.63,88.0
575.69,88.0
575.76,93.0
575.82,86.0
575.88,97.0
575.95,121.0
576.01,104.0
576.07,94.0
576.13,121.0
576.2,119.0
576.26,110.0
576.32,107.0
576.39,110.0
576.45,117.0
576.51,104.0
576.58,95.0
576.64,88.0
576.7,71.0
576.76,89.0
576.83,73.0
576.89,64.0
576.95,67.0
577.02,77.0
577.08,72.0
577.14,105.0
577.21,95.0
577.27,97.0
577.33,88.0
577.39,84.0
577.46,89.0
577.52,68.0
577.58,71.0
577.65,73.0
577.71,74.0
577.77,83.0
577.84,78.0
577.9,58.0
577.96,59.0
578.02,56.0
578.09,74.0
578.15,56.0
578.21,68.0
578.28,35.0
578.34,58.0
578.4,57.0
578.47,73.0
578.53,78.0
578.59,77.0
578.65,77.0
578.72,64.0
578.78,66.0
578.84,73.0
578.91,72.0
578.97,88.0
579.03,78.0
579.1,78.0
579.16,99.0
579.22,86.0
579.28,73.0
579.35,74.0
579.41,74.0
579.47,72.0
579.54,89.0
579.6,73.0
579.66,78.0
579.73,94.0
579.79,90.0
579.85,88.0
579.91,78.0
579.98,81.0
580.04,63.0
580.1,58.0
580.17,53.0
580.23,59.0
580.29,74.0
580.36,78.0
580.42,74.0
580.48,67.0
580.54,76.0
580.61,69.0
580.67,83.0
580.73,92.0
580.8,77.0
580.86,103.0
580.92,111.0
580.99,93.0
581.05,92.0
581.11,107.0
581.17,120.0
581.24,107.0
581.3,79.0
581.36,76.0
581.43,80.0
581.49,79.0
581.55,92.0
581.62,95.0
581.68,100.0
581.74,105.0
581.8,96.0
581.87,108.0
581.93,95.0
581.99,114.0
582.06,103.0
582.12,108.0
582.18,94.0
582.25,110.0
582.31,90.0
582.37,106.0
582.43,109.0
582.5,123.0
582.56,125.0
582.62,129.0
582.69,135.0
582.75,139.0
582.81,138.0
582.88,128.0
582.94,134.0
583.0,143.0
583.06,148.0
583.13,155.0
583.19,143.0
583.25,138.0
583.32,144.0
583.38,144.0
583.44,140.0
583.51,143.0
583.57,149.0
583.63,148.0
583.69,147.0
583.76,145.0
583.82,153.0
583.88,147.0
583.95,151.0
584.01,153.0
584.07,163.0
584.14,152.0
584.2,146.0
584.26,165.0
584.32,140.0
584.39,148.0
584.45,131.0
584.51,157.0
584.58,136.0
584.64,161.0
584.7,147.0
584.77,169.0
584.83,168.0
584.89,154.0
584.95,146.0
585.02,115.0
585.08,136.0
585.14,138.0
585.21,152.0
585.27,143.0
585.33,154.0
585.4,141.0
585.46,142.0
585.52,132.0
585.58,143.0
585.65,123.0
585.71,100.0
585.77,111.0
585.84,112.0
585.9,107.0
585.96,105.0
586.03,129.0
586.09,112.0
586.15,111.0
586.21,110.0
586.28,113.0
586.34,110.0
586.4,118.0
586.47,103.0
586.53,101.0
586.59,84.0
586.66,102.0
586.72,83.0
586.78,83.0
586.84,93.0
586.91,102.0
586.97,104.0
587.03,92.0
587.1,70.0
587.16,67.0
587.22,75.0
587.29,50.0
587.35,56.0
587.41,55.0
587.47,51.0
587.54,47.0
587.6,73.0
587.66,63.0
587.73,37.0
587.79,31.0
587.85,38.0
587.92,31.0
587.98,26.0
588.04,50.0
588.1,46.0
588.17,30.0
588.23,23.0
588.29,15.0
588.36,7.0
588.42,4.0
588.48,19.0
588.55,12.0
588.61,19.0
588.67,38.0
588.73,25.0
588.8,9.0
588.86,25.0
588.92,9.0
588.99,0.0
589.05,-16.0
589.11,-4.0
589.18,15.0
589.24,10.0
589.3,20.0
589.36,18.0
589.43,42.0
589.49,48.0
589.55,67.0
589.62,38.0
589.68,41.0
589.74,43.0
589.81,50.0
589.87,48.0
589.93,40.0
589.99,37.0
590.06,60.0
590.12,48.0
590.18,39.0
590.25,68.0
590.31,73.0
590.37,50.0
590.44,33.0
590.5,51.0
590.56,69.0
590.62,42.0
590.69,34.0
590.75,42.0
590.81,56.0
590.88,47.0
590.94,61.0
591.0,69.0
591.07,70.0
591.13,67.0
591.19,69.0
591.25,68.0
591.32,68.0
591.38,76.0
591.44,82.0
591.51,80.0
591.57,92.0
591.63,73.0
591.7,83.0
591.76,87.0
591.82,71.0
591.88,86.0
591.95,72.0
592.01,81.0
592.07,79.0
592.14,79.0
592.2,80.0
592.26,88.0
592.33,108.0
592.39,106.0
592.45,93.0
592.51,90.0
592.58,95.0
592.64,92.0
592.7,84.0
592.77,79.0
592.83,82.0
592.89,103.0
592.96,116.0
593.02,114.0
593.08,116.0
593.14,114.0
593.21,106.0
593.27,120.0
593.33,114.0
593.4,94.0
593.46,104.0
593.52,101.0
593.59,109.0
593.65,84.0
593.71,105.0
593.77,83.0
593.84,95.0
593.9,102.0
593.96,92.0
594.03,95.0
594.09,111.0
594.15,100.0
594.22,112.0
594.28,117.0
594.34,126.0
594.4,124.0
594.47,124.0
594.53,129.0
594.59,135.0
594.66,130.0
594.72,122.0
594.78,107.0
594.85,123.0
594.91,123.0
594.97,109.0
595.03,107.0
595.1,112.0
595.16,108.0
595.22,105.0
595.29,89.0
595.35,99.0
595.41,116.0
595.48,102.0
595.54,98.0
595.6,124.0
595.66,120.0
595.73,119.0
595.79,109.0
595.85,109.0
595.92,116.0
595.98,94.0
596.04,102.0
596.11,84.0
596.17,79.0
596.23,97.0
596.29,82.0
596.36,87.0
596.42,73.0
596.48,78.0
596.55,89.0
596.61,94.0
596.67,99.0
596.74,86.0
596.8,90.0
596.86,92.0
596.92,82.0
596.99,92.0
597.05,87.0
597.11,72.0
597.18,74.0
597.24,100.0
597.3,92.0
597.37,119.0
597.43,112.0
597.49,106.0
597.55,118.0
597.62,103.0
597.68,100.0
597.74,94.0
597.81,109.0
597.87,119.0
597.93,131.0
598.0,135.0
598.06,129.0
598.12,120.0
598.18,135.0
598.25,138.0
598.31,129.0
598.37,117.0
598.44,134.0
598.5,137.0
598.56,109.0
598.63,134.0
598.69,126.0
598.75,140.0
598.81,131.0
598.88,105.0
598.94,106.0
599.0,105.0
599.07,127.0
599.13,121.0
599.19,126.0
599.26,116.0
599.32,143.0
599.38,146.0
599.44,130.0
599.51,151.0
599.57,160.0
599.63,144.0
599.7,153.0
599.76,162.0
599.82,160.0
599.89,167.0
599.95,164.0
600.01,169.0
600.07,183.0
600.14,164.0
600.2,158.0
600.26,189.0
600.33,173.0
600.39,177.0
600.45,174.0
600.52,190.0
600.58,194.0
600.64,181.0
600.7,193.0
600.77,181.0
600.83,173.0
600.89,172.0
600.96,164.0
601.02,164.0
601.08,164.0
601.15,169.0
601.21,145.0
601.27,146.0
601.33,161.0
601.4,158.0
601.46,177.0
601.52,179.0
601.59,178.0
601.65,177.0
601.71,178.0
601.78,174.0
601.84,181.0
601.9,185.0
601.96,185.0
602.03,183.0
602.09,167.0
602.15,161.0
602.22,176.0
602.28,168.0
602.34,160.0
602.41,176.0
602.47,170.0
602.53,162.0
602.59,182.0
602.66,171.0
602.72,156.0
602.78,133.0
602.85,139.0
602.91,133.0
602.97,132.0
603.04,122.0
603.1,120.0
603.16,104.0
603.22,82.0
603.29,76.0
603.35,92.0
603.41,83.0
603.48,57.0
603.54,73.0
603.6,68.0
603.67,71.0
603.73,56.0
603.79,51.0
603.85,58.0
603.92,81.0
603.98,79.0
604.04,88.0
604.11,78.0
604.17,61.0
604.23,61.0
604.3,53.0
604.36,65.0
604.42,53.0
604.48,44.0
604.55,47.0
604.61,21.0
604.67,27.0
604.74,34.0
604.8,35.0
604.86,35.0
604.93,43.0
604.99,49.0
605.05,38.0
605.11,23.0
605.18,32.0
605.24,26.0
605.3,25.0
605.37,35.0
605.43,45.0
605.49,57.0
605.56,56.0
605.62,39.0
605.68,33.0
605.74,10.0
605.81,19.0
605.87,9.0
605.93,23.0
606.0,14.0
606.06,7.0
606.12,16.0
606.19,21.0
606.25,28.0
606.31,15.0
606.37,15.0
606.44,18.0
606.5,12.0
606.56,17.0
606.63,25.0
606.69,24.0
606.75,38.0
606.82,43.0
606.88,51.0
606.94,33.0
607.0,36.0
607.07,48.0
607.13,32.0
607.19,21.0
607.26,16.0
607.32,35.0
607.38,32.0
607.45,20.0
607.51,10.0
607.57,14.0
607.63,19.0
607.7,27.0
607.76,32.0
607.82,34.0
607.89,32.0
607.95,32.0
608.01,48.0
608.08,42.0
608.14,36.0
608.2,47.0
608.26,45.0
608.33,32.0
608.39,28.0
608.45,43.0
608.52,50.0
608.58,66.0
608.64,53.0
608.71,71.0
608.77,90.0
608.83,104.0
608.89,91.0
608.96,71.0
609.02,54.0
609.08,49.0
609.15,80.0
609.21,66.0
609.27,53.0
609.34,42.0
609.4,64.0
609.46,69.0
609.52,59.0
609.59,57.0
609.65,58.0
609.71,67.0
609.78,65.0
609.84,64.0
609.9,62.0
609.97,45.0
610.03,37.0
610.09,29.0
610.15,35.0
610.22,39.0
610.28,50.0
610.34,51.0
610.41,46.0
610.47,42.0
610.53,54.0
610.6,45.0
610.66,66.0
610.72,70.0
610.78,64.0
610.85,50.0
610.91,54.0
610.97,46.0
611.04,50.0
611.1,50.0
611.16,40.0
611.23,45.0
611.29,25.0
611.35,47.0
611.41,40.0
611.48,43.0
611.54,50.0
611.6,60.0
611.67,47.0
611.73,34.0
611.79,50.0
611.86,51.0
611.92,57.0
611.98,51.0
612.04,60.0
612.11,40.0
612.17,16.0
612.23,34.0
612.3,62.0
612.36,62.0
612.42,50.0
612.49,49.0
612.55,21.0
612.61,35.0
612.67,16.0
612.74,34.0
612.8,52.0
612.86,18.0
612.93,23.0
612.99,36.0
613.05,26.0
613.12,32.0
613.18,21.0
613.24,19.0
613.3,16.0
613.37,25.0
613.43,34.0
613.49,43.0
613.56,5.0
613.62,26.0
613.68,32.0
613.75,27.0
613.81,31.0
613.87,-2.0
613.93,35.0
614.0,36.0
614.06,24.0
614.12,28.0
614.19,47.0
614.25,30.0
614.31,20.0
614.38,23.0
614.44,19.0
614.5,20.0
614.56,8.0
614.63,31.0
614.69,20.0
614.75,31.0
614.82,34.0
614.88,42.0
614.94,46.0
615.01,48.0
615.07,24.0
615.13,21.0
615.19,31.0
615.26,38.0
615.32,41.0
615.38,37.0
615.45,61.0
615.51,67.0
615.57,62.0
615.64,67.0
615.7,82.0
615.76,53.0
615.82,71.0
615.89,70.0
615.95,73.0
616.01,70.0
616.08,75.0
616.14,86.0
616.2,99.0
616.27,104.0
616.33,124.0
616.39,108.0
616.45,126.0
616.52,135.0
616.58,130.0
616.64,134.0
616.71,141.0
616.77,139.0
616.83,156.0
616.9,156.0
616.96,166.0
617.02,170.0
617.08,145.0
617.15,177.0
617.21,181.0
617.27,153.0
617.34,156.0
617.4,201.0
617.46,192.0
617.53,174.0
617.59,181.0
617.65,178.0
617.71,191.0
617.78,180.0
617.84,190.0
617.9,193.0
617.97,177.0
618.03,173.0
618.09,172.0
618.16,166.0
618.22,154.0
618.28,170.0
618.34,165.0
618.41,192.0
618.47,169.0
618.53,178.0
618.6,169.0
618.66,167.0
618.72,186.0
618.79,185.0
618.85,184.0
618.91,159.0
618.97,171.0
619.04,172.0
619.1,178.0
619.16,178.0
619.23,163.0
619.29,156.0
619.35,154.0
619.42,165.0
619.48,164.0
619.54,154.0
619.6,160.0
619.67,145.0
619.73,147.0
619.79,155.0
619.86,174.0
619.92,167.0
619.98,148.0
620.05,159.0
620.11,139.0
620.17,152.0
620.23,134.0
620.3,123.0
620.36,133.0
620.42,138.0
620.49,138.0
620.55,142.0
620.61,131.0
620.68,152.0
620.74,143.0
620.8,150.0
620.86,177.0
620.93,144.0
620.99,153.0
621.05,139.0
621.12,124.0
621.18,109.0
621.24,106.0
621.31,117.0
621.37,119.0
621.43,98.0
621.49,95.0
621.56,97.0
621.62,103.0
621.68,105.0
621.75,106.0
621.81,92.0
621.87,104.0
621.94,104.0
622.0,82.0
622.06,72.0
622.12,78.0
622.19,92.0
622.25,69.0
622.31,77.0
622.38,88.0
622.44,75.0
622.5,97.0
622.57,89.0
622.63,78.0
622.69,68.0
622.75,74.0
622.82,84.0
622.88,93.0
622.94,92.0
623.01,89.0
623.07,78.0
623.13,86.0
623.2,76.0
623.26,99.0
623.32,112.0
623.38,100.0
623.45,110.0
623.51,116.0
623.57,104.0
623.64,91.0
623.7,95.0
623.76,112.0
623.83,103.0
623.89,105.0
623.95,116.0
624.01,114.0
624.08,94.0
624.14,103.0
624.2,104.0
624.27,111.0
624.33,123.0
624.39,97.0
624.46,94.0
624.52,87.0
624.58,70.0
624.64,74.0
624.71,81.0
624.77,64.0
624.83,62.0
624.9,64.0
624.96,64.0
625.02,69.0
625.09,71.0
625.15,66.0
625.21,69.0
625.27,43.0
625.34,53.0
625.4,82.0
625.46,56.0
625.53,51.0
625.59,60.0
625.65,64.0
625.72,82.0
625.78,84.0
625.84,60.0
625.9,65.0
625.97,81.0
626.03,101.0
626.09,89.0
626.16,78.0
626.22,84.0
626.28,103.0
626.35,105.0
626.41,110.0
626.47,96.0
626.53,95.0
626.6,99.0
626.66,105.0
626.72,82.0
626.79,92.0
626.85,89.0
626.91,72.0
626.98,79.0
627.04,86.0
627.1,79.0
627.16,81.0
627.23,86.0
627.29,86.0
627.35,87.0
627.42,99.0
627.48,84.0
627.54,72.0
627.61,76.0
627.67,78.0
627.73,103.0
627.79,93.0
627.86,84.0
627.92,86.0
627.98,81.0
628.05,76.0
628.11,94.0
628.17,76.0
628.24,84.0
628.3,67.0
628.36,80.0
628.42,81.0
628.49,93.0
628.55,101.0
628.61,99.0
628.68,98.0
628.74,98.0
628.8,87.0
628.87,69.0
628.93,67.0
628.99,67.0
629.05,79.0
629.12,65.0
629.18,57.0
629.24,48.0
629.31,41.0
629.37,62.0
629.43,53.0
629.5,58.0
629.56,56.0
629.62,48.0
629.68,28.0
629.75,54.0
629.81,17.0
629.87,4.0
629.94,31.0
630.0,29.0
630.06,43.0
630.13,31.0
630.19,34.0
630.25,7.0
630.31,21.0
630.38,3.0
630.44,19.0
630.5,21.0
630.57,30.0
630.63,31.0
630.69,21.0
630.76,23.0
630.82,29.0
630.88,24.0
630.94,14.0
631.01,17.0
631.07,21.0
631.13,15.0
631.2,29.0
631.26,39.0
631.32,30.0
631.39,57.0
631.45,37.0
631.51,63.0
631.57,56.0
631.64,70.0
631.7,67.0
631.76,68.0
631.83,90.0
631.89,86.0
631.95,69.0
632.02,53.0
632.08,61.0
632.14,94.0
632.2,86.0
632.27,100.0
632.33,105.0
632.39,103.0
632.46,106.0
632.52,94.0
632.58,119.0
632.65,117.0
632.71,130.0
632.77,129.0
632.83,102.0
632.9,116.0
632.96,126.0
633.02,120.0
633.09,134.0
633.15,127.0
633.21,122.0
633.28,122.0
633.34,140.0
633.4,135.0
633.46,125.0
633.53,151.0
633.59,145.0
633.65,141.0
633.72,154.0
633.78,156.0
633.84,139.0
633.91,132.0
633.97,141.0
634.03,148.0
634.09,157.0
634.16,144.0
634.22,152.0
634.28,173.0
634.35,175.0
634.41,191.0
634.47,188.0
634.54,179.0
634.6,185.0
634.66,186.0
634.72,181.0
634.79,188.0
634.85,188.0
634.91,193.0
634.98,188.0
635.04,185.0
635.1,191.0
635.17,181.0
635.23,174.0
635.29,187.0
635.35,180.0
635.42,141.0
635.48,161.0
635.54,181.0
635.61,175.0
635.67,169.0
635.73,161.0
635.8,145.0
635.86,149.0
635.92,130.0
635.98,124.0
636.05,148.0
636.11,159.0
636.17,166.0
636.24,163.0
636.3,149.0
636.36,147.0
636.43,154.0
636.49,177.0
636.55,171.0
636.61,132.0
636.68,142.0
636.74,134.0
636.8,137.0
636.87,128.0
636.93,116.0
636.99,126.0
637.06,107.0
637.12,123.0
637.18,116.0
637.24,123.0
637.31,100.0
637.37,100.0
637.43,109.0
637.5,89.0
637.56,77.0
637.62,86.0
637.69,72.0
637.75,83.0
637.81,92.0
637.87,68.0
637.94,74.0
638.0,80.0
638.06,87.0
638.13,75.0
638.19,80.0
638.25,43.0
638.32,32.0
638.38,40.0
638.44,39.0
638.5,50.0
638.57,71.0
638.63,64.0
638.69,53.0
638.76,51.0
638.82,69.0
638.88,57.0
638.95,56.0
639.01,64.0
639.07,64.0
639.13,69.0
639.2,43.0
639.26,36.0
639.32,53.0
639.39,64.0
639.45,54.0
639.51,70.0
639.58,66.0
639.64,80.0
639.7,68.0
639.76,70.0
639.83,75.0
639.89,69.0
639.95,63.0
640.02,48.0
640.08,57.0
640.14,53.0
640.21,67.0
640.27,42.0
640.33,54.0
640.39,42.0
640.46,42.0
640.52,54.0
640.58,42.0
640.65,61.0
640.71,61.0
640.77,59.0
640.84,59.0
640.9,63.0
640.96,49.0
641.02,40.0
641.09,42.0
641.15,45.0
641.21,55.0
641.28,45.0
641.34,59.0
641.4,46.0
641.47,30.0
641.53,40.0
641.59,47.0
641.65,43.0
641.72,45.0
641.78,43.0
641.84,49.0
641.91,64.0
641.97,61.0
642.03,71.0
642.1,48.0
642.16,41.0
642.22,64.0
642.28,61.0
642.35,45.0
642.41,49.0
642.47,42.0
642.54,75.0
642.6,75.0
642.66,61.0
642.73,60.0
642.79,58.0
642.85,32.0
642.91,42.0
642.98,46.0
643.04,44.0
643.1,44.0
643.17,50.0
643.23,52.0
643.29,73.0
643.36,74.0
643.42,52.0
643.48,48.0
643.54,51.0
643.61,68.0
643.67,66.0
643.73,61.0
643.8,71.0
643.86,69.0
643.92,57.0
643.99,64.0
644.05,53.0
644.11,61.0
644.17,64.0
644.24,73.0
644.3,63.0
644.36,87.0
644.43,84.0
644.49,63.0
644.55,63.0
644.62,72.0
644.68,55.0
644.74,62.0
644.8,71.0
644.87,88.0
644.93,83.0
644.99,71.0
645.06,83.0
645.12,76.0
645.18,62.0
645.25,67.0
645.31,61.0
645.37,69.0
645.43,68.0
645.5,81.0
645.56,60.0
645.62,86.0
645.69,80.0
645.75,74.0
645.81,91.0
645.88,99.0
645.94,101.0
646.0,108.0
646.06,118.0
646.13,122.0
646.19,122.0
646.25,114.0
646.32,97.0
646.38,93.0
646.44,109.0
646.51,101.0
646.57,95.0
646.63,96.0
646.69,124.0
646.76,111.0
646.82,89.0
646.88,103.0
646.95,105.0
647.01,106.0
647.07,92.0
647.14,68.0
647.2,70.0
647.26,83.0
647.32,86.0
647.39,88.0
647.45,92.0
647.51,99.0
647.58,76.0
647.64,76.0
647.7,64.0
647.77,106.0
647.83,93.0
647.89,92.0
647.95,98.0
648.02,95.0
648.08,111.0
648.14,111.0
648.21,108.0
648.27,106.0
648.33,105.0
648.4,109.0
648.46,108.0
648.52,110.0
648.58,116.0
648.65,102.0
648.71,107.0
648.77,101.0
648.84,101.0
648.9,116.0
648.96,121.0
649.03,134.0
649.09,159.0
649.15,154.0
649.21,144.0
649.28,151.0
649.34,154.0
649.4,155.0
649.47,139.0
649.53,142.0
649.59,135.0
649.66,147.0
649.72,135.0
649.78,128.0
649.84,136.0
649.91,148.0
649.97,174.0
650.03,161.0
650.1,172.0
650.16,176.0
650.22,194.0
650.29,189.0
650.35,186.0
650.41,200.0
650.47,205.0
650.54,191.0
650.6,183.0
650.66,211.0
650.73,201.0
650.79,187.0
650.85,201.0
650.92,194.0
650.98,191.0
651.04,184.0
651.1,195.0
651.17,211.0
651.23,193.0
651.29,182.0
651.36,183.0
651.42,181.0
651.48,186.0
651.55,203.0
651.61,201.0
651.67,190.0
651.73,193.0
651.8,201.0
651.86,193.0
651.92,209.0
651.99,200.0
652.05,176.0
652.11,192.0
652.18,185.0
652.24,194.0
652.3,172.0
652.36,179.0
652.43,187.0
652.49,183.0
652.55,177.0
652.62,167.0
652.68,172.0
652.74,169.0
652.81,174.0
652.87,182.0
652.93,180.0
652.99,170.0
653.06,154.0
653.12,176.0
653.18,175.0
653.25,160.0
653.31,144.0
653.37,156.0
653.44,147.0
653.5,148.0
653.56,148.0
653.62,134.0
653.69,152.0
653.75,156.0
653.81,146.0
653.88,159.0
653.94,157.0
654.0,158.0
654.07,141.0
654.13,134.0
654.19,134.0
654.25,120.0
654.32,127.0
654.38,116.0
654.44,122.0
654.51,107.0
654.57,122.0
654.63,119.0
654.7,95.0
654.76,88.0
654.82,103.0
654.88,104.0
654.95,90.0
655.01,90.0
655.07,93.0
655.14,77.0
655.2,81.0
655.26,73.0
655.33,66.0
655.39,62.0
655.45,57.0
655.51,64.0
655.58,67.0
655.64,56.0
655.7,44.0
655.77,53.0
655.83,52.0
655.89,54.0
655.96,44.0
656.02,41.0
656.08,43.0
656.14,45.0
656.21,43.0
656.27,55.0
656.33,46.0
656.4,28.0
656.46,38.0
656.52,36.0
656.59,41.0
656.65,57.0
656.71,53.0
656.77,71.0
656.84,54.0
656.9,62.0
656.96,63.0
657.03,56.0
657.09,66.0
657.15,63.0
657.22,68.0
657.28,71.0
657.34,77.0
657.4,84.0
657.47,101.0
657.53,97.0
657.59,80.0
657.66,88.0
657.72,86.0
657.78,70.0
657.85,93.0
657.91,67.0
657.97,80.0
658.03,80.0
658.1,86.0
658.16,76.0
658.22,82.0
658.29,79.0
658.35,69.0
658.41,60.0
658.48,79.0
658.54,76.0
658.6,73.0
658.66,83.0
658.73,76.0
658.79,79.0
658.85,73.0
658.92,83.0
658.98,100.0
659.04,84.0
659.11,98.0
659.17,105.0
659.23,86.0
659.29,103.0
659.36,109.0
659.42,96.0
659.48,119.0
659.55,92.0
659.61,91.0
659.67,95.0
659.74,93.0
659.8,94.0
659.86,98.0
659.92,131.0
659.99,131.0
660.05,114.0
660.11,123.0
660.18,106.0
660.24,92.0
660.3,117.0
660.37,113.0
660.43,119.0
660.49,133.0
660.55,104.0
660.62,121.0
660.68,121.0
660.74,123.0
660.81,124.0
660.87,94.0
660.93,99.0
661.0,94.0
661.06,95.0
661.12,93.0
661.18,103.0
661.25,109.0
661.31,123.0
661.37,125.0
661.44,129.0
661.5,130.0
661.56,119.0
661.63,119.0
661.69,104.0
661.75,123.0
661.81,115.0
661.88,134.0
661.94,112.0
662.0,106.0
662.07,87.0
662.13,82.0
662.19,96.0
662.26,98.0
662.32,102.0
662.38,97.0
662.44,89.0
662.51,81.0
662.57,77.0
662.63,69.0
662.7,75.0
662.76,73.0
662.82,56.0
662.89,52.0
662.95,55.0
663.01,52.0
663.07,51.0
663.14,50.0
663.2,50.0
663.26,57.0
663.33,73.0
663.39,78.0
663.45,61.0
663.52,55.0
663.58,51.0
663.64,49.0
663.7,49.0
663.77,48.0
663.83,51.0
663.89,43.0
663.96,64.0
664.02,82.0
664.08,75.0
664.15,60.0
664.21,68.0
664.27,89.0
664.33,81.0
664.4,75.0
664.46,86.0
664.52,74.0
664.59,88.0
664.65,67.0
664.71,68.0
664.78,83.0
664.84,72.0
664.9,80.0
664.96,59.0
665.03,55.0
665.09,71.0
665.15,63.0
665.22,43.0
665.28,61.0
665.34,60.0
665.41,74.0
665.47,70.0
665.53,93.0
665.59,71.0
665.66,59.0
665.72,93.0
665.78,79.0
665.85,70.0
665.91,68.0
665.97,81.0
666.04,95.0
666.1,79.0
666.16,87.0
666.22,78.0
666.29,68.0
666.35,73.0
666.41,86.0
666.48,79.0
666.54,71.0
666.6,75.0
666.67,84.0
666.73,103.0
666.79,108.0
666.85,94.0
666.92,86.0
666.98,93.0
667.04,84.0
667.11,104.0
667.17,94.0
667.23,105.0
667.3,104.0
667.36,98.0
667.42,105.0
667.48,109.0
667.55,130.0
667.61,122.0
667.67,117.0
667.74,137.0
667.8,141.0
667.86,136.0
667.93,151.0
667.99,151.0
668.05,156.0
668.11,151.0
668.18,134.0
668.24,145.0
668.3,159.0
668.37,161.0
668.43,145.0
668.49,158.0
668.56,170.0
668.62,171.0
668.68,134.0
668.74,138.0
668.81,143.0
668.87,170.0
668.93,171.0
669.0,188.0
669.06,187.0
669.12,184.0
669.19,168.0
669.25,177.0
669.31,196.0
669.37,199.0
669.44,189.0
669.5,181.0
669.56,164.0
669.63,148.0
669.69,174.0
669.75,157.0
669.82,155.0
669.88,163.0
669.94,153.0
670.0,148.0
670.07,146.0
670.13,147.0
670.19,141.0
670.26,142.0
670.32,134.0
670.38,164.0
670.45,143.0
670.51,134.0
670.57,136.0
670.63,119.0
670.7,114.0
670.76,143.0
670.82,148.0
670.89,145.0
670.95,167.0
671.01,139.0
671.08,139.0
671.14,121.0
671.2,116.0
671.26,134.0
671.33,96.0
671.39,98.0
671.45,89.0
671.52,100.0
671.58,92.0
671.64,97.0
671.71,85.0
671.77,94.0
671.83,89.0
671.89,59.0
671.96,71.0
672.02,68.0
672.08,70.0
672.15,64.0
672.21,56.0
672.27,61.0
672.34,59.0
672.4,60.0
672.46,47.0
672.52,66.0
672.59,59.0
672.65,64.0
672.71,60.0
672.78,39.0
672.84,65.0
672.9,38.0
672.97,57.0
673.03,39.0
673.09,50.0
673.15,57.0
673.22,57.0
673.28,68.0
673.34,48.0
673.41,45.0
673.47,57.0
673.53,50.0
673.6,42.0
673.66,43.0
673.72,45.0
673.78,65.0
673.85,57.0
673.91,46.0
673.97,42.0
674.04,49.0
674.1,43.0
674.16,62.0
674.23,57.0
674.29,55.0
674.35,29.0
674.41,32.0
674.48,45.0
674.54,39.0
674.6,53.0
674.67,42.0
674.73,46.0
674.79,37.0
674.86,33.0
674.92,13.0
674.98,31.0
675.04,42.0
675.11,32.0
675.17,41.0
675.23,20.0
675.3,31.0
675.36,26.0
675.42,39.0
675.49,45.0
675.55,37.0
675.61,52.0
675.67,50.0
675.74,75.0
675.8,83.0
675.86,72.0
675.93,76.0
675.99,69.0
676.05,80.0
676.12,69.0
676.18,74.0
676.24,75.0
676.3,72.0
676.37,59.0
676.43,66.0
676.49,52.0
676.56,55.0
676.62,64.0
676.68,67.0
676.75,67.0
676.81,75.0
676.87,62.0
676.93,54.0
677.0,65.0
677.06,50.0
677.12,54.0
677.19,91.0
677.25,62.0
677.31,56.0
677.38,65.0
677.44,68.0
677.5,84.0
677.56,58.0
677.63,71.0
677.69,84.0
677.75,80.0
677.82,78.0
677.88,44.0
677.94,69.0
678.01,90.0
678.07,89.0
678.13,71.0
678.19,52.0
678.26,67.0
678.32,65.0
678.38,64.0
678.45,82.0
678.51,65.0
678.57,55.0
678.64,67.0
678.7,57.0
678.76,74.0
678.82,66.0
678.89,90.0
678.95,98.0
679.01,99.0
679.08,97.0
679.14,100.0
679.2,100.0
679.27,88.0
679.33,69.0
679.39,63.0
679.45,70.0
679.52,72.0
679.58,57.0
679.64,59.0
679.71,68.0
679.77,75.0
679.83,78.0
679.9,58.0
679.96,34.0
680.02,43.0
680.08,49.0
680.15,48.0
680.21,55.0
680.27,45.0
680.34,47.0
680.4,31.0
680.46,30.0
680.53,32.0
680.59,20.0
680.65,34.0
680.71,24.0
680.78,35.0
680.84,32.0
680.9,28.0
680.97,32.0
681.03,27.0
681.09,25.0
681.16,29.0
681.22,45.0
681.28,49.0
681.34,47.0
681.41,53.0
681.47,53.0
681.53,64.0
681.6,62.0
681.66,64.0
681.72,64.0
681.79,88.0
681.85,49.0
681.91,52.0
681.97,64.0
682.04,47.0
682.1,51.0
682.16,66.0
682.23,67.0
682.29,62.0
682.35,65.0
682.42,68.0
682.48,65.0
682.54,73.0
682.6,70.0
682.67,80.0
682.73,92.0
682.79,79.0
682.86,68.0
682.92,44.0
682.98,68.0
683.05,78.0
683.11,83.0
683.17,81.0
683.23,90.0
683.3,111.0
683.36,123.0
683.42,135.0
683.49,126.0
683.55,112.0
683.61,127.0
683.68,134.0
683.74,144.0
683.8,160.0
683.86,131.0
683.93,151.0
683.99,138.0
684.05,153.0
684.12,166.0
684.18,172.0
684.24,197.0
684.31,192.0
684.37,193.0
684.43,174.0
684.49,168.0
684.56,174.0
684.62,167.0
684.68,169.0
684.75,176.0
684.81,170.0
684.87,171.0
684.94,167.0
685.0,163.0
685.06,165.0
685.12,165.0
685.19,188.0
685.25,187.0
685.31,177.0
685.38,185.0
685.44,216.0
685.5,195.0
685.57,180.0
685.63,177.0
685.69,178.0
685.75,192.0
685.82,211.0
685.88,203.0
685.94,205.0
686.01,191.0
686.07,203.0
686.13,195.0
686.2,211.0
686.26,200.0
686.32,181.0
686.38,194.0
686.45,179.0
686.51,187.0
686.57,200.0
686.64,191.0
686.7,205.0
686.76,203.0
686.83,200.0
686.89,192.0
686.95,195.0
687.01,179.0
687.08,185.0
687.14,183.0
687.2,176.0
687.27,189.0
687.33,187.0
687.39,206.0
687.46,188.0
687.52,188.0
687.58,186.0
687.64,189.0
687.71,169.0
687.77,157.0
687.83,174.0
687.9,150.0
687.96,148.0
688.02,155.0
688.09,158.0
688.15,146.0
688.21,149.0
688.27,160.0
688.34,155.0
688.4,141.0
688.46,155.0
688.53,137.0
688.59,130.0
688.65,141.0
688.72,135.0
688.78,122.0
688.84,102.0
688.9,120.0
688.97,108.0
689.03,101.0
689.09,112.0
689.16,97.0
689.22,112.0
689.28,102.0
689.35,95.0
689.41,84.0
689.47,76.0
689.53,92.0
689.6,110.0
689.66,112.0
689.72,103.0
689.79,92.0
689.85,87.0
689.91,96.0
689.98,108.0
690.04,93.0
690.1,94.0
690.16,101.0
690.23,100.0
690.29,103.0
690.35,81.0
690.42,88.0
690.48,83.0
690.54,62.0
690.61,72.0
690.67,89.0
690.73,87.0
690.79,93.0
690.86,101.0
690.92,89.0
690.98,64.0
691.05,53.0
691.11,68.0
691.17,75.0
691.24,54.0
691.3,78.0
691.36,65.0
691.42,51.0
691.49,32.0
691.55,43.0
691.61,35.0
691.68,26.0
691.74,36.0
691.8,29.0
691.87,42.0
691.93,53.0
691.99,22.0
692.05,41.0
692.12,29.0
692.18,47.0
692.24,35.0
692.31,21.0
692.37,34.0
692.43,26.0
692.5,26.0
692.56,24.0
692.62,31.0
692.68,31.0
692.75,12.0
692.81,35.0
692.87,45.0
692.94,41.0
693.0,51.0
693.06,36.0
693.13,23.0
693.19,37.0
693.25,34.0
693.31,45.0
693.38,51.0
693.44,46.0
693.5,38.0
693.57,54.0
693.63,51.0
693.69,68.0
693.76,38.0
693.82,45.0
693.88,59.0
693.94,52.0
694.01,53.0
694.07,51.0
694.13,59.0
694.2,39.0
694.26,33.0
694.32,52.0
694.39,66.0
694.45,56.0
694.51,49.0
694.57,34.0
694.64,53.0
694.7,68.0
694.76,53.0
694.83,54.0
694.89,42.0
694.95,42.0
695.02,78.0
695.08,46.0
695.14,50.0
695.2,42.0
695.27,46.0
695.33,61.0
695.39,56.0
695.46,51.0
695.52,35.0
695.58,46.0
695.65,45.0
695.71,37.0
695.77,44.0
695.83,49.0
695.9,27.0
695.96,36.0
696.02,26.0
696.09,43.0
696.15,53.0
696.21,38.0
696.28,46.0
696.34,46.0
696.4,24.0
696.46,21.0
696.53,20.0
696.59,25.0
696.65,27.0
696.72,30.0
696.78,19.0
696.84,26.0
696.91,15.0
696.97,16.0
697.03,31.0
697.09,38.0
697.16,27.0
697.22,31.0
697.28,42.0
697.35,45.0
697.41,32.0
697.47,33.0
697.54,46.0
697.6,37.0
697.66,27.0
697.72,33.0
697.79,35.0
697.85,54.0
697.91,47.0
697.98,39.0
698.04,42.0
698.1,53.0
698.17,47.0
698.23,37.0
698.29,32.0
698.35,53.0
698.42,68.0
698.48,55.0
698.54,64.0
698.61,66.0
698.67,73.0
698.73,60.0
698.8,60.0
698.86,54.0
698.92,49.0
698.98,62.0
699.05,58.0
699.11,56.0
699.17,73.0
699.24,75.0
699.3,59.0
699.36,83.0
699.43,93.0
699.49,90.0
699.55,86.0
699.61,63.0
699.68,62.0
699.74,84.0
699.8,76.0
699.87,87.0
699.93,104.0
699.99,95.0
700.06,99.0
700.12,107.0
700.18,137.0
700.24,120.0
700.31,118.0
700.37,127.0
700.43,135.0
700.5,115.0
700.56,121.0
700.62,128.0
700.69,124.0
700.75,142.0
700.81,142.0
700.87,137.0
700.94,162.0
701.0,170.0
701.06,141.0
701.13,156.0
701.19,168.0
701.25,173.0
701.32,166.0
701.38,167.0
701.44,159.0
701.5,169.0
701.57,160.0
701.63,185.0
701.69,169.0
701.76,164.0
701.82,191.0
701.88,184.0
701.95,171.0
702.01,159.0
702.07,189.0
702.13,193.0
702.2,202.0
702.26,190.0
702.32,189.0
702.39,187.0
702.45,163.0
702.51,172.0
702.58,177.0
702.64,191.0
702.7,189.0
702.76,188.0
702.83,191.0
702.89,192.0
702.95,195.0
703.02,188.0
703.08,168.0
703.14,179.0
703.21,172.0
703.27,197.0
703.33,169.0
703.39,155.0
703.46,161.0
703.52,152.0
703.58,161.0
703.65,145.0
703.71,152.0
703.77,157.0
703.84,156.0
703.9,147.0
703.96,153.0
704.02,141.0
704.09,156.0
704.15,166.0
704.21,146.0
704.28,133.0
704.34,136.0
704.4,125.0
704.47,119.0
704.53,121.0
704.59,126.0
704.65,140.0
704.72,155.0
704.78,153.0
704.84,136.0
704.91,134.0
704.97,162.0
705.03,166.0
705.1,147.0
705.16,137.0
705.22,136.0
705.28,135.0
705.35,138.0
705.41,123.0
705.47,133.0
705.54,134.0
705.6,143.0
705.66,119.0
705.73,117.0
705.79,116.0
705.85,128.0
705.91,104.0
705.98,108.0
706.04,108.0
706.1,99.0
706.17,108.0
706.23,104.0
706.29,105.0
706.36,113.0
706.42,108.0
706.48,116.0
706.54,110.0
706.61,130.0
706.67,139.0
706.73,131.0
706.8,128.0
706.86,129.0
706.92,106.0
706.99,112.0
707.05,113.0
707.11,95.0
707.17,100.0
707.24,106.0
707.3,108.0
707.36,102.0
707.43,121.0
707.49,121.0
707.55,107.0
707.62,116.0
707.68,122.0
707.74,116.0
707.8,94.0
707.87,100.0
707.93,95.0
707.99,102.0
708.06,101.0
708.12,104.0
708.18,104.0
708.25,108.0
708.31,106.0
708.37,103.0
708.43,94.0
708.5,101.0
708.56,102.0
708.62,86.0
708.69,101.0
708.75,97.0
708.81,98.0
708.88,83.0
708.94,100.0
709.0,112.0
709.06,97.0
709.13,85.0
709.19,75.0
709.25,81.0
709.32,86.0
709.38,94.0
709.44,94.0
709.51,84.0
709.57,106.0
709.63,80.0
709.69,97.0
709.76,74.0
709.82,76.0
709.88,106.0
709.95,106.0
710.01,119.0
710.07,126.0
710.14,121.0
710.2,111.0
710.26,97.0
710.32,116.0
710.39,125.0
710.45,114.0
710.51,104.0
710.58,106.0
710.64,98.0
710.7,94.0
710.77,97.0
710.83,101.0
710.89,110.0
710.95,107.0
711.02,98.0
711.08,107.0
711.14,114.0
711.21,115.0
711.27,108.0
711.33,105.0
711.4,137.0
711.46,129.0
711.52,123.0
711.58,119.0
711.65,123.0
711.71,128.0
711.77,111.0
711.84,119.0
711.9,113.0
711.96,127.0
712.03,142.0
712.09,109.0
712.15,120.0
712.21,120.0
712.28,114.0
712.34,112.0
712.4,108.0
712.47,114.0
712.53,107.0
712.59,104.0
712.66,99.0
712.72,100.0
712.78,102.0
712.84,102.0
712.91,101.0
712.97,118.0
713.03,111.0
713.1,106.0
713.16,94.0
713.22,95.0
713.29,87.0
713.35,94.0
713.41,92.0
713.47,94.0
713.54,86.0
713.6,86.0
713.66,86.0
713.73,81.0
713.79,90.0
713.85,78.0
713.92,67.0
713.98,81.0
714.04,82.0
714.1,104.0
714.17,81.0
714.23,82.0
714.29,94.0
714.36,63.0
714.42,67.0
714.48,54.0
714.55,53.0
714.61,29.0
714.67,48.0
714.73,39.0
714.8,58.0
714.86,43.0
714.92,25.0
714.99,28.0
715.05,17.0
715.11,25.0
715.18,16.0
715.24,16.0
715.3,10.0
715.36,27.0
715.43,16.0
715.49,7.0
715.55,-2.0
715.62,28.0
715.68,38.0
715.74,39.0
715.81,65.0
715.87,68.0
715.93,58.0
715.99,56.0
716.06,79.0
716.12,65.0
716.18,49.0
716.25,69.0
716.31,76.0
716.37,96.0
716.44,89.0
716.5,82.0
716.56,101.0
716.62,110.0
716.69,97.0
716.75,103.0
716.81,106.0
716.88,104.0
716.94,108.0
717.0,111.0
717.07,126.0
717.13,117.0
717.19,92.0
717.25,96.0
717.32,111.0
717.38,98.0
717.44,101.0
717.51,117.0
717.57,110.0
717.63,125.0
717.7,111.0
717.76,130.0
717.82,122.0
717.88,131.0
717.95,132.0
718.01,135.0
718.07,122.0
718.14,125.0
718.2,118.0
718.26,107.0
718.33,144.0
718.39,116.0
718.45,113.0
718.51,122.0
718.58,123.0
718.64,123.0
718.7,127.0
718.77,126.0
718.83,115.0
718.89,121.0
718.96,122.0
719.02,104.0
719.08,115.0
719.14,111.0
719.21,133.0
719.27,149.0
719.33,138.0
719.4,126.0
719.46,112.0
719.52,110.0
719.59,127.0
719.65,146.0
719.71,136.0
719.77,148.0
719.84,148.0
719.9,140.0
719.96,147.0
720.03,155.0
720.09,147.0
720.15,171.0
720.22,144.0
720.28,150.0
720.34,149.0
720.4,129.0
720.47,139.0
720.53,106.0
720.59,123.0
720.66,130.0
720.72,129.0
720.78,134.0
720.85,139.0
720.91,121.0
720.97,108.0
721.03,128.0
721.1,133.0
721.16,125.0
721.22,109.0
721.29,111.0
721.35,126.0
721.41,119.0
721.48,120.0
721.54,126.0
721.6,122.0
721.66,93.0
721.73,90.0
721.79,93.0
721.85,106.0
721.92,97.0
721.98,109.0
722.04,91.0
722.11,95.0
722.17,100.0
722.23,104.0
722.29,81.0
722.36,76.0
722.42,90.0
722.48,86.0
722.55,84.0
722.61,77.0
722.67,67.0
722.74,80.0
722.8,67.0
722.86,63.0
722.92,71.0
722.99,62.0
723.05,57.0
723.11,55.0
723.18,78.0
723.24,70.0
723.3,63.0
723.37,73.0
723.43,87.0
723.49,90.0
723.55,65.0
723.62,71.0
723.68,73.0
723.74,89.0
723.81,89.0
723.87,93.0
723.93,89.0
724.0,89.0
724.06,71.0
724.12,62.0
724.18,65.0
724.25,67.0
724.31,35.0
724.37,56.0
724.44,47.0
724.5,48.0
724.56,62.0
724.63,34.0
724.69,54.0
724.75,71.0
724.81,59.0
724.88,74.0
724.94,71.0
725.0,62.0
725.07,87.0
725.13,67.0
725.19,67.0
725.26,65.0
725.32,73.0
725.38,51.0
725.44,60.0
725.51,66.0
725.57,86.0
725.63,70.0
725.7,66.0
725.76,80.0
725.82,86.0
725.89,97.0
725.95,72.0
726.01,76.0
726.07,86.0
726.14,99.0
726.2,97.0
726.26,90.0
726.33,88.0
726.39,96.0
726.45,104.0
726.52,86.0
726.58,78.0
726.64,72.0
726.7,81.0
726.77,71.0
726.83,78.0
726.89,94.0
726.96,83.0
727.02,118.0
727.08,102.0
727.15,114.0
727.21,98.0
727.27,90.0
727.33,103.0
727.4,84.0
727.46,82.0
727.52,90.0
727.59,89.0
727.65,78.0
727.71,81.0
727.78,83.0
727.84,96.0
727.9,73.0
727.96,75.0
728.03,79.0
728.09,78.0
728.15,106.0
728.22,89.0
728.28,81.0
728.34,94.0
728.41,91.0
728.47,82.0
728.53,76.0
728.59,67.0
728.66,87.0
728.72,95.0
728.78,93.0
728.85,80.0
728.91,86.0
728.97,69.0
729.04,88.0
729.1,75.0
729.16,69.0
729.22,71.0
729.29,76.0
729.35,50.0
729.41,46.0
729.48,29.0
729.54,34.0
729.6,38.0
729.67,32.0
729.73,27.0
729.79,49.0
729.85,45.0
729.92,62.0
729.98,59.0
730.04,62.0
730.11,53.0
730.17,40.0
730.23,47.0
730.3,45.0
730.36,64.0
730.42,53.0
730.48,67.0
730.55,51.0
730.61,42.0
730.67,49.0
730.74,48.0
730.8,41.0
730.86,58.0
730.93,56.0
730.99,47.0
731.05,57.0
731.11,49.0
731.18,60.0
731.24,54.0
731.3,67.0
731.37,42.0
731.43,48.0
731.49,68.0
731.56,52.0
731.62,48.0
731.68,60.0
731.74,67.0
731.81,71.0
731.87,67.0
731.93,62.0
732.0,61.0
732.06,67.0
732.12,71.0
732.19,86.0
732.25,82.0
732.31,75.0
732.37,76.0
732.44,97.0
732.5,102.0
732.56,71.0
732.63,100.0
732.69,95.0
732.75,85.0
732.82,93.0
732.88,104.0
732.94,84.0
733.0,99.0
733.07,100.0
733.13,93.0
733.19,93.0
733.26,100.0
733.32,95.0
733.38,93.0
733.45,92.0
733.51,81.0
733.57,81.0
733.63,84.0
733.7,92.0
733.76,89.0
733.82,71.0
733.89,83.0
733.95,97.0
734.01,83.0
734.08,90.0
734.14,105.0
734.2,122.0
734.26,104.0
734.33,127.0
734.39,130.0
734.45,147.0
734.52,137.0
734.58,118.0
734.64,117.0
734.71,129.0
734.77,112.0
734.83,120.0
734.89,139.0
734.96,161.0
735.02,158.0
735.08,150.0
735.15,166.0
735.21,182.0
735.27,174.0
735.34,161.0
735.4,177.0
735.46,173.0
735.52,178.0
735.59,181.0
735.65,177.0
735.71,172.0
735.78,183.0
735.84,165.0
735.9,185.0
735.97,182.0
736.03,186.0
736.09,200.0
736.15,221.0
736.22,205.0
736.28,180.0
736.34,164.0
736.41,177.0
736.47,183.0
736.53,186.0
736.6,182.0
736.66,181.0
736.72,176.0
736.78,199.0
736.85,190.0
736.91,187.0
736.97,191.0
737.04,166.0
737.1,161.0
737.16,150.0
737.23,169.0
737.29,174.0
737.35,174.0
737.41,185.0
737.48,167.0
737.54,162.0
737.6,148.0
737.67,162.0
737.73,180.0
737.79,182.0
737.86,183.0
737.92,171.0
737.98,146.0
738.04,145.0
738.11,142.0
738.17,152.0
738.23,126.0
738.3,128.0
738.36,134.0
738.42,118.0
738.49,128.0
738.55,108.0
738.61,125.0
738.67,126.0
738.74,123.0
738.8,124.0
738.86,122.0
738.93,143.0
738.99,132.0
739.05,115.0
739.12,118.0
739.18,147.0
739.24,129.0
739.3,131.0
739.37,131.0
739.43,119.0
739.49,115.0
739.56,124.0
739.62,130.0
739.68,112.0
739.75,95.0
739.81,120.0
739.87,115.0
739.93,103.0
740.0,118.0
740.06,110.0
740.12,106.0
740.19,97.0
740.25,93.0
740.31,90.0
740.38,89.0
740.44,106.0
740.5,117.0
740.56,122.0
740.63,114.0
740.69,130.0
740.75,103.0
740.82,122.0
740.88,103.0
740.94,119.0
741.01,117.0
741.07,103.0
741.13,118.0
741.19,109.0
741.26,100.0
741.32,100.0
741.38,96.0
741.45,107.0
741.51,94.0
741.57,97.0
741.64,84.0
741.7,72.0
741.76,68.0
741.82,78.0
741.89,82.0
741.95,82.0
742.01,82.0
742.08,79.0
742.14,73.0
742.2,63.0
742.27,64.0
742.33,69.0
742.39,69.0
742.45,56.0
742.52,56.0
742.58,57.0
742.64,29.0
742.71,44.0
742.77,46.0
742.83,46.0
742.9,48.0
742.96,61.0
743.02,70.0
743.08,77.0
743.15,59.0
743.21,77.0
743.27,74.0
743.34,62.0
743.4,75.0
743.46,57.0
743.53,69.0
743.59,46.0
743.65,70.0
743.71,75.0
743.78,77.0
743.84,93.0
743.9,52.0
743.97,82.0
744.03,75.0
744.09,67.0
744.16,85.0
744.22,58.0
744.28,62.0
744.34,53.0
744.41,79.0
744.47,70.0
744.53,75.0
744.6,71.0
744.66,73.0
744.72,67.0
744.79,98.0
744.85,64.0
744.91,47.0
744.97,48.0
745.04,48.0
745.1,52.0
745.16,76.0
745.23,68.0
745.29,63.0
745.35,70.0
745.42,57.0
745.48,37.0
745.54,43.0
745.6,42.0
745.67,48.0
745.73,49.0
745.79,53.0
745.86,38.0
745.92,38.0
745.98,50.0
746.05,43.0
746.11,60.0
746.17,73.0
746.23,64.0
746.3,75.0
746.36,60.0
746.42,48.0
746.49,62.0
746.55,54.0
746.61,36.0
746.68,30.0
746.74,27.0
746.8,23.0
746.86,12.0
746.93,19.0
746.99,45.0
747.05,31.0
747.12,31.0
747.18,30.0
747.24,16.0
747.31,-9.0
747.37,-6.0
747.43,-15.0
747.49,-13.0
747.56,-23.0
747.62,-13.0
747.68,-27.0
747.75,-16.0
747.81,-2.0
747.87,6.0
747.94,1.0
748.0,9.0
748.06,6.0
748.12,17.0
748.19,23.0
748.25,-4.0
748.31,5.0
748.38,6.0
748.44,1.0
748.5,-1.0
748.57,15.0
748.63,9.0
748.69,6.0
748.75,13.0
748.82,23.0
748.88,10.0
748.94,2.0
749.01,3.0
749.07,0.0
749.13,2.0
749.2,-15.0
749.26,14.0
749.32,-1.0
749.38,-28.0
749.45,-8.0
749.51,20.0
749.57,14.0
749.64,19.0
749.7,22.0
749.76,24.0
749.83,11.0
749.89,13.0
749.95,13.0
750.01,28.0
750.08,35.0
750.14,15.0
750.2,28.0
750.27,32.0
750.33,47.0
750.39,56.0
750.46,31.0
750.52,44.0
750.58,53.0
750.64,68.0
750.71,50.0
750.77,48.0
750.83,43.0
750.9,38.0
750.96,65.0
751.02,75.0
751.09,75.0
751.15,81.0
751.21,83.0
751.27,80.0
751.34,87.0
751.4,80.0
751.46,73.0
751.53,80.0
751.59,81.0
751.65,92.0
751.72,100.0
751.78,97.0
751.84,93.0
751.9,93.0
751.97,104.0
752.03,102.0
752.09,116.0
752.16,122.0
752.22,105.0
752.28,133.0
752.35,125.0
752.41,119.0
752.47,135.0
752.53,126.0
752.6,129.0
752.66,140.0
752.72,137.0
752.79,124.0
752.85,112.0
752.91,131.0
752.98,157.0
753.04,145.0
753.1,141.0
753.16,144.0
753.23,160.0
753.29,177.0
753.35,172.0
753.42,159.0
753.48,155.0
753.54,175.0
753.61,181.0
753.67,178.0
753.73,163.0
753.79,172.0
753.86,169.0
753.92,160.0
753.98,156.0
754.05,140.0
754.11,168.0
754.17,160.0
754.24,159.0
754.3,146.0
754.36,164.0
754.42,150.0
754.49,143.0
754.55,147.0
754.61,154.0
754.68,166.0
754.74,164.0
754.8,175.0
754.87,167.0
754.93,171.0
754.99,181.0
755.05,177.0
755.12,146.0
755.18,173.0
755.24,166.0
755.31,167.0
755.37,182.0
755.43,183.0
755.5,168.0
755.56,165.0
755.62,186.0
755.68,190.0
755.75,180.0
755.81,185.0
755.87,184.0
755.94,175.0
756.0,169.0
756.06,168.0
756.13,156.0
756.19,169.0
756.25,157.0
756.31,153.0
756.38,180.0
756.44,154.0
756.5,151.0
756.57,138.0
756.63,118.0
756.69,138.0
756.76,155.0
756.82,156.0
756.88,148.0
756.94,156.0
757.01,141.0
757.07,146.0
757.13,148.0
757.2,127.0
757.26,145.0
757.32,145.0
757.39,149.0
757.45,152.0
757.51,148.0
757.57,145.0
757.64,165.0
757.7,146.0
757.76,143.0
757.83,164.0
757.89,168.0
757.95,149.0
758.02,141.0
758.08,141.0
758.14,140.0
758.2,163.0
758.27,152.0
758.33,145.0
758.39,137.0
758.46,126.0
758.52,127.0
758.58,126.0
758.65,134.0
758.71,120.0
758.77,121.0
758.83,128.0
758.9,127.0
758.96,119.0
759.02,104.0
759.09,116.0
759.15,135.0
759.21,120.0
759.28,112.0
759.34,98.0
759.4,115.0
759.46,101.0
759.53,96.0
759.59,91.0
759.65,101.0
759.72,104.0
759.78,90.0
759.84,82.0
759.91,115.0
759.97,124.0
760.03,87.0
760.09,99.0
760.16,82.0
760.22,83.0
760.28,61.0
760.35,87.0
760.41,95.0
760.47,76.0
760.54,72.0
760.6,61.0
760.66,65.0
760.72,77.0
760.79,84.0
760.85,80.0
760.91,80.0
760.98,77.0
761.04,76.0
761.1,72.0
761.17,68.0
761.23,79.0
761.29,70.0
761.35,68.0
761.42,63.0
761.48,80.0
761.54,79.0
761.61,74.0
761.67,49.0
761.73,79.0
761.8,83.0
761.86,79.0
761.92,74.0
761.98,93.0
762.05,96.0
762.11,93.0
762.17,90.0
762.24,88.0
762.3,91.0
762.36,84.0
762.43,80.0
762.49,76.0
762.55,82.0
762.61,69.0
762.68,73.0
762.74,76.0
762.8,58.0
762.87,77.0
762.93,79.0
762.99,73.0
763.06,65.0
763.12,59.0
763.18,72.0
763.24,85.0
763.31,84.0
763.37,69.0
763.43,63.0
763.5,86.0
763.56,90.0
763.62,79.0
763.69,72.0
763.75,75.0
763.81,43.0
763.87,71.0
763.94,68.0
764.0,57.0
764.06,40.0
764.13,61.0
764.19,58.0
764.25,65.0
764.32,61.0
764.38,54.0
764.44,52.0
764.5,45.0
764.57,33.0
764.63,33.0
764.69,46.0
764.76,51.0
764.82,41.0
764.88,42.0
764.95,68.0
765.01,42.0
765.07,59.0
765.13,40.0
765.2,46.0
765.26,59.0
765.32,64.0
765.39,66.0
765.45,59.0
765.51,66.0
765.58,50.0
765.64,52.0
765.7,52.0
765.76,44.0
765.83,50.0
765.89,43.0
765.95,40.0
766.02,62.0
766.08,69.0
766.14,58.0
766.21,55.0
766.27,54.0
766.33,42.0
766.39,41.0
766.46,44.0
766.52,48.0
766.58,47.0
766.65,54.0
766.71,62.0
766.77,56.0
766.84,70.0
766.9,69.0
766.96,56.0
767.02,47.0
767.09,65.0
767.15,66.0
767.21,60.0
767.28,51.0
767.34,44.0
767.4,63.0
767.47,63.0
767.53,63.0
767.59,66.0
767.65,78.0
767.72,83.0
767.78,79.0
767.84,78.0
767.91,92.0
767.97,77.0
768.03,95.0
768.1,77.0
768.16,83.0
768.22,69.0
768.28,81.0
768.35,90.0
768.41,78.0
768.47,96.0
768.54,85.0
768.6,94.0
768.66,96.0
768.73,85.0
768.79,77.0
768.85,99.0
768.91,90.0
768.98,79.0
769.04,77.0
769.1,74.0
769.17,61.0
769.23,68.0
769.29,63.0
769.36,76.0
769.42,85.0
769.48,82.0
769.54,80.0
769.61,91.0
769.67,78.0
769.73,85.0
769.8,87.0
769.86,79.0
769.92,79.0
769.99,58.0
770.05,63.0
770.11,79.0
770.17,82.0
770.24,86.0
770.3,76.0
770.36,86.0
770.43,93.0
770.49,72.0
770.55,90.0
770.62,95.0
770.68,110.0
770.74,102.0
770.8,91.0
770.87,101.0
770.93,108.0
770.99,116.0
771.06,108.0
771.12,127.0
771.18,93.0
771.25,101.0
771.31,119.0
771.37,112.0
771.43,114.0
771.5,97.0
771.56,105.0
771.62,102.0
771.69,112.0
771.75,107.0
771.81,94.0
771.88,101.0
771.94,99.0
772.0,99.0
772.06,77.0
772.13,92.0
772.19,112.0
772.25,113.0
772.32,101.0
772.38,101.0
772.44,105.0
772.51,100.0
772.57,113.0
772.63,115.0
772.69,102.0
772.76,95.0
772.82,88.0
772.88,88.0
772.95,77.0
773.01,85.0
773.07,94.0
773.14,98.0
773.2,96.0
773.26,97.0
773.32,101.0
773.39,104.0
773.45,97.0
773.51,108.0
773.58,86.0
773.64,90.0
773.7,107.0
773.77,101.0
773.83,96.0
773.89,87.0
773.95,105.0
774.02,90.0
774.08,86.0
774.14,72.0
774.21,77.0
774.27,74.0
774.33,67.0
774.4,47.0
774.46,50.0
774.52,56.0
774.58,55.0
774.65,59.0
774.71,42.0
774.77,42.0
774.84,61.0
774.9,59.0
774.96,68.0
775.03,63.0
775.09,74.0
775.15,57.0
775.21,25.0
775.28,27.0
775.34,40.0
775.4,53.0
775.47,39.0
775.53,57.0
775.59,57.0
775.66,35.0
775.72,71.0
775.78,46.0
775.84,70.0
775.91,66.0
775.97,45.0
776.03,61.0
776.1,44.0
776.16,76.0
776.22,49.0
776.29,53.0
776.35,60.0
776.41,54.0
776.47,60.0
776.54,60.0
776.6,71.0
776.66,64.0
776.73,59.0
776.79,50.0
776.85,45.0
776.92,66.0
776.98,59.0
777.04,59.0
777.1,66.0
777.17,89.0
777.23,81.0
777.29,68.0
777.36,69.0
777.42,72.0
777.48,64.0
777.55,95.0
777.61,75.0
777.67,68.0
777.73,99.0
777.8,76.0
777.86,79.0
777.92,70.0
777.99,65.0
778.05,83.0
778.11,84.0
778.18,80.0
778.24,97.0
778.3,88.0
778.36,98.0
778.43,94.0
778.49,79.0
778.55,85.0
778.62,80.0
778.68,80.0
778.74,74.0
778.81,62.0
778.87,80.0
778.93,83.0
778.99,86.0
779.06,86.0
779.12,87.0
779.18,98.0
779.25,87.0
779.31,113.0
779.37,94.0
779.44,99.0
779.5,101.0
779.56,96.0
779.62,102.0
779.69,80.0
779.75,79.0
779.81,92.0
779.88,85.0
779.94,73.0
780.0,81.0
780.07,82.0
780.13,101.0
780.19,90.0
780.25,87.0
780.32,87.0
780.38,61.0
780.44,85.0
780.51,99.0
780.57,83.0
780.63,106.0
780.7,126.0
780.76,123.0
780.82,130.0
780.88,115.0
780.95,115.0
781.01,112.0
781.07,118.0
781.14,112.0
781.2,100.0
781.26,110.0
781.33,90.0
781.39,93.0
781.45,87.0
781.51,97.0
781.58,107.0
781.64,110.0
781.7,142.0
781.77,129.0
781.83,122.0
781.89,113.0
781.96,95.0
782.02,105.0
782.08,109.0
782.14,120.0
782.21,118.0
782.27,109.0
782.33,113.0
782.4,104.0
782.46,94.0
782.52,87.0
782.59,94.0
782.65,98.0
782.71,116.0
782.77,104.0
782.84,113.0
782.9,108.0
782.96,103.0
783.03,105.0
783.09,101.0
783.15,110.0
783.22,114.0
783.28,101.0
783.34,98.0
783.4,125.0
783.47,109.0
783.53,116.0
783.59,90.0
783.66,107.0
783.72,110.0
783.78,113.0
783.85,112.0
783.91,123.0
783.97,146.0
784.03,105.0
784.1,101.0
784.16,105.0
784.22,105.0
784.29,136.0
784.35,128.0
784.41,123.0
784.48,142.0
784.54,149.0
784.6,153.0
784.66,149.0
784.73,164.0
784.79,152.0
784.85,156.0
784.92,157.0
784.98,165.0
785.04,160.0
785.11,154.0
785.17,129.0
785.23,142.0
785.29,163.0
785.36,172.0
785.42,173.0
785.48,167.0
785.55,154.0
785.61,153.0
785.67,139.0
785.74,149.0
785.8,144.0
785.86,146.0
785.92,132.0
785.99,141.0
786.05,154.0
786.11,145.0
786.18,144.0
786.24,149.0
786.3,156.0
786.37,145.0
786.43,163.0
786.49,173.0
786.55,171.0
786.62,168.0
786.68,165.0
786.74,179.0
786.81,173.0
786.87,162.0
786.93,164.0
787.0,154.0
787.06,164.0
787.12,152.0
787.18,159.0
787.25,156.0
787.31,172.0
787.37,176.0
787.44,180.0
787.5,185.0
787.56,204.0
787.63,183.0
787.69,192.0
787.75,198.0
787.81,192.0
787.88,178.0
787.94,165.0
788.0,173.0
788.07,159.0
788.13,173.0
788.19,179.0
788.26,187.0
788.32,200.0
788.38,180.0
788.44,169.0
788.51,171.0
788.57,192.0
788.63,182.0
788.7,183.0
788.76,186.0
788.82,176.0
788.89,190.0
788.95,191.0
789.01,196.0
789.07,167.0
789.14,172.0
789.2,170.0
789.26,178.0
789.33,193.0
789.39,168.0
789.45,182.0
789.52,200.0
789.58,177.0
789.64,179.0
789.7,189.0
789.77,178.0
789.83,153.0
789.89,172.0
789.96,161.0
790.02,152.0
790.08,166.0
790.15,143.0
790.21,131.0
790.27,143.0
790.33,141.0
790.4,133.0
790.46,116.0
790.52,137.0
790.59,148.0
790.65,134.0
790.71,138.0
790.78,134.0
790.84,134.0
790.9,150.0
790.96,146.0
791.03,144.0
791.09,133.0
791.15,139.0
791.22,153.0
791.28,133.0
791.34,134.0
791.41,128.0
791.47,142.0
791.53,136.0
791.59,114.0
791.66,135.0
791.72,135.0
791.78,114.0
791.85,123.0
791.91,143.0
791.97,135.0
792.04,116.0
792.1,124.0
792.16,116.0
792.22,110.0
792.29,97.0
792.35,119.0
792.41,127.0
792.48,131.0
792.54,116.0
792.6,95.0
792.67,98.0
792.73,123.0
792.79,121.0
792.85,120.0
792.92,91.0
792.98,97.0
793.04,110.0
793.11,115.0
793.17,124.0
793.23,120.0
793.3,115.0
793.36,115.0
793.42,110.0
793.48,105.0
793.55,106.0
793.61,98.0
793.67,90.0
793.74,88.0
793.8,94.0
793.86,104.0
793.93,77.0
793.99,81.0
794.05,86.0
794.11,88.0
794.18,100.0
794.24,90.0
794.3,91.0
794.37,102.0
794.43,74.0
794.49,108.0
794.56,94.0
794.62,87.0
794.68,83.0
794.74,67.0
794.81,80.0
794.87,85.0
794.93,89.0
795.0,61.0
795.06,55.0
795.12,69.0
795.19,66.0
795.25,45.0
795.31,55.0
795.37,47.0
795.44,66.0
795.5,47.0
795.56,30.0
795.63,49.0
795.69,45.0
795.75,53.0
795.82,71.0
795.88,75.0
795.94,66.0
796.0,58.0
796.07,63.0
796.13,64.0
796.19,58.0
796.26,57.0
796.32,55.0
796.38,55.0
796.45,71.0
796.51,66.0
796.57,50.0
796.63,46.0
796.7,43.0
796.76,25.0
796.82,33.0
796.89,26.0
796.95,32.0
797.01,30.0
797.08,34.0
797.14,31.0
797.2,41.0
797.26,39.0
797.33,31.0
797.39,52.0
797.45,39.0
797.52,39.0
797.58,37.0
797.64,28.0
797.71,35.0
797.77,22.0
797.83,20.0
797.89,4.0
797.96,23.0
798.02,5.0
798.08,5.0
798.15,13.0
798.21,26.0
798.27,38.0
798.34,25.0
798.4,-6.0
798.46,-6.0
798.52,11.0
798.59,19.0
798.65,5.0
798.71,-4.0
798.78,25.0
798.84,26.0
798.9,15.0
798.97,28.0
799.03,25.0
799.09,21.0
799.15,34.0
799.22,32.0
799.28,48.0
799.34,31.0
799.41,36.0
799.47,38.0
799.53,24.0
799.6,43.0
799.66,47.0
799.72,33.0
799.78,49.0
799.85,49.0
799.91,31.0
799.97,42.0
800.04,37.0
800.1,24.0
800.16,41.0
800.23,41.0
800.29,48.0
800.35,40.0
800.41,34.0
800.48,44.0
800.54,51.0
800.6,56.0
800.67,31.0
800.73,48.0
800.79,58.0
800.86,53.0
800.92,53.0
800.98,59.0
801.04,64.0
801.11,56.0
801.17,66.0
801.23,65.0
801.3,80.0
801.36,79.0
801.42,90.0
801.49,91.0
801.55,96.0
801.61,97.0
801.67,99.0
801.74,95.0
801.8,107.0
801.86,93.0
801.93,101.0
801.99,84.0
802.05,108.0
802.12,121.0
802.18,96.0
802.24,117.0
802.3,127.0
802.37,121.0
802.43,124.0
802.49,147.0
802.56,134.0
802.62,136.0
802.68,138.0
802.75,130.0
802.81,130.0
802.87,115.0
802.93,130.0
803.0,121.0
803.06,121.0
803.12,158.0
803.19,147.0
803.25,131.0
803.31,124.0
803.38,112.0
803.44,125.0
803.5,124.0
803.56,113.0
803.63,144.0
803.69,167.0
803.75,180.0
803.82,169.0
803.88,153.0
803.94,152.0
804.01,136.0
804.07,144.0
804.13,137.0
804.19,159.0
804.26,172.0
804.32,202.0
804.38,188.0
804.45,166.0
804.51,182.0
804.57,189.0
804.64,180.0
804.7,175.0
804.76,179.0
804.82,181.0
804.89,174.0
804.95,172.0
805.01,174.0
805.08,169.0
805.14,165.0
805.2,172.0
805.27,160.0
805.33,164.0
805.39,168.0
805.45,168.0
805.52,178.0
805.58,167.0
805.64,151.0
805.71,165.0
805.77,160.0
805.83,166.0
805.9,168.0
805.96,147.0
806.02,166.0
806.08,183.0
806.15,176.0
806.21,171.0
806.27,180.0
806.34,193.0
806.4,196.0
806.46,202.0
806.53,195.0
806.59,199.0
806.65,198.0
806.71,182.0
806.78,183.0
806.84,162.0
806.9,166.0
806.97,170.0
807.03,182.0
807.09,160.0
807.16,153.0
807.22,166.0
807.28,165.0
807.34,164.0
807.41,182.0
807.47,180.0
807.53,158.0
807.6,165.0
807.66,159.0
807.72,171.0
807.79,158.0
807.85,182.0
807.91,171.0
807.97,172.0
808.04,180.0
808.1,161.0
808.16,172.0
808.23,166.0
808.29,157.0
808.35,161.0
808.42,158.0
808.48,157.0
808.54,163.0
808.6,154.0
808.67,174.0
808.73,152.0
808.79,149.0
808.86,148.0
808.92,128.0
808.98,157.0
809.05,157.0
809.11,149.0
809.17,171.0
809.23,163.0
809.3,158.0
809.36,156.0
809.42,163.0
809.49,159.0
809.55,158.0
809.61,147.0
809.68,147.0
809.74,146.0
809.8,161.0
809.86,160.0
809.93,165.0
809.99,175.0
810.05,185.0
810.12,175.0
810.18,183.0
810.24,159.0
810.31,165.0
810.37,147.0
810.43,166.0
810.49,152.0
810.56,171.0
810.62,177.0
810.68,144.0
810.75,170.0
810.81,154.0
810.87,156.0
810.94,164.0
811.0,149.0
811.06,154.0
811.12,144.0
811.19,120.0
811.25,129.0
811.31,139.0
811.38,142.0
811.44,137.0
811.5,136.0
811.57,138.0
811.63,113.0
811.69,119.0
811.75,111.0
811.82,121.0
811.88,138.0
811.94,137.0
812.01,110.0
812.07,110.0
812.13,119.0
812.2,114.0
812.26,105.0
812.32,113.0
812.38,129.0
812.45,121.0
812.51,111.0
812.57,108.0
812.64,106.0
812.7,100.0
812.76,91.0
812.83,94.0
812.89,113.0
812.95,114.0
813.01,122.0
813.08,107.0
813.14,101.0
813.2,86.0
813.27,95.0
813.33,98.0
813.39,89.0
813.46,110.0
813.52,100.0
813.58,117.0
813.64,103.0
813.71,107.0
813.77,115.0
813.83,95.0
813.9,88.0
813.96,73.0
814.02,66.0
814.09,65.0
814.15,70.0
814.21,54.0
814.27,81.0
814.34,87.0
814.4,68.0
814.46,62.0
814.53,55.0
814.59,52.0
814.65,43.0
814.72,55.0
814.78,61.0
814.84,49.0
814.9,42.0
814.97,40.0
815.03,43.0
815.09,31.0
815.16,44.0
815.22,40.0
815.28,48.0
815.35,42.0
815.41,36.0
815.47,48.0
815.53,17.0
815.6,14.0
815.66,33.0
815.72,32.0
815.79,14.0
815.85,33.0
815.91,32.0
815.98,33.0
816.04,24.0
816.1,2.0
816.16,0.0
816.23,-7.0
816.29,-8.0
816.35,-2.0
816.42,22.0
816.48,5.0
816.54,17.0
816.61,17.0
816.67,12.0
816.73,15.0
816.79,23.0
816.86,32.0
816.92,13.0
816.98,3.0
817.05,13.0
817.11,-5.0
817.17,7.0
817.24,23.0
817.3,23.0
817.36,30.0
817.42,45.0
817.49,12.0
817.55,-4.0
817.61,20.0
817.68,45.0
817.74,52.0
817.8,52.0
817.87,55.0
817.93,59.0
817.99,72.0
818.05,59.0
818.12,85.0
818.18,79.0
818.24,74.0
818.31,86.0
818.37,90.0
818.43,100.0
818.5,104.0
818.56,103.0
818.62,125.0
818.68,115.0
818.75,90.0
818.81,110.0
818.87,107.0
818.94,92.0
819.0,92.0
819.06,97.0
819.13,100.0
819.19,94.0
819.25,111.0
819.31,109.0
819.38,77.0
819.44,107.0
819.5,113.0
819.57,95.0
819.63,114.0
819.69,102.0
819.76,116.0
819.82,112.0
819.88,106.0
819.94,93.0
820.01,121.0
820.07,104.0
820.13,103.0
820.2,139.0
820.26,129.0
820.32,95.0
820.39,87.0
820.45,99.0
820.51,102.0
820.57,108.0
820.64,95.0
820.7,95.0
820.76,79.0
820.83,105.0
820.89,112.0
820.95,112.0
821.02,104.0
821.08,111.0
821.14,117.0
821.2,103.0
821.27,122.0
821.33,113.0
821.39,113.0
821.46,124.0
821.52,126.0
821.58,129.0
821.65,137.0
821.71,137.0
821.77,139.0
821.83,140.0
821.9,136.0
821.96,136.0
822.02,148.0
822.09,142.0
822.15,139.0
822.21,134.0
822.28,134.0
822.34,137.0
822.4,153.0
822.46,151.0
822.53,168.0
822.59,166.0
822.65,147.0
822.72,129.0
822.78,147.0
822.84,150.0
822.91,149.0
822.97,153.0
823.03,136.0
823.09,148.0
823.16,156.0
823.22,155.0
823.28,170.0
823.35,145.0
823.41,141.0
823.47,143.0
823.54,134.0
823.6,139.0
823.66,140.0
823.72,128.0
823.79,132.0
823.85,140.0
823.91,140.0
823.98,146.0
824.04,151.0
824.1,161.0
824.17,144.0
824.23,133.0
824.29,137.0
824.35,129.0
824.42,141.0
824.48,131.0
824.54,153.0
824.61,165.0
824.67,156.0
824.73,140.0
824.8,133.0
824.86,124.0
824.92,130.0
824.98,133.0
825.05,159.0
825.11,147.0
825.17,133.0
825.24,110.0
825.3,134.0
825.36,124.0
825.43,97.0
825.49,96.0
825.55,107.0
825.61,89.0
825.68,120.0
825.74,103.0
825.8,116.0
825.87,104.0
825.93,105.0
825.99,96.0
826.06,90.0
826.12,80.0
826.18,84.0
826.24,75.0
826.31,80.0
826.37,73.0
826.43,59.0
826.5,73.0
826.56,63.0
826.62,53.0
826.69,78.0
826.75,89.0
826.81,73.0
826.87,67.0
826.94,62.0
827.0,74.0
827.06,80.0
827.13,61.0
827.19,87.0
827.25,93.0
827.32,76.0
827.38,62.0
827.44,48.0
827.5,60.0
827.57,76.0
827.63,84.0
827.69,81.0
827.76,82.0
827.82,85.0
827.88,69.0
827.95,66.0
828.01,75.0
828.07,59.0
828.13,70.0
828.2,57.0
828.26,68.0
828.32,62.0
828.39,51.0
828.45,69.0
828.51,62.0
828.58,51.0
828.64,45.0
828.7,51.0
828.76,38.0
828.83,18.0
828.89,30.0
828.95,71.0
829.02,45.0
829.08,59.0
829.14,68.0
829.21,66.0
829.27,58.0
829.33,71.0
829.39,65.0
829.46,56.0
829.52,63.0
829.58,81.0
829.65,84.0
829.71,82.0
829.77,74.0
829.84,103.0
829.9,112.0
829.96,104.0
830.02,90.0
830.09,91.0
830.15,62.0
830.21,69.0
830.28,83.0
830.34,68.0
830.4,64.0
830.47,46.0
830.53,73.0
830.59,56.0
830.65,40.0
830.72,49.0
830.78,47.0
830.84,51.0
830.91,62.0
830.97,73.0
831.03,48.0
831.1,48.0
831.16,56.0
831.22,41.0
831.28,32.0
831.35,45.0
831.41,48.0
831.47,57.0
831.54,39.0
831.6,26.0
831.66,13.0
831.73,12.0
831.79,6.0
831.85,24.0
831.91,11.0
831.98,30.0
832.04,29.0
832.1,10.0
832.17,34.0
832.23,15.0
832.29,6.0
832.36,8.0
832.42,11.0
832.48,11.0
832.54,5.0
832.61,-9.0
832.67,2.0
832.73,28.0
832.8,38.0
832.86,51.0
832.92,56.0
832.99,40.0
833.05,17.0
833.11,39.0
833.17,22.0
833.24,24.0
833.3,30.0
833.36,18.0
833.43,29.0
833.49,51.0
833.55,62.0
833.62,55.0
833.68,50.0
833.74,27.0
833.8,38.0
833.87,63.0
833.93,59.0
833.99,48.0
834.06,66.0
834.12,37.0
834.18,55.0
834.25,47.0
834.31,57.0
834.37,65.0
834.43,37.0
834.5,44.0
834.56,42.0
834.62,40.0
834.69,37.0
834.75,40.0
834.81,46.0
834.88,44.0
834.94,73.0
835.0,73.0
835.06,65.0
835.13,71.0
835.19,112.0
835.25,106.0
835.32,87.0
835.38,83.0
835.44,117.0
835.51,102.0
835.57,95.0
835.63,87.0
835.69,100.0
835.76,90.0
835.82,83.0
835.88,98.0
835.95,83.0
836.01,87.0
836.07,108.0
836.14,108.0
836.2,113.0
836.26,110.0
836.32,127.0
836.39,121.0
836.45,124.0
836.51,107.0
836.58,118.0
836.64,148.0
836.7,132.0
836.77,127.0
836.83,116.0
836.89,99.0
836.95,114.0
837.02,122.0
837.08,130.0
837.14,129.0
837.21,132.0
837.27,116.0
837.33,138.0
837.4,123.0
837.46,133.0
837.52,143.0
837.58,153.0
837.65,156.0
837.71,131.0
837.77,149.0
837.84,118.0
837.9,124.0
837.96,141.0
838.03,120.0
838.09,118.0
838.15,146.0
838.21,161.0
838.28,166.0
838.34,169.0
838.4,170.0
838.47,165.0
838.53,160.0
838.59,189.0
838.66,194.0
838.72,183.0
838.78,183.0
838.84,177.0
838.91,191.0
838.97,198.0
839.03,193.0
839.1,192.0
839.16,187.0
839.22,174.0
839.29,190.0
839.35,165.0
839.41,158.0
839.47,179.0
839.54,171.0
839.6,197.0
839.66,186.0
839.73,183.0
839.79,170.0
839.85,155.0
839.92,155.0
839.98,180.0
840.04,164.0
840.1,164.0
840.17,153.0
840.23,158.0
840.29,182.0
840.36,157.0
840.42,167.0
840.48,177.0
840.55,153.0
840.61,168.0
840.67,173.0
840.73,163.0
840.8,159.0
840.86,186.0
840.92,183.0
840.99,183.0
841.05,182.0
841.11,190.0
841.18,188.0
841.24,197.0
841.3,194.0
841.36,168.0
841.43,164.0
841.49,155.0
841.55,151.0
841.62,159.0
841.68,177.0
841.74,166.0
841.81,165.0
841.87,170.0
841.93,152.0
841.99,131.0
842.06,135.0
842.12,136.0
842.18,143.0
842.25,155.0
842.31,152.0
842.37,137.0
842.44,135.0
842.5,139.0
842.56,138.0
842.62,142.0
842.69,132.0
842.75,135.0
842.81,144.0
842.88,147.0
842.94,156.0
843.0,135.0
843.07,117.0
843.13,129.0
843.19,126.0
843.25,138.0
843.32,151.0
843.38,141.0
843.44,127.0
843.51,112.0
843.57,116.0
843.63,128.0
843.7,122.0
843.76,118.0
843.82,131.0
843.88,118.0
843.95,127.0
844.01,117.0
844.07,123.0
844.14,109.0
844.2,120.0
844.26,111.0
844.33,110.0
844.39,95.0
844.45,85.0
844.51,104.0
844.58,83.0
844.64,89.0
844.7,104.0
844.77,90.0
844.83,110.0
844.89,99.0
844.96,99.0
845.02,89.0
845.08,93.0
845.14,99.0
845.21,92.0
845.27,72.0
845.33,63.0
845.4,66.0
845.46,87.0
845.52,99.0
845.59,87.0
845.65,81.0
845.71,70.0
845.77,81.0
845.84,82.0
845.9,95.0
845.96,101.0
846.03,100.0
846.09,95.0
846.15,85.0
846.22,90.0
846.28,87.0
846.34,110.0
846.4,108.0
846.47,86.0
846.53,88.0
846.59,77.0
846.66,84.0
846.72,96.0
846.78,80.0
846.85,91.0
846.91,104.0
846.97,108.0
847.03,103.0
847.1,98.0
847.16,115.0
847.22,118.0
847.29,106.0
847.35,115.0
847.41,132.0
847.48,128.0
847.54,107.0
847.6,96.0
847.66,103.0
847.73,130.0
847.79,129.0
847.85,120.0
847.92,137.0
847.98,103.0
848.04,107.0
848.11,113.0
848.17,110.0
848.23,114.0
848.29,103.0
848.36,87.0
848.42,70.0
848.48,73.0
848.55,73.0
848.61,64.0
848.67,99.0
848.74,97.0
848.8,94.0
848.86,80.0
848.92,71.0
848.99,85.0
849.05,84.0
849.11,76.0
849.18,77.0
849.24,75.0
849.3,58.0
849.37,36.0
849.43,61.0
849.49,81.0
849.55,63.0
849.62,69.0
849.68,48.0
849.74,70.0
849.81,71.0
849.87,70.0
849.93,54.0
850.0,48.0
850.06,43.0
850.12,49.0
850.18,51.0
850.25,43.0
850.31,42.0
850.37,60.0
850.44,56.0
850.5,49.0
850.56,49.0
850.63,57.0
850.69,64.0
850.75,51.0
850.81,56.0
850.88,49.0
850.94,45.0
851.0,57.0
851.07,65.0
851.13,60.0
851.19,45.0
851.26,58.0
851.32,71.0
851.38,49.0
851.44,80.0
851.51,76.0
851.57,63.0
851.63,65.0
851.7,51.0
851.76,62.0
851.82,79.0
851.89,71.0
851.95,63.0
852.01,90.0
852.07,97.0
852.14,71.0
852.2,42.0
852.26,73.0
852.33,57.0
852.39,77.0
852.45,81.0
852.52,54.0
852.58,73.0
852.64,55.0
852.7,73.0
852.77,64.0
852.83,70.0
852.89,95.0
852.96,73.0
853.02,81.0
853.08,78.0
853.15,95.0
853.21,92.0
853.27,84.0
853.33,76.0
853.4,76.0
853.46,84.0
853.52,87.0
853.59,70.0
853.65,77.0
853.71,94.0
853.78,73.0
853.84,69.0
853.9,62.0
853.96,77.0
854.03,77.0
854.09,58.0
854.15,74.0
854.22,65.0
854.28,76.0
854.34,81.0
854.41,87.0
854.47,86.0
854.53,85.0
854.59,79.0
854.66,77.0
854.72,85.0
854.78,88.0
854.85,114.0
854.91,135.0
854.97,103.0
855.04,92.0
855.1,114.0
855.16,120.0
855.22,109.0
855.29,118.0
855.35,117.0
855.41,115.0
855.48,110.0
855.54,104.0
855.6,129.0
855.67,100.0
855.73,98.0
855.79,114.0
855.85,125.0
855.92,131.0
855.98,106.0
856.04,118.0
856.11,118.0
856.17,123.0
856.23,115.0
856.3,118.0
856.36,126.0
856.42,130.0
856.48,131.0
856.55,121.0
856.61,96.0
856.67,93.0
856.74,86.0
856.8,82.0
856.86,73.0
856.93,106.0
856.99,109.0
857.05,83.0
857.11,104.0
857.18,82.0
857.24,93.0
857.3,117.0
857.37,95.0
857.43,111.0
857.49,117.0
857.56,87.0
857.62,102.0
857.68,91.0
857.74,94.0
857.81,103.0
857.87,104.0
857.93,108.0
858.0,99.0
858.06,110.0
858.12,109.0
858.19,88.0
858.25,91.0
858.31,115.0
858.37,99.0
858.44,110.0
858.5,90.0
858.56,95.0
858.63,103.0
858.69,102.0
858.75,116.0
858.82,111.0
858.88,125.0
858.94,112.0
859.0,107.0
859.07,135.0
859.13,140.0
859.19,115.0
859.26,110.0
859.32,132.0
859.38,122.0
859.45,118.0
859.51,115.0
859.57,108.0
859.63,112.0
859.7,103.0
859.76,117.0
859.82,117.0
859.89,127.0
859.95,112.0
860.01,114.0
860.08,131.0
860.14,129.0
860.2,99.0
860.26,95.0
860.33,82.0
860.39,88.0
860.45,123.0
860.52,125.0
860.58,99.0
860.64,85.0
860.71,104.0
860.77,121.0
860.83,111.0
860.89,110.0
860.96,112.0
861.02,110.0
861.08,110.0
861.15,105.0
861.21,106.0
861.27,100.0
861.34,107.0
861.4,90.0
861.46,94.0
861.52,100.0
861.59,113.0
861.65,104.0
861.71,102.0
861.78,87.0
861.84,84.0
861.9,93.0
861.97,106.0
862.03,103.0
862.09,95.0
862.15,107.0
862.22,105.0
862.28,80.0
862.34,109.0
862.41,122.0
862.47,110.0
862.53,113.0
862.6,116.0
862.66,144.0
862.72,132.0
862.78,144.0
862.85,139.0
862.91,125.0
862.97,130.0
863.04,147.0
863.1,160.0
863.16,144.0
863.23,149.0
863.29,134.0
863.35,136.0
863.41,153.0
863.48,144.0
863.54,122.0
863.6,115.0
863.67,105.0
863.73,104.0
863.79,141.0
863.86,139.0
863.92,146.0
863.98,144.0
864.04,121.0
864.11,140.0
864.17,125.0
864.23,120.0
864.3,134.0
864.36,136.0
864.42,124.0
864.49,121.0
864.55,95.0
864.61,77.0
864.67,103.0
864.74,79.0
864.8,109.0
864.86,93.0
864.93,100.0
864.99,99.0
865.05,93.0
865.12,79.0
865.18,92.0
865.24,112.0
865.3,107.0
865.37,101.0
865.43,80.0
865.49,101.0
865.56,98.0
865.62,94.0
865.68,85.0
865.75,99.0
865.81,104.0
865.87,113.0
865.93,92.0
866.0,107.0
866.06,116.0
866.12,99.0
866.19,112.0
866.25,148.0
866.31,124.0
866.38,112.0
866.44,109.0
866.5,130.0
866.56,150.0
866.63,121.0
866.69,112.0
866.75,105.0
866.82,113.0
866.88,95.0
866.94,103.0
867.01,119.0
867.07,118.0
867.13,117.0
867.19,113.0
867.26,84.0
867.32,89.0
867.38,104.0
867.45,94.0
867.51,104.0
867.57,85.0
867.64,107.0
867.7,125.0
867.76,111.0
867.82,102.0
867.89,103.0
867.95,98.0
868.01,113.0
868.08,93.0
868.14,106.0
868.2,83.0
868.27,99.0
868.33,122.0
868.39,139.0
868.45,147.0
868.52,123.0
868.58,116.0
868.64,130.0
868.71,121.0
868.77,127.0
868.83,152.0
868.9,135.0
868.96,138.0
869.02,140.0
869.08,157.0
869.15,139.0
869.21,133.0
869.27,121.0
869.34,134.0
869.4,127.0
869.46,117.0
869.53,141.0
869.59,123.0
869.65,138.0
869.71,150.0
869.78,133.0
869.84,147.0
869.9,143.0
869.97,139.0
870.03,139.0
870.09,130.0
870.16,135.0
870.22,156.0
870.28,187.0
870.34,156.0
870.41,137.0
870.47,138.0
870.53,151.0
870.6,143.0
870.66,128.0
870.72,151.0
870.79,153.0
870.85,161.0
870.91,174.0
870.97,132.0
871.04,121.0
871.1,140.0
871.16,158.0
871.23,154.0
871.29,153.0
871.35,146.0
871.42,151.0
871.48,146.0
871.54,163.0
871.6,153.0
871.67,156.0
871.73,165.0
871.79,165.0
871.86,154.0
871.92,161.0
871.98,178.0
872.05,168.0
872.11,175.0
872.17,184.0
872.23,189.0
872.3,173.0
872.36,154.0
872.42,175.0
872.49,170.0
872.55,154.0
872.61,148.0
872.68,184.0
872.74,152.0
872.8,153.0
872.86,169.0
872.93,176.0
872.99,173.0
873.05,159.0
873.12,172.0
873.18,161.0
873.24,157.0
873.31,148.0
873.37,154.0
873.43,172.0
873.49,148.0
873.56,153.0
873.62,169.0
873.68,149.0
873.75,139.0
873.81,145.0
873.87,154.0
873.94,133.0
874.0,147.0
874.06,146.0
874.12,143.0
874.19,126.0
874.25,122.0
874.31,140.0
874.38,121.0
874.44,128.0
874.5,152.0
874.57,123.0
874.63,115.0
874.69,127.0
874.75,155.0
874.82,153.0
874.88,131.0
874.94,128.0
875.01,122.0
875.07,145.0
875.13,142.0
875.2,154.0
875.26,144.0
875.32,143.0
875.38,153.0
875.45,155.0
875.51,171.0
875.57,142.0
875.64,138.0
875.7,120.0
875.76,107.0
875.83,136.0
875.89,136.0
875.95,127.0
876.01,135.0
876.08,137.0
876.14,151.0
876.2,137.0
876.27,132.0
876.33,119.0
876.39,108.0
876.46,118.0
876.52,103.0
876.58,103.0
876.64,97.0
876.71,88.0
876.77,91.0
876.83,52.0
876.9,91.0
876.96,121.0
877.02,114.0
877.09,103.0
877.15,91.0
877.21,101.0
877.27,121.0
877.34,99.0
877.4,89.0
877.46,88.0
877.53,109.0
877.59,120.0
877.65,120.0
877.72,94.0
877.78,110.0
877.84,117.0
877.9,108.0
877.97,117.0
878.03,103.0
878.09,90.0
878.16,57.0
878.22,40.0
878.28,40.0
878.35,50.0
878.41,37.0
878.47,43.0
878.53,49.0
878.6,44.0
878.66,34.0
878.72,47.0
878.79,51.0
878.85,59.0
878.91,49.0
878.98,54.0
879.04,42.0
879.1,48.0
879.16,59.0
879.23,62.0
879.29,50.0
879.35,49.0
879.42,52.0
879.48,50.0
879.54,56.0
879.61,65.0
879.67,46.0
879.73,22.0
879.79,33.0
879.86,35.0
879.92,21.0
879.98,40.0
880.05,38.0
880.11,47.0
880.17,50.0
880.24,51.0
880.3,21.0
880.36,38.0
880.42,28.0
880.49,35.0
880.55,58.0
880.61,54.0
880.68,75.0
880.74,60.0
880.8,48.0
880.87,54.0
880.93,43.0
880.99,40.0
881.05,54.0
881.12,48.0
881.18,47.0
881.24,60.0
881.31,48.0
881.37,45.0
881.43,35.0
881.5,44.0
881.56,38.0
881.62,10.0
881.68,40.0
881.75,19.0
881.81,10.0
881.87,18.0
881.94,10.0
882.0,-13.0
882.06,-20.0
882.13,1.0
882.19,-6.0
882.25,8.0
882.31,2.0
882.38,0.0
882.44,10.0
882.5,13.0
882.57,25.0
882.63,31.0
882.69,19.0
882.76,28.0
882.82,34.0
882.88,22.0
882.94,12.0
883.01,33.0
883.07,31.0
883.13,9.0
883.2,8.0
883.26,9.0
883.32,1.0
883.39,10.0
883.45,9.0
883.51,7.0
883.57,14.0
883.64,3.0
883.7,34.0
883.76,2.0
883.83,16.0
883.89,14.0
883.95,6.0
884.02,24.0
884.08,15.0
884.14,5.0
884.2,30.0
884.27,33.0
884.33,1.0
884.39,17.0
884.46,20.0
884.52,29.0
884.58,28.0
884.65,40.0
884.71,35.0
884.77,30.0
884.83,43.0
884.9,20.0
884.96,36.0
885.02,41.0
885.09,25.0
885.15,39.0
885.21,40.0
885.28,58.0
885.34,58.0
885.4,51.0
885.46,60.0
885.53,64.0
885.59,56.0
885.65,65.0
885.72,86.0
885.78,86.0
885.84,82.0
885.91,96.0
885.97,88.0
886.03,78.0
886.09,99.0
886.16,98.0
886.22,78.0
886.28,74.0
886.35,84.0
886.41,67.0
886.47,64.0
886.54,90.0
886.6,62.0
886.66,68.0
886.72,65.0
886.79,78.0
886.85,82.0
886.91,88.0
886.98,65.0
887.04,72.0
887.1,83.0
887.17,89.0
887.23,57.0
887.29,72.0
887.35,77.0
887.42,66.0
887.48,75.0
887.54,84.0
887.61,78.0
887.67,81.0
887.73,99.0
887.8,90.0
887.86,106.0
887.92,101.0
887.98,97.0
888.05,107.0
888.11,87.0
888.17,89.0
888.24,107.0
888.3,111.0
888.36,119.0
888.43,107.0
888.49,127.0
888.55,97.0
888.61,86.0
888.68,119.0
888.74,124.0
888.8,124.0
888.87,116.0
888.93,115.0
888.99,133.0
889.06,139.0
889.12,145.0
889.18,138.0
889.24,132.0
889.31,124.0
889.37,113.0
889.43,153.0
889.5,137.0
889.56,159.0
889.62,169.0
889.69,168.0
889.75,171.0
889.81,159.0
889.87,172.0
889.94,170.0
890.0,177.0
890.06,191.0
890.13,185.0
890.19,168.0
890.25,161.0
890.32,170.0
890.38,159.0
890.44,176.0
890.5,152.0
890.57,167.0
890.63,145.0
890.69,164.0
890.76,165.0
890.82,141.0
890.88,188.0
890.95,156.0
891.01,169.0
891.07,170.0
891.13,185.0
891.2,158.0
891.26,168.0
891.32,169.0
891.39,166.0
891.45,185.0
891.51,188.0
891.58,181.0
891.64,200.0
891.7,192.0
891.76,189.0
891.83,168.0
891.89,166.0
891.95,195.0
892.02,179.0
892.08,185.0
892.14,182.0
892.21,162.0
892.27,170.0
892.33,186.0
892.39,154.0
892.46,157.0
892.52,151.0
892.58,155.0
892.65,184.0
892.71,177.0
892.77,174.0
892.84,158.0
892.9,151.0
892.96,163.0
893.02,144.0
893.09,155.0
893.15,169.0
893.21,162.0
893.28,167.0
893.34,155.0
893.4,138.0
893.47,162.0
893.53,159.0
893.59,173.0
893.65,176.0
893.72,162.0
893.78,145.0
893.84,129.0
893.91,152.0
893.97,156.0
894.03,167.0
894.1,181.0
894.16,159.0
894.22,163.0
894.28,143.0
894.35,146.0
894.41,130.0
894.47,124.0
894.54,148.0
894.6,139.0
894.66,160.0
894.73,146.0
894.79,123.0
894.85,115.0
894.91,134.0
894.98,128.0
895.04,148.0
895.1,142.0
895.17,135.0
895.23,142.0
895.29,151.0
895.36,143.0
895.42,121.0
895.48,136.0
895.54,141.0
895.61,133.0
895.67,104.0
895.73,97.0
895.8,115.0
895.86,119.0
895.92,122.0
895.99,127.0
896.05,126.0
896.11,127.0
896.17,113.0
896.24,115.0
896.3,118.0
896.36,104.0
896.43,81.0
896.49,108.0
896.55,106.0
896.62,94.0
896.68,110.0
896.74,101.0
896.8,102.0
896.87,67.0
896.93,72.0
896.99,74.0
897.06,66.0
897.12,64.0
897.18,76.0
897.25,77.0
897.31,60.0
897.37,68.0
897.43,55.0
897.5,51.0
897.56,71.0
897.62,69.0
897.69,58.0
897.75,63.0
897.81,71.0
897.88,70.0
897.94,55.0
898.0,48.0
898.06,41.0
898.13,38.0
898.19,28.0
898.25,37.0
898.32,41.0
898.38,32.0
898.44,22.0
898.51,28.0
898.57,20.0
898.63,22.0
898.69,2.0
898.76,11.0
898.82,15.0
898.88,-2.0
898.95,6.0
899.01,10.0
899.07,-17.0
899.14,10.0
899.2,16.0
899.26,6.0
899.32,19.0
899.39,18.0
899.45,23.0
899.51,30.0
899.58,17.0
899.64,12.0
899.7,33.0
899.77,30.0
899.83,26.0
899.89,25.0
899.95,21.0
900.02,11.0
900.08,29.0
900.14,11.0
900.21,7.0
900.27,25.0
900.33,24.0
900.4,26.0
900.46,16.0
900.52,23.0
900.58,22.0
900.65,13.0
900.71,11.0
900.77,22.0
900.84,45.0
900.9,19.0
900.96,36.0
901.03,39.0
901.09,40.0
901.15,26.0
901.21,33.0
901.28,41.0
901.34,49.0
901.4,52.0
901.47,44.0
901.53,63.0
901.59,43.0
901.66,36.0
901.72,31.0
901.78,54.0
901.84,41.0
901.91,46.0
901.97,58.0
902.03,57.0
902.1,58.0
902.16,61.0
902.22,53.0
902.29,33.0
902.35,42.0
902.41,33.0
902.47,32.0
902.54,40.0
902.6,38.0
902.66,40.0
902.73,34.0
902.79,30.0
902.85,54.0
902.92,25.0
902.98,18.0
903.04,37.0
903.1,12.0
903.17,24.0
903.23,47.0
903.29,40.0
903.36,47.0
903.42,74.0
903.48,59.0
903.55,60.0
903.61,55.0
903.67,48.0
903.73,52.0
903.8,34.0
903.86,58.0
903.92,54.0
903.99,66.0
904.05,73.0
904.11,71.0
904.18,52.0
904.24,74.0
904.3,59.0
904.36,72.0
904.43,90.0
904.49,84.0
904.55,82.0
904.62,84.0
904.68,75.0
904.74,68.0
904.81,69.0
904.87,46.0
904.93,58.0
904.99,80.0
905.06,87.0
905.12,88.0
905.18,96.0
905.25,86.0
905.31,67.0
905.37,96.0
905.44,91.0
905.5,93.0
905.56,85.0
905.62,93.0
905.69,78.0
905.75,77.0
905.81,77.0
905.88,84.0
905.94,102.0
906.0,103.0
906.07,111.0
906.13,97.0
906.19,92.0
906.25,100.0
906.32,113.0
906.38,108.0
906.44,120.0
906.51,107.0
906.57,92.0
906.63,113.0
906.7,96.0
906.76,82.0
906.82,89.0
906.88,98.0
906.95,90.0
907.01,95.0
907.07,110.0
907.14,86.0
907.2,102.0
907.26,107.0
907.33,108.0
907.39,116.0
907.45,103.0
907.51,110.0
907.58,94.0
907.64,94.0
907.7,91.0
907.77,93.0
907.83,94.0
907.89,99.0
907.96,77.0
908.02,73.0
908.08,77.0
908.14,92.0
908.21,107.0
908.27,100.0
908.33,101.0
908.4,94.0
908.46,93.0
908.52,70.0
908.59,110.0
908.65,96.0
908.71,85.0
908.77,102.0
908.84,102.0
908.9,106.0
908.96,97.0
909.03,122.0
909.09,92.0
909.15,83.0
909.22,113.0
909.28,106.0
909.34,130.0
909.4,110.0
909.47,108.0
909.53,103.0
909.59,102.0
909.66,108.0
909.72,110.0
909.78,127.0
909.85,127.0
909.91,114.0
909.97,105.0
910.03,95.0
910.1,106.0
910.16,109.0
910.22,112.0
910.29,136.0
910.35,129.0
910.41,119.0
910.48,143.0
910.54,141.0
910.6,115.0
910.66,129.0
910.73,133.0
910.79,157.0
910.85,139.0
910.92,131.0
910.98,137.0
911.04,148.0
911.11,133.0
911.17,132.0
911.23,143.0
911.29,149.0
911.36,140.0
911.42,166.0
911.48,148.0
911.55,138.0
911.61,147.0
911.67,128.0
911.74,114.0
911.8,139.0
911.86,129.0
911.92,107.0
911.99,112.0
912.05,97.0
912.11,105.0
912.18,120.0
912.24,144.0
912.3,124.0
912.37,140.0
912.43,141.0
912.49,122.0
912.55,127.0
912.62,131.0
912.68,154.0
912.74,154.0
912.81,150.0
912.87,161.0
912.93,164.0
913.0,164.0
913.06,140.0
913.12,147.0
913.18,162.0
913.25,150.0
913.31,159.0
913.37,140.0
913.44,149.0
913.5,167.0
913.56,143.0
913.63,135.0
913.69,107.0
913.75,117.0
913.81,123.0
913.88,133.0
913.94,115.0
914.0,96.0
914.07,102.0
914.13,118.0
914.19,113.0
914.26,105.0
914.32,107.0
914.38,100.0
914.44,105.0
914.51,86.0
914.57,87.0
914.63,104.0
914.7,110.0
914.76,117.0
914.82,121.0
914.89,111.0
914.95,102.0
915.01,112.0
915.07,130.0
915.14,97.0
915.2,120.0
915.26,127.0
915.33,118.0
915.39,134.0
915.45,136.0
915.52,109.0
915.58,123.0
915.64,129.0
915.7,130.0
915.77,117.0
915.83,111.0
915.89,94.0
915.96,96.0
916.02,116.0
916.08,110.0
916.15,121.0
916.21,106.0
916.27,115.0
916.33,106.0
916.4,99.0
916.46,100.0
916.52,110.0
916.59,115.0
916.65,111.0
916.71,100.0
916.78,134.0
916.84,137.0
916.9,139.0
916.96,130.0
917.03,124.0
917.09,133.0
917.15,141.0
917.22,143.0
917.28,135.0
917.34,140.0
917.41,151.0
917.47,140.0
917.53,116.0
917.59,140.0
917.66,150.0
917.72,143.0
917.78,148.0
917.85,166.0
917.91,154.0
917.97,168.0
918.04,169.0
918.1,146.0
918.16,166.0
918.22,165.0
918.29,173.0
918.35,172.0
918.41,162.0
918.48,161.0
918.54,169.0
918.6,160.0
918.67,142.0
918.73,160.0
918.79,165.0
918.85,162.0
918.92,158.0
918.98,152.0
919.04,143.0
919.11,141.0
919.17,149.0
919.23,157.0
919.3,153.0
919.36,161.0
919.42,165.0
919.48,151.0
919.55,167.0
919.61,157.0
919.67,146.0
919.74,152.0
919.8,144.0
919.86,147.0
919.93,154.0
919.99,148.0
920.05,149.0
920.11,138.0
920.18,144.0
920.24,144.0
920.3,124.0
920.37,136.0
920.43,167.0
920.49,145.0
920.56,121.0
920.62,119.0
920.68,133.0
920.74,147.0
920.81,150.0
920.87,158.0
920.93,154.0
921.0,138.0
921.06,139.0
921.12,167.0
921.19,171.0
921.25,147.0
921.31,161.0
921.37,170.0
921.44,153.0
921.5,158.0
921.56,160.0
921.63,157.0
921.69,155.0
921.75,148.0
921.82,123.0
921.88,142.0
921.94,149.0
922.0,153.0
922.07,124.0
922.13,123.0
922.19,135.0
922.26,154.0
922.32,162.0
922.38,152.0
922.45,144.0
922.51,141.0
922.57,167.0
922.63,132.0
922.7,141.0
922.76,138.0
922.82,140.0
922.89,135.0
922.95,136.0
923.01,128.0
923.08,113.0
923.14,125.0
923.2,118.0
923.26,136.0
923.33,128.0
923.39,125.0
923.45,120.0
923.52,107.0
923.58,121.0
923.64,141.0
923.71,127.0
923.77,137.0
923.83,145.0
923.89,130.0
923.96,117.0
924.02,124.0
924.08,132.0
924.15,153.0
924.21,144.0
924.27,141.0
924.34,141.0
924.4,132.0
924.46,160.0
924.52,142.0
924.59,138.0
924.65,159.0
924.71,163.0
924.78,173.0
924.84,169.0
924.9,150.0
924.97,136.0
925.03,141.0
925.09,139.0
925.15,128.0
925.22,154.0
925.28,119.0
925.34,154.0
925.41,139.0
925.47,139.0
925.53,144.0
925.6,134.0
925.66,154.0
925.72,132.0
925.78,114.0
925.85,113.0
925.91,113.0
925.97,127.0
926.04,119.0
926.1,139.0
926.16,140.0
926.23,129.0
926.29,136.0
926.35,129.0
926.41,119.0
926.48,127.0
926.54,160.0
926.6,155.0
926.67,156.0
926.73,138.0
926.79,129.0
926.86,136.0
926.92,132.0
926.98,119.0
927.04,108.0
927.11,116.0
927.17,130.0
927.23,111.0
927.3,105.0
927.36,113.0
927.42,124.0
927.49,119.0
927.55,125.0
927.61,115.0
927.67,119.0
927.74,114.0
927.8,99.0
927.86,88.0
927.93,106.0
927.99,119.0
928.05,135.0
928.12,134.0
928.18,116.0
928.24,132.0
928.3,130.0
928.37,121.0
928.43,104.0
928.49,132.0
928.56,151.0
928.62,133.0
928.68,117.0
928.75,103.0
928.81,131.0
928.87,117.0
928.93,95.0
929.0,97.0
929.06,101.0
929.12,92.0
929.19,77.0
929.25,78.0
929.31,98.0
929.38,75.0
929.44,70.0
929.5,59.0
929.56,72.0
929.63,74.0
929.69,79.0
929.75,71.0
929.82,73.0
929.88,83.0
929.94,59.0
930.01,73.0
930.07,56.0
930.13,64.0
930.19,51.0
930.26,41.0
930.32,31.0
930.38,29.0
930.45,36.0
930.51,50.0
930.57,53.0
930.64,55.0
930.7,64.0
930.76,73.0
930.82,62.0
930.89,61.0
930.95,67.0
931.01,78.0
931.08,43.0
931.14,40.0
931.2,45.0
931.27,51.0
931.33,68.0
931.39,41.0
931.45,58.0
931.52,54.0
931.58,14.0
931.64,32.0
931.71,33.0
931.77,33.0
931.83,37.0
931.9,58.0
931.96,32.0
932.02,24.0
932.08,37.0
932.15,18.0
932.21,13.0
932.27,14.0
932.34,25.0
932.4,9.0
932.46,4.0
932.53,32.0
932.59,11.0
932.65,-3.0
932.71,17.0
932.78,6.0
932.84,7.0
932.9,-3.0
932.97,5.0
933.03,8.0
933.09,6.0
933.16,-5.0
933.22,-7.0
933.28,6.0
933.34,-6.0
933.41,2.0
933.47,10.0
933.53,11.0
933.6,9.0
933.66,-2.0
933.72,9.0
933.79,8.0
933.85,9.0
933.91,5.0
933.97,-8.0
934.04,-9.0
934.1,-5.0
934.16,0.0
934.23,-28.0
934.29,-28.0
934.35,-43.0
934.42,-33.0
934.48,-33.0
934.54,-46.0
934.6,-41.0
934.67,-23.0
934.73,-26.0
934.79,-19.0
934.86,-8.0
934.92,-30.0
934.98,-24.0
935.05,16.0
935.11,4.0
935.17,-12.0
935.23,1.0
935.3,5.0
935.36,14.0
935.42,18.0
935.49,5.0
935.55,11.0
935.61,16.0
935.68,8.0
935.74,30.0
935.8,33.0
935.86,34.0
935.93,40.0
935.99,54.0
936.05,67.0
936.12,62.0
936.18,59.0
936.24,61.0
936.31,86.0
936.37,68.0
936.43,62.0
936.49,95.0
936.56,92.0
936.62,60.0
936.68,65.0
936.75,58.0
936.81,81.0
936.87,97.0
936.94,76.0
937.0,86.0
937.06,60.0
937.12,50.0
937.19,79.0
937.25,86.0
937.31,103.0
937.38,72.0
937.44,75.0
937.5,65.0
937.57,75.0
937.63,84.0
937.69,62.0
937.75,67.0
937.82,87.0
937.88,77.0
937.94,72.0
938.01,81.0
938.07,99.0
938.13,88.0
938.2,100.0
938.26,76.0
938.32,59.0
938.38,73.0
938.45,69.0
938.51,88.0
938.57,65.0
938.64,91.0
938.7,95.0
938.76,78.0
938.83,76.0
938.89,77.0
938.95,76.0
939.01,67.0
939.08,76.0
939.14,72.0
939.2,84.0
939.27,78.0
939.33,70.0
939.39,67.0
939.46,99.0
939.52,91.0
939.58,92.0
939.64,103.0
939.71,99.0
939.77,106.0
939.83,115.0
939.9,105.0
939.96,119.0
940.02,128.0
940.09,120.0
940.15,128.0
940.21,136.0
940.27,124.0
940.34,145.0
940.4,141.0
940.46,124.0
940.53,140.0
940.59,128.0
940.65,139.0
940.72,135.0
940.78,160.0
940.84,165.0
940.9,154.0
940.97,149.0
941.03,169.0
941.09,163.0
941.16,162.0
941.22,172.0
941.28,156.0
941.35,127.0
941.41,143.0
941.47,152.0
941.53,143.0
941.6,141.0
941.66,145.0
941.72,151.0
941.79,156.0
941.85,161.0
941.91,158.0
941.98,143.0
942.04,144.0
942.1,133.0
942.16,146.0
942.23,140.0
942.29,166.0
942.35,176.0
942.42,169.0
942.48,191.0
942.54,184.0
942.61,187.0
942.67,196.0
942.73,194.0
942.79,188.0
942.86,165.0
942.92,182.0
942.98,174.0
943.05,167.0
943.11,175.0
943.17,178.0
943.24,191.0
943.3,190.0
943.36,169.0
943.42,174.0
943.49,174.0
943.55,173.0
943.61,163.0
943.68,165.0
943.74,147.0
943.8,161.0
943.87,165.0
943.93,157.0
943.99,161.0
944.05,176.0
944.12,175.0
944.18,203.0
944.24,187.0
944.31,184.0
944.37,193.0
944.43,190.0
944.5,196.0
944.56,196.0
944.62,197.0
944.68,186.0
944.75,180.0
944.81,178.0
944.87,175.0
944.94,175.0
945.0,179.0
945.06,172.0
945.13,170.0
945.19,176.0
945.25,163.0
945.31,168.0
945.38,139.0
945.44,158.0
945.5,150.0
945.57,157.0
945.63,145.0
945.69,150.0
945.76,149.0
945.82,142.0
945.88,157.0
945.94,162.0
946.01,145.0
946.07,123.0
946.13,128.0
946.2,138.0
946.26,131.0
946.32,134.0
946.39,141.0
946.45,139.0
946.51,125.0
946.57,119.0
946.64,126.0
946.7,131.0
946.76,123.0
946.83,139.0
946.89,125.0
946.95,125.0
947.02,138.0
947.08,131.0
947.14,111.0
947.2,135.0
947.27,115.0
947.33,127.0
947.39,129.0
947.46,108.0
947.52,133.0
947.58,118.0
947.65,118.0
947.71,133.0
947.77,131.0
947.83,142.0
947.9,133.0
947.96,131.0
948.02,134.0
948.09,100.0
948.15,95.0
948.21,94.0
948.28,95.0
948.34,70.0
948.4,80.0
948.46,95.0
948.53,92.0
948.59,68.0
948.65,86.0
948.72,101.0
948.78,95.0
948.84,79.0
948.91,70.0
948.97,64.0
949.03,54.0
949.09,28.0
949.16,36.0
949.22,29.0
949.28,38.0
949.35,34.0
949.41,25.0
949.47,28.0
949.54,19.0
949.6,25.0
949.66,9.0
949.72,17.0
949.79,27.0
949.85,21.0
949.91,56.0
949.98,49.0
950.04,38.0
950.1,39.0
950.17,38.0
950.23,13.0
950.29,12.0
950.35,26.0
950.42,29.0
950.48,40.0
950.54,42.0
950.61,39.0
950.67,33.0
950.73,40.0
950.8,39.0
950.86,31.0
950.92,29.0
950.98,33.0
951.05,48.0
951.11,37.0
951.17,41.0
951.24,41.0
951.3,45.0
951.36,66.0
951.43,66.0
951.49,55.0
951.55,54.0
951.61,59.0
951.68,61.0
951.74,48.0
951.8,63.0
951.87,59.0
951.93,35.0
951.99,44.0
952.06,49.0
952.12,51.0
952.18,44.0
952.24,54.0
952.31,58.0
952.37,68.0
952.43,61.0
952.5,45.0
952.56,81.0
952.62,83.0
952.69,91.0
952.75,91.0
952.81,106.0
952.87,83.0
952.94,89.0
953.0,116.0
953.06,113.0
953.13,118.0
953.19,82.0
953.25,89.0
953.32,102.0
953.38,77.0
953.44,80.0
953.5,83.0
953.57,91.0
953.63,88.0
953.69,91.0
953.76,91.0
953.82,94.0
953.88,94.0
953.95,93.0
954.01,88.0
954.07,86.0
954.13,84.0
954.2,76.0
954.26,84.0
954.32,80.0
954.39,77.0
954.45,76.0
954.51,77.0
954.58,77.0
954.64,62.0
954.7,69.0
954.76,47.0
954.83,42.0
954.89,39.0
954.95,70.0
955.02,72.0
955.08,81.0
955.14,81.0
955.21,80.0
955.27,64.0
955.33,76.0
955.39,95.0
955.46,98.0
955.52,97.0
955.58,94.0
955.65,99.0
955.71,89.0
955.77,100.0
955.84,104.0
955.9,113.0
955.96,102.0
956.02,97.0
956.09,82.0
956.15,92.0
956.21,83.0
956.28,83.0
956.34,85.0
956.4,86.0
956.47,63.0
956.53,65.0
956.59,66.0
956.65,64.0
956.72,67.0
956.78,75.0
956.84,91.0
956.91,91.0
956.97,67.0
957.03,55.0
957.1,73.0
957.16,72.0
957.22,56.0
957.28,73.0
957.35,81.0
957.41,89.0
957.47,91.0
957.54,83.0
957.6,85.0
957.66,89.0
957.73,78.0
957.79,77.0
957.85,78.0
957.91,94.0
957.98,68.0
958.04,72.0
958.1,80.0
958.17,71.0
958.23,81.0
958.29,79.0
958.36,94.0
958.42,100.0
958.48,90.0
958.54,102.0
958.61,108.0
958.67,86.0
958.73,94.0
958.8,102.0
958.86,103.0
958.92,119.0
958.99,123.0
959.05,113.0
959.11,111.0
959.17,108.0
959.24,107.0
959.3,115.0
959.36,113.0
959.43,113.0
959.49,123.0
959.55,119.0
959.62,136.0
959.68,153.0
959.74,134.0
959.8,146.0
959.87,138.0
959.93,143.0
959.99,145.0
960.06,132.0
960.12,135.0
960.18,120.0
960.25,123.0
960.31,137.0
960.37,136.0
960.43,113.0
960.5,139.0
960.56,135.0
960.62,135.0
960.69,139.0
960.75,134.0
960.81,139.0
960.88,134.0
960.94,117.0
961.0,113.0
961.06,123.0
961.13,139.0
961.19,139.0
961.25,138.0
961.32,135.0
961.38,116.0
961.44,117.0
961.51,108.0
961.57,128.0
961.63,124.0
961.69,136.0
961.76,136.0
961.82,128.0
961.88,160.0
961.95,144.0
962.01,164.0
962.07,174.0
962.14,161.0
962.2,158.0
962.26,157.0
962.32,171.0
962.39,149.0
962.45,144.0
962.51,166.0
962.58,175.0
962.64,182.0
962.7,171.0
962.77,149.0
962.83,157.0
962.89,174.0
962.95,168.0
963.02,169.0
963.08,172.0
963.14,172.0
963.21,169.0
963.27,171.0
963.33,182.0
963.4,143.0
963.46,144.0
963.52,138.0
963.58,145.0
963.65,143.0
963.71,162.0
963.77,178.0
963.84,131.0
963.9,144.0
963.96,141.0
964.03,145.0
964.09,147.0
964.15,154.0
964.21,153.0
964.28,150.0
964.34,144.0
964.4,125.0
964.47,133.0
964.53,125.0
964.59,116.0
964.66,119.0
964.72,133.0
964.78,120.0
964.84,117.0
964.91,125.0
964.97,128.0
965.03,150.0
965.1,141.0
965.16,150.0
965.22,145.0
965.29,139.0
965.35,136.0
965.41,121.0
965.47,148.0
965.54,121.0
965.6,95.0
965.66,106.0
965.73,94.0
965.79,86.0
965.85,80.0
965.92,96.0
965.98,74.0
966.04,76.0
966.1,66.0
966.17,57.0
966.23,69.0
966.29,69.0
966.36,84.0
966.42,84.0
966.48,95.0
966.55,82.0
966.61,67.0
966.67,91.0
966.73,80.0
966.8,95.0
966.86,104.0
966.92,94.0
966.99,94.0
967.05,98.0
967.11,103.0
967.18,111.0
967.24,100.0
967.3,111.0
967.36,126.0
967.43,108.0
967.49,103.0
967.55,108.0
967.62,114.0
967.68,99.0
967.74,112.0
967.81,110.0
967.87,121.0
967.93,99.0
967.99,117.0
968.06,114.0
968.12,97.0
968.18,119.0
968.25,108.0
968.31,111.0
968.37,113.0
968.44,112.0
968.5,122.0
968.56,101.0
968.62,114.0
968.69,128.0
968.75,127.0
968.81,127.0
968.88,126.0
968.94,136.0
969.0,116.0
969.07,130.0
969.13,157.0
969.19,169.0
969.25,157.0
969.32,160.0
969.38,163.0
969.44,156.0
969.51,169.0
969.57,165.0
969.63,163.0
969.7,144.0
969.76,141.0
969.82,165.0
969.88,183.0
969.95,164.0
970.01,150.0
970.07,160.0
970.14,169.0
970.2,156.0
970.26,161.0
970.33,143.0
970.39,161.0
970.45,174.0
970.51,175.0
970.58,179.0
970.64,157.0
970.7,167.0
970.77,162.0
970.83,153.0
970.89,162.0
970.96,157.0
971.02,156.0
971.08,140.0
971.14,140.0
971.21,147.0
971.27,160.0
971.33,155.0
971.4,162.0
971.46,147.0
971.52,141.0
971.59,152.0
971.65,158.0
971.71,154.0
971.77,136.0
971.84,135.0
971.9,148.0
971.96,152.0
972.03,145.0
972.09,159.0
972.15,143.0
972.22,141.0
972.28,160.0
972.34,146.0
972.4,188.0
972.47,157.0
972.53,134.0
972.59,139.0
972.66,142.0
972.72,171.0
972.78,136.0
972.85,133.0
972.91,134.0
972.97,134.0
973.03,162.0
973.1,151.0
973.16,155.0
973.22,157.0
973.29,148.0
973.35,156.0
973.41,157.0
973.48,178.0
973.54,165.0
973.6,161.0
973.66,173.0
973.73,152.0
973.79,160.0
973.85,160.0
973.92,161.0
973.98,161.0
974.04,157.0
974.11,169.0
974.17,167.0
974.23,157.0
974.29,161.0
974.36,153.0
974.42,149.0
974.48,167.0
974.55,155.0
974.61,139.0
974.67,153.0
974.74,156.0
974.8,156.0
974.86,173.0
974.92,169.0
974.99,155.0
975.05,146.0
975.11,139.0
975.18,152.0
975.24,145.0
975.3,154.0
975.37,153.0
975.43,146.0
975.49,133.0
975.55,136.0
975.62,159.0
975.68,137.0
975.74,136.0
975.81,146.0
975.87,159.0
975.93,165.0
976.0,167.0
976.06,153.0
976.12,174.0
976.18,161.0
976.25,160.0
976.31,168.0
976.37,151.0
976.44,142.0
976.5,153.0
976.56,157.0
976.63,137.0
976.69,143.0
976.75,158.0
976.81,145.0
976.88,150.0
976.94,150.0
977.0,127.0
977.07,132.0
977.13,137.0
977.19,132.0
977.26,134.0
977.32,156.0
977.38,136.0
977.44,157.0
977.51,149.0
977.57,139.0
977.63,132.0
977.7,140.0
977.76,133.0
977.82,131.0
977.89,141.0
977.95,132.0
978.01,157.0
978.07,155.0
978.14,151.0
978.2,149.0
978.26,162.0
978.33,173.0
978.39,166.0
978.45,162.0
978.52,155.0
978.58,178.0
978.64,155.0
978.7,158.0
978.77,155.0
978.83,163.0
978.89,149.0
978.96,141.0
979.02,150.0
979.08,152.0
979.15,146.0
979.21,129.0
979.27,120.0
979.33,126.0
979.4,110.0
979.46,110.0
979.52,113.0
979.59,114.0
979.65,119.0
979.71,101.0
979.78,123.0
979.84,119.0
979.9,105.0
979.96,117.0
980.03,117.0
980.09,135.0
980.15,132.0
980.22,117.0
980.28,108.0
980.34,115.0
980.41,106.0
980.47,112.0
980.53,115.0
980.59,124.0
980.66,116.0
980.72,94.0
980.78,121.0
980.85,113.0
980.91,104.0
980.97,103.0
981.04,102.0
981.1,103.0
981.16,111.0
981.22,99.0
981.29,91.0
981.35,96.0
981.41,76.0
981.48,84.0
981.54,90.0
981.6,82.0
981.67,88.0
981.73,94.0
981.79,87.0
981.85,91.0
981.92,89.0
981.98,92.0
982.04,79.0
982.11,77.0
982.17,84.0
982.23,91.0
982.3,81.0
982.36,72.0
982.42,73.0
982.48,78.0
982.55,67.0
982.61,36.0
982.67,51.0
982.74,25.0
982.8,32.0
982.86,56.0
982.93,39.0
982.99,45.0
983.05,56.0
983.11,52.0
983.18,21.0
983.24,23.0
983.3,20.0
983.37,15.0
983.43,10.0
983.49,29.0
983.56,35.0
983.62,25.0
983.68,21.0
983.74,40.0
983.81,43.0
983.87,45.0
983.93,17.0
984.0,20.0
984.06,42.0
984.12,28.0
984.19,28.0
984.25,37.0
984.31,37.0
984.37,30.0
984.44,20.0
984.5,26.0
984.56,19.0
984.63,21.0
984.69,14.0
984.75,15.0
984.82,13.0
984.88,43.0
984.94,57.0
985.0,60.0
985.07,44.0
985.13,62.0
985.19,65.0
985.26,56.0
985.32,82.0
985.38,72.0
985.45,74.0
985.51,45.0
985.57,58.0
985.63,75.0
985.7,67.0
985.76,53.0
985.82,42.0
985.89,34.0
985.95,51.0
986.01,62.0
986.08,61.0
986.14,69.0
986.2,83.0
986.26,80.0
986.33,72.0
986.39,75.0
986.45,69.0
986.52,61.0
986.58,57.0
986.64,53.0
986.71,53.0
986.77,40.0
986.83,32.0
986.89,33.0
986.96,47.0
987.02,45.0
987.08,33.0
987.15,36.0
987.21,22.0
987.27,34.0
987.34,41.0
987.4,47.0
987.46,27.0
987.52,34.0
987.59,33.0
987.65,43.0
987.71,36.0
987.78,40.0
987.84,43.0
987.9,27.0
987.97,21.0
988.03,21.0
988.09,4.0
988.15,25.0
988.22,25.0
988.28,28.0
988.34,55.0
988.41,55.0
988.47,68.0
988.53,62.0
988.6,69.0
988.66,62.0
988.72,64.0
988.78,60.0
988.85,74.0
988.91,76.0
988.97,97.0
989.04,76.0
989.1,72.0
989.16,73.0
989.23,84.0
989.29,67.0
989.35,70.0
989.41,75.0
989.48,53.0
989.54,58.0
989.6,75.0
989.67,80.0
989.73,100.0
989.79,96.0
989.86,95.0
989.92,96.0
989.98,88.0
990.04,102.0
990.11,108.0
990.17,100.0
990.23,102.0
990.3,91.0
990.36,97.0
990.42,87.0
990.49,85.0
990.55,75.0
990.61,83.0
990.67,75.0
990.74,76.0
990.8,92.0
990.86,95.0
990.93,92.0
990.99,88.0
991.05,88.0
991.12,98.0
991.18,94.0
991.24,95.0
991.3,94.0
991.37,98.0
991.43,105.0
991.49,97.0
991.56,80.0
991.62,80.0
991.68,102.0
991.75,110.0
991.81,117.0
991.87,102.0
991.93,124.0
992.0,110.0
992.06,102.0
992.12,109.0
992.19,113.0
992.25,120.0
992.31,123.0
992.38,134.0
992.44,127.0
992.5,120.0
992.56,134.0
992.63,116.0
992.69,124.0
992.75,143.0
992.82,144.0
992.88,147.0
992.94,144.0
993.01,163.0
993.07,185.0
993.13,172.0
993.19,174.0
993.26,165.0
993.32,159.0
993.38,154.0
993.45,151.0
993.51,147.0
993.57,135.0
993.64,146.0
993.7,145.0
993.76,148.0
993.82,127.0
993.89,131.0
993.95,155.0
994.01,122.0
994.08,136.0
994.14,130.0
994.2,128.0
994.27,134.0
994.33,139.0
994.39,139.0
994.45,144.0
994.52,144.0
994.58,128.0
994.64,131.0
994.71,136.0
994.77,126.0
994.83,134.0
994.9,128.0
994.96,136.0
995.02,135.0
995.08,135.0
995.15,145.0
995.21,144.0
995.27,157.0
995.34,152.0
995.4,155.0
995.46,156.0
995.53,150.0
995.59,142.0
995.65,138.0
995.71,147.0
995.78,137.0
995.84,166.0
995.9,159.0
995.97,148.0
996.03,155.0
996.09,156.0
996.16,170.0
996.22,165.0
996.28,167.0
996.34,161.0
996.41,162.0
996.47,140.0
996.53,126.0
996.6,146.0
996.66,138.0
996.72,135.0
996.79,131.0
996.85,129.0
996.91,114.0
996.97,131.0
997.04,125.0
997.1,124.0
997.16,127.0
997.23,124.0
997.29,127.0
997.35,127.0
997.42,123.0
997.48,120.0
997.54,110.0
997.6,130.0
997.67,132.0
997.73,128.0
997.79,130.0
997.86,115.0
997.92,115.0
997.98,121.0
998.05,101.0
998.11,99.0
998.17,104.0
998.23,115.0
998.3,91.0
998.36,94.0
998.42,103.0
998.49,96.0
998.55,88.0
998.61,105.0
998.68,110.0
998.74,113.0
998.8,98.0
998.86,83.0
998.93,84.0
998.99,71.0
999.05,75.0
999.12,89.0
999.18,81.0
999.24,68.0
999.31,70.0
999.37,67.0
999.43,62.0
999.49,51.0
999.56,56.0
999.62,55.0
999.68,55.0
999.75,58.0
999.81,61.0
999.87,62.0
