timestamp,intensity
0,-230.0
0.06,-241.0
0.13,-226.0
0.19,-213.0
0.25,-203.0
0.32,-199.0
0.38,-194.0
0.44,-213.0
0.5,-180.0
0.57,-183.0
0.63,-191.0
0.69,-206.0
0.76,-228.0
0.82,-208.0
0.88,-207.0
0.94,-192.0
1.01,-181.0
1.07,-164.0
1.13,-157.0
1.2,-176.0
1.26,-176.0
1.32,-192.0
1.39,-196.0
1.45,-210.0
1.51,-194.0
1.57,-166.0
1.64,-188.0
1.7,-200.0
1.76,-189.0
1.83,-188.0
1.89,-190.0
1.95,-213.0
2.02,-202.0
2.08,-202.0
2.14,-213.0
2.2,-239.0
2.27,-229.0
2.33,-234.0
2.39,-221.0
2.46,-230.0
2.52,-240.0
2.58,-233.0
2.65,-254.0
2.71,-254.0
2.77,-265.0
2.84,-276.0
2.9,-248.0
2.96,-263.0
3.02,-271.0
3.09,-267.0
3.15,-264.0
3.21,-256.0
3.28,-260.0
3.34,-263.0
3.4,-259.0
3.47,-247.0
3.53,-255.0
3.59,-256.0
3.65,-252.0
3.72,-245.0
3.78,-262.0
3.84,-269.0
3.91,-239.0
3.97,-258.0
4.03,-265.0
4.1,-258.0
4.16,-257.0
4.22,-255.0
4.28,-261.0
4.35,-256.0
4.41,-270.0
4.47,-299.0
4.54,-275.0
4.6,-295.0
4.66,-283.0
4.73,-293.0
4.79,-288.0
4.85,-286.0
4.91,-281.0
4.98,-283.0
5.04,-285.0
5.1,-269.0
5.17,-277.0
5.23,-278.0
5.29,-277.0
5.35,-274.0
5.42,-247.0
5.48,-237.0
5.54,-254.0
5.61,-246.0
5.67,-236.0
5.73,-231.0
5.8,-217.0
5.86,-235.0
5.92,-245.0
5.98,-247.0
6.05,-227.0
6.11,-241.0
6.17,-235.0
6.24,-219.0
6.3,-225.0
6.36,-217.0
6.43,-223.0
6.49,-233.0
6.55,-229.0
6.61,-218.0
6.68,-211.0
6.74,-217.0
6.8,-209.0
6.87,-221.0
6.93,-220.0
6.99,-217.0
7.06,-216.0
7.12,-205.0
7.18,-205.0
7.24,-192.0
7.31,-216.0
7.37,-223.0
7.43,-193.0
7.5,-199.0
7.56,-199.0
7.62,-218.0
7.69,-219.0
7.75,-188.0
7.81,-207.0
7.87,-202.0
7.94,-199.0
8.0,-199.0
8.06,-209.0
8.13,-207.0
8.19,-215.0
8.25,-216.0
8.32,-221.0
8.38,-207.0
8.44,-215.0
8.5,-199.0
8.57,-196.0
8.63,-192.0
8.69,-204.0
8.76,-190.0
8.82,-188.0
8.88,-177.0
8.95,-178.0
9.01,-179.0
9.07,-173.0
9.13,-177.0
9.2,-177.0
9.26,-176.0
9.32,-182.0
9.39,-174.0
9.45,-157.0
9.51,-158.0
9.58,-166.0
9.64,-174.0
9.7,-161.0
9.77,-153.0
9.83,-155.0
9.89,-162.0
9.95,-175.0
10.02,-181.0
10.08,-167.0
10.14,-171.0
10.21,-202.0
10.27,-199.0
10.33,-172.0
10.4,-192.0
10.46,-182.0
10.52,-169.0
10.58,-172.0
10.65,-196.0
10.71,-198.0
10.77,-182.0
10.84,-166.0
10.9,-192.0
10.96,-206.0
11.03,-210.0
11.09,-198.0
11.15,-195.0
11.21,-197.0
11.28,-202.0
11.34,-185.0
11.4,-188.0
11.47,-196.0
11.53,-200.0
11.59,-208.0
11.66,-192.0
11.72,-216.0
11.78,-199.0
11.84,-212.0
11.91,-233.0
11.97,-210.0
12.03,-221.0
12.1,-212.0
12.16,-192.0
12.22,-220.0
12.29,-215.0
12.35,-221.0
12.41,-242.0
12.47,-253.0
12.54,-259.0
12.6,-238.0
12.66,-261.0
12.73,-261.0
12.79,-231.0
12.85,-248.0
12.92,-241.0
12.98,-229.0
13.04,-235.0
13.1,-255.0
13.17,-263.0
13.23,-241.0
13.29,-263.0
13.36,-260.0
13.42,-271.0
13.48,-276.0
13.55,-297.0
13.61,-273.0
13.67,-282.0
13.73,-282.0
13.8,-300.0
13.86,-279.0
13.92,-272.0
13.99,-297.0
14.05,-297.0
14.11,-293.0
14.18,-305.0
14.24,-297.0
14.3,-311.0
14.36,-299.0
14.43,-289.0
14.49,-300.0
14.55,-291.0
14.62,-281.0
14.68,-283.0
14.74,-289.0
14.81,-287.0
14.87,-294.0
14.93,-289.0
14.99,-288.0
15.06,-283.0
15.12,-274.0
15.18,-275.0
15.25,-273.0
15.31,-282.0
15.37,-289.0
15.44,-272.0
15.5,-255.0
15.56,-260.0
15.62,-270.0
15.69,-258.0
15.75,-275.0
15.81,-279.0
15.88,-284.0
15.94,-298.0
16.0,-320.0
16.07,-318.0
16.13,-316.0
16.19,-307.0
16.25,-296.0
16.32,-281.0
16.38,-295.0
16.44,-306.0
16.51,-288.0
16.57,-293.0
16.63,-292.0
16.7,-309.0
16.76,-294.0
16.82,-292.0
16.88,-303.0
16.95,-283.0
17.01,-292.0
17.07,-282.0
17.14,-307.0
17.2,-278.0
17.26,-280.0
17.33,-284.0
17.39,-287.0
17.45,-284.0
17.51,-268.0
17.58,-283.0
17.64,-269.0
17.7,-264.0
17.77,-255.0
17.83,-245.0
17.89,-247.0
17.96,-235.0
18.02,-226.0
18.08,-229.0
18.14,-209.0
18.21,-188.0
18.27,-179.0
18.33,-217.0
18.4,-237.0
18.46,-234.0
18.52,-230.0
18.59,-202.0
18.65,-207.0
18.71,-212.0
18.77,-208.0
18.84,-190.0
18.9,-204.0
18.96,-182.0
19.03,-191.0
19.09,-193.0
19.15,-204.0
19.22,-189.0
19.28,-202.0
19.34,-198.0
19.4,-189.0
19.47,-177.0
19.53,-151.0
19.59,-157.0
19.66,-145.0
19.72,-170.0
19.78,-162.0
19.84,-145.0
19.91,-156.0
19.97,-158.0
20.03,-145.0
20.1,-159.0
20.16,-154.0
20.22,-160.0
20.29,-138.0
20.35,-167.0
20.41,-180.0
20.47,-154.0
20.54,-145.0
20.6,-140.0
20.66,-148.0
20.73,-132.0
20.79,-127.0
20.85,-100.0
20.92,-110.0
20.98,-99.0
21.04,-102.0
21.1,-90.0
21.17,-100.0
21.23,-107.0
21.29,-117.0
21.36,-102.0
21.42,-83.0
21.48,-76.0
21.55,-95.0
21.61,-98.0
21.67,-72.0
21.73,-86.0
21.8,-61.0
21.86,-85.0
21.92,-90.0
21.99,-98.0
22.05,-106.0
22.11,-100.0
22.18,-109.0
22.24,-102.0
22.3,-86.0
22.36,-75.0
22.43,-85.0
22.49,-94.0
22.55,-93.0
22.62,-103.0
22.68,-106.0
22.74,-83.0
22.81,-87.0
22.87,-90.0
22.93,-108.0
22.99,-76.0
23.06,-94.0
23.12,-89.0
23.18,-68.0
23.25,-70.0
23.31,-52.0
23.37,-64.0
23.44,-41.0
23.5,-53.0
23.56,-68.0
23.62,-46.0
23.69,-47.0
23.75,-66.0
23.81,-65.0
23.88,-48.0
23.94,-52.0
24.0,-39.0
24.07,-88.0
24.13,-70.0
24.19,-60.0
24.25,-53.0
24.32,-60.0
24.38,-65.0
24.44,-44.0
24.51,-48.0
24.57,-76.0
24.63,-84.0
24.7,-56.0
24.76,-54.0
24.82,-57.0
24.88,-48.0
24.95,-41.0
25.01,-43.0
25.07,-40.0
25.14,-37.0
25.2,-45.0
25.26,-67.0
25.33,-39.0
25.39,-29.0
25.45,-38.0
25.51,-59.0
25.58,-67.0
25.64,-81.0
25.7,-54.0
25.77,-72.0
25.83,-62.0
25.89,-48.0
25.96,-75.0
26.02,-71.0
26.08,-61.0
26.14,-66.0
26.21,-70.0
26.27,-85.0
26.33,-57.0
26.4,-39.0
26.46,-35.0
26.52,-48.0
26.59,-35.0
26.65,-19.0
26.71,-36.0
26.77,-61.0
26.84,-64.0
26.9,-79.0
26.96,-95.0
27.03,-92.0
27.09,-75.0
27.15,-74.0
27.22,-76.0
27.28,-77.0
27.34,-93.0
27.4,-88.0
27.47,-51.0
27.53,-62.0
27.59,-38.0
27.66,-45.0
27.72,-54.0
27.78,-58.0
27.85,-63.0
27.91,-68.0
27.97,-75.0
28.03,-91.0
28.1,-86.0
28.16,-69.0
28.22,-79.0
28.29,-101.0
28.35,-90.0
28.41,-87.0
28.48,-78.0
28.54,-94.0
28.6,-86.0
28.66,-85.0
28.73,-84.0
28.79,-80.0
28.85,-95.0
28.92,-110.0
28.98,-115.0
29.04,-111.0
29.11,-94.0
29.17,-108.0
29.23,-142.0
29.29,-114.0
29.36,-129.0
29.42,-133.0
29.48,-143.0
29.55,-131.0
29.61,-123.0
29.67,-120.0
29.74,-103.0
29.8,-120.0
29.86,-121.0
29.92,-89.0
29.99,-98.0
30.05,-112.0
30.11,-94.0
30.18,-113.0
30.24,-104.0
30.3,-117.0
30.37,-136.0
30.43,-155.0
30.49,-153.0
30.55,-152.0
30.62,-167.0
30.68,-154.0
30.74,-153.0
30.81,-162.0
30.87,-149.0
30.93,-155.0
31.0,-146.0
31.06,-159.0
31.12,-166.0
31.18,-177.0
31.25,-168.0
31.31,-161.0
31.37,-178.0
31.44,-155.0
31.5,-144.0
31.56,-164.0
31.63,-177.0
31.69,-178.0
31.75,-181.0
31.81,-198.0
31.88,-174.0
31.94,-175.0
32.0,-202.0
32.07,-190.0
32.13,-176.0
32.19,-177.0
32.26,-182.0
32.32,-207.0
32.38,-182.0
32.44,-172.0
32.51,-186.0
32.57,-180.0
32.63,-179.0
32.7,-193.0
32.76,-188.0
32.82,-185.0
32.89,-192.0
32.95,-185.0
33.01,-193.0
33.07,-182.0
33.14,-175.0
33.2,-173.0
33.26,-171.0
33.33,-171.0
33.39,-147.0
33.45,-131.0
33.52,-154.0
33.58,-156.0
33.64,-147.0
33.7,-165.0
33.77,-160.0
33.83,-133.0
33.89,-144.0
33.96,-130.0
34.02,-134.0
34.08,-134.0
34.15,-124.0
34.21,-118.0
34.27,-110.0
34.33,-118.0
34.4,-112.0
34.46,-115.0
34.52,-122.0
34.59,-130.0
34.65,-103.0
34.71,-116.0
34.78,-101.0
34.84,-79.0
34.9,-115.0
34.96,-104.0
35.03,-94.0
35.09,-101.0
35.15,-114.0
35.22,-114.0
35.28,-96.0
35.34,-83.0
35.41,-94.0
35.47,-102.0
35.53,-83.0
35.59,-107.0
35.66,-119.0
35.72,-104.0
35.78,-90.0
35.85,-90.0
35.91,-101.0
35.97,-104.0
36.04,-103.0
36.1,-121.0
36.16,-124.0
36.22,-127.0
36.29,-126.0
36.35,-121.0
36.41,-115.0
36.48,-116.0
36.54,-133.0
36.6,-117.0
36.67,-125.0
36.73,-135.0
36.79,-144.0
36.85,-141.0
36.92,-161.0
36.98,-158.0
37.04,-145.0
37.11,-157.0
37.17,-151.0
37.23,-150.0
37.3,-162.0
37.36,-152.0
37.42,-156.0
37.48,-158.0
37.55,-169.0
37.61,-160.0
37.67,-168.0
37.74,-144.0
37.8,-155.0
37.86,-161.0
37.93,-168.0
37.99,-164.0
38.05,-196.0
38.12,-182.0
38.18,-197.0
38.24,-179.0
38.3,-176.0
38.37,-182.0
38.43,-183.0
38.49,-200.0
38.56,-187.0
38.62,-189.0
38.68,-180.0
38.75,-188.0
38.81,-201.0
38.87,-182.0
38.93,-196.0
39.0,-198.0
39.06,-191.0
39.12,-195.0
39.19,-206.0
39.25,-229.0
39.31,-211.0
39.38,-189.0
39.44,-198.0
39.5,-210.0
39.56,-204.0
39.63,-212.0
39.69,-202.0
39.75,-210.0
39.82,-208.0
39.88,-204.0
39.94,-203.0
40.01,-198.0
40.07,-198.0
40.13,-193.0
40.19,-202.0
40.26,-211.0
40.32,-212.0
40.38,-205.0
40.45,-200.0
40.51,-181.0
40.57,-198.0
40.64,-214.0
40.7,-205.0
40.76,-207.0
40.82,-195.0
40.89,-211.0
40.95,-207.0
41.01,-202.0
41.08,-206.0
41.14,-212.0
41.2,-210.0
41.27,-220.0
41.33,-203.0
41.39,-209.0
41.45,-239.0
41.52,-202.0
41.58,-229.0
41.64,-219.0
41.71,-234.0
41.77,-227.0
41.83,-232.0
41.9,-233.0
41.96,-239.0
42.02,-244.0
42.08,-229.0
42.15,-210.0
42.21,-213.0
42.27,-193.0
42.34,-186.0
42.4,-212.0
42.46,-189.0
42.53,-206.0
42.59,-205.0
42.65,-186.0
42.71,-188.0
42.78,-176.0
42.84,-160.0
42.9,-169.0
42.97,-150.0
43.03,-136.0
43.09,-149.0
43.16,-148.0
43.22,-144.0
43.28,-144.0
43.34,-138.0
43.41,-117.0
43.47,-110.0
43.53,-136.0
43.6,-119.0
43.66,-109.0
43.72,-104.0
43.79,-93.0
43.85,-96.0
43.91,-94.0
43.97,-101.0
44.04,-90.0
44.1,-112.0
44.16,-99.0
44.23,-114.0
44.29,-99.0
44.35,-110.0
44.42,-108.0
44.48,-106.0
44.54,-90.0
44.6,-122.0
44.67,-102.0
44.73,-74.0
44.79,-79.0
44.86,-70.0
44.92,-76.0
44.98,-55.0
45.05,-81.0
45.11,-72.0
45.17,-72.0
45.23,-56.0
45.3,-67.0
45.36,-66.0
45.42,-57.0
45.49,-45.0
45.55,-65.0
45.61,-49.0
45.68,-42.0
45.74,-72.0
45.8,-46.0
45.86,-40.0
45.93,-52.0
45.99,-40.0
46.05,-40.0
46.12,-25.0
46.18,-52.0
46.24,-60.0
46.31,-63.0
46.37,-53.0
46.43,-56.0
46.49,-59.0
46.56,-69.0
46.62,-60.0
46.68,-58.0
46.75,-57.0
46.81,-73.0
46.87,-63.0
46.94,-67.0
47.0,-71.0
47.06,-72.0
47.12,-66.0
47.19,-63.0
47.25,-53.0
47.31,-56.0
47.38,-66.0
47.44,-72.0
47.5,-71.0
47.57,-80.0
47.63,-72.0
47.69,-70.0
47.75,-89.0
47.82,-99.0
47.88,-96.0
47.94,-89.0
48.01,-67.0
48.07,-67.0
48.13,-69.0
48.2,-91.0
48.26,-98.0
48.32,-75.0
48.38,-69.0
48.45,-63.0
48.51,-87.0
48.57,-98.0
48.64,-94.0
48.7,-92.0
48.76,-113.0
48.83,-108.0
48.89,-95.0
48.95,-85.0
49.01,-98.0
49.08,-84.0
49.14,-85.0
49.2,-74.0
49.27,-76.0
49.33,-73.0
49.39,-68.0
49.46,-90.0
49.52,-88.0
49.58,-95.0
49.64,-93.0
49.71,-88.0
49.77,-96.0
49.83,-82.0
49.9,-79.0
49.96,-65.0
50.02,-71.0
50.09,-54.0
50.15,-56.0
50.21,-70.0
50.27,-82.0
50.34,-70.0
50.4,-55.0
50.46,-75.0
50.53,-67.0
50.59,-45.0
50.65,-69.0
50.72,-64.0
50.78,-66.0
50.84,-68.0
50.9,-60.0
50.97,-55.0
51.03,-58.0
51.09,-90.0
51.16,-63.0
51.22,-54.0
51.28,-64.0
51.35,-45.0
51.41,-73.0
51.47,-84.0
51.53,-83.0
51.6,-83.0
51.66,-48.0
51.72,-43.0
51.79,-25.0
51.85,-45.0
51.91,-48.0
51.98,-49.0
52.04,-26.0
52.1,-11.0
52.16,-16.0
52.23,-50.0
52.29,-56.0
52.35,-53.0
52.42,-43.0
52.48,-46.0
52.54,-65.0
52.61,-48.0
52.67,-46.0
52.73,-36.0
52.79,-32.0
52.86,-26.0
52.92,-36.0
52.98,-54.0
53.05,-51.0
53.11,-46.0
53.17,-52.0
53.24,-49.0
53.3,-44.0
53.36,-54.0
53.42,-28.0
53.49,-42.0
53.55,-44.0
53.61,-14.0
53.68,-26.0
53.74,-42.0
53.8,-38.0
53.87,-32.0
53.93,-41.0
53.99,-32.0
54.05,-23.0
54.12,-35.0
54.18,-54.0
54.24,-31.0
54.31,-39.0
54.37,-53.0
54.43,-35.0
54.5,-42.0
54.56,-41.0
54.62,-34.0
54.68,-26.0
54.75,-51.0
54.81,-22.0
54.87,-11.0
54.94,-21.0
55.0,-30.0
55.06,-36.0
55.13,-44.0
55.19,-33.0
55.25,-7.0
55.31,3.0
55.38,-14.0
55.44,-9.0
55.5,16.0
55.57,6.0
55.63,4.0
55.69,24.0
55.76,17.0
55.82,20.0
55.88,18.0
55.94,9.0
56.01,13.0
56.07,17.0
56.13,10.0
56.2,2.0
56.26,5.0
56.32,-14.0
56.39,-2.0
56.45,-6.0
56.51,5.0
56.57,16.0
56.64,16.0
56.7,4.0
56.76,11.0
56.83,7.0
56.89,-12.0
56.95,3.0
57.02,15.0
57.08,8.0
57.14,-1.0
57.2,-1.0
57.27,14.0
57.33,12.0
57.39,0.0
57.46,5.0
57.52,10.0
57.58,16.0
57.65,-10.0
57.71,-1.0
57.77,5.0
57.83,-22.0
57.9,-1.0
57.96,-8.0
58.02,-3.0
58.09,-11.0
58.15,-1.0
58.21,-8.0
58.28,-13.0
58.34,-6.0
58.4,-9.0
58.46,-12.0
58.53,-20.0
58.59,-15.0
58.65,-5.0
58.72,-13.0
58.78,-17.0
58.84,3.0
58.91,-3.0
58.97,-17.0
59.03,-33.0
59.09,-13.0
59.16,3.0
59.22,-2.0
59.28,12.0
59.35,4.0
59.41,8.0
59.47,-7.0
59.54,-4.0
59.6,14.0
59.66,28.0
59.72,9.0
59.79,23.0
59.85,37.0
59.91,32.0
59.98,20.0
60.04,23.0
60.1,27.0
60.17,32.0
60.23,37.0
60.29,45.0
60.35,65.0
60.42,40.0
60.48,20.0
60.54,32.0
60.61,26.0
60.67,29.0
60.73,2.0
60.8,17.0
60.86,20.0
60.92,7.0
60.98,3.0
61.05,-1.0
61.11,12.0
61.17,5.0
61.24,9.0
61.3,25.0
61.36,13.0
61.43,4.0
61.49,7.0
61.55,2.0
61.61,-8.0
61.68,-9.0
61.74,4.0
61.8,5.0
61.87,-20.0
61.93,-18.0
61.99,0.0
62.06,17.0
62.12,13.0
62.18,26.0
62.24,6.0
62.31,18.0
62.37,11.0
62.43,24.0
62.5,-1.0
62.56,1.0
62.62,-14.0
62.69,-5.0
62.75,5.0
62.81,15.0
62.87,-8.0
62.94,-20.0
63.0,-5.0
63.06,-21.0
63.13,-8.0
63.19,-9.0
63.25,1.0
63.32,9.0
63.38,3.0
63.44,-6.0
63.5,-5.0
63.57,4.0
63.63,-17.0
63.69,-15.0
63.76,-25.0
63.82,-44.0
63.88,-53.0
63.95,-47.0
64.01,-55.0
64.07,-49.0
64.13,-62.0
64.2,-73.0
64.26,-59.0
64.32,-75.0
64.39,-78.0
64.45,-56.0
64.51,-79.0
64.58,-95.0
64.64,-106.0
64.7,-85.0
64.76,-91.0
64.83,-114.0
64.89,-125.0
64.95,-131.0
65.02,-118.0
65.08,-122.0
65.14,-125.0
65.21,-134.0
65.27,-124.0
65.33,-128.0
65.39,-120.0
65.46,-118.0
65.52,-117.0
65.58,-125.0
65.65,-124.0
65.71,-126.0
65.77,-136.0
65.84,-124.0
65.9,-138.0
65.96,-135.0
66.02,-128.0
66.09,-137.0
66.15,-148.0
66.21,-138.0
66.28,-142.0
66.34,-139.0
66.4,-160.0
66.47,-149.0
66.53,-146.0
66.59,-154.0
66.65,-142.0
66.72,-129.0
66.78,-147.0
66.84,-132.0
66.91,-147.0
66.97,-134.0
67.03,-142.0
67.1,-119.0
67.16,-124.0
67.22,-144.0
67.28,-132.0
67.35,-130.0
67.41,-107.0
67.47,-103.0
67.54,-85.0
67.6,-67.0
67.66,-81.0
67.73,-89.0
67.79,-73.0
67.85,-78.0
67.91,-64.0
67.98,-63.0
68.04,-85.0
68.1,-77.0
68.17,-74.0
68.23,-81.0
68.29,-81.0
68.36,-79.0
68.42,-67.0
68.48,-82.0
68.54,-55.0
68.61,-49.0
68.67,-49.0
68.73,-40.0
68.8,-46.0
68.86,-26.0
68.92,-60.0
68.99,-61.0
69.05,-32.0
69.11,-34.0
69.17,-49.0
69.24,-31.0
69.3,-10.0
69.36,-35.0
69.43,-28.0
69.49,-19.0
69.55,-49.0
69.62,-40.0
69.68,-35.0
69.74,-17.0
69.8,-24.0
69.87,-41.0
69.93,-38.0
69.99,-39.0
70.06,-52.0
70.12,-25.0
70.18,-10.0
70.25,-30.0
70.31,-8.0
70.37,4.0
70.43,4.0
70.5,-9.0
70.56,-14.0
70.62,-7.0
70.69,0.0
70.75,9.0
70.81,-5.0
70.88,-31.0
70.94,-14.0
71.0,5.0
71.06,-10.0
71.13,-22.0
71.19,-4.0
71.25,-5.0
71.32,4.0
71.38,-4.0
71.44,-10.0
71.51,-1.0
71.57,6.0
71.63,18.0
71.69,15.0
71.76,-6.0
71.82,-1.0
71.88,0.0
71.95,-9.0
72.01,-9.0
72.07,-9.0
72.14,-14.0
72.2,11.0
72.26,-3.0
72.32,-14.0
72.39,-30.0
72.45,-16.0
72.51,-1.0
72.58,-1.0
72.64,6.0
72.7,-1.0
72.77,-2.0
72.83,6.0
72.89,0.0
72.95,16.0
73.02,9.0
73.08,-6.0
73.14,10.0
73.21,9.0
73.27,0.0
73.33,2.0
73.4,5.0
73.46,6.0
73.52,2.0
73.58,24.0
73.65,14.0
73.71,10.0
73.77,28.0
73.84,47.0
73.9,38.0
73.96,32.0
74.03,16.0
74.09,35.0
74.15,29.0
74.21,25.0
74.28,56.0
74.34,27.0
74.4,33.0
74.47,39.0
74.53,13.0
74.59,18.0
74.66,33.0
74.72,37.0
74.78,49.0
74.84,34.0
74.91,13.0
74.97,41.0
75.03,28.0
75.1,33.0
75.16,47.0
75.22,47.0
75.29,43.0
75.35,26.0
75.41,52.0
75.47,40.0
75.54,32.0
75.6,39.0
75.66,63.0
75.73,49.0
75.79,51.0
75.85,39.0
75.92,43.0
75.98,36.0
76.04,52.0
76.1,49.0
76.17,38.0
76.23,64.0
76.29,45.0
76.36,59.0
76.42,53.0
76.48,26.0
76.55,52.0
76.61,75.0
76.67,71.0
76.73,64.0
76.8,52.0
76.86,60.0
76.92,81.0
76.99,66.0
77.05,79.0
77.11,85.0
77.18,63.0
77.24,59.0
77.3,65.0
77.36,68.0
77.43,66.0
77.49,63.0
77.55,50.0
77.62,43.0
77.68,48.0
77.74,64.0
77.81,52.0
77.87,75.0
77.93,78.0
77.99,78.0
78.06,104.0
78.12,93.0
78.18,113.0
78.25,108.0
78.31,111.0
78.37,109.0
78.44,124.0
78.5,123.0
78.56,113.0
78.62,99.0
78.69,102.0
78.75,123.0
78.81,121.0
78.88,115.0
78.94,109.0
79.0,119.0
79.07,107.0
79.13,112.0
79.19,111.0
79.25,112.0
79.32,135.0
79.38,134.0
79.44,124.0
79.51,130.0
79.57,121.0
79.63,93.0
79.7,94.0
79.76,123.0
79.82,117.0
79.88,107.0
79.95,108.0
80.01,108.0
80.07,129.0
80.14,117.0
80.2,122.0
80.26,115.0
80.33,112.0
80.39,116.0
80.45,101.0
80.51,94.0
80.58,107.0
80.64,110.0
80.7,91.0
80.77,90.0
80.83,102.0
80.89,87.0
80.96,78.0
81.02,85.0
81.08,90.0
81.14,82.0
81.21,88.0
81.27,80.0
81.33,81.0
81.4,83.0
81.46,71.0
81.52,75.0
81.59,59.0
81.65,78.0
81.71,73.0
81.77,68.0
81.84,76.0
81.9,70.0
81.96,79.0
82.03,81.0
82.09,83.0
82.15,85.0
82.22,71.0
82.28,84.0
82.34,97.0
82.4,55.0
82.47,33.0
82.53,49.0
82.59,46.0
82.66,26.0
82.72,13.0
82.78,35.0
82.85,29.0
82.91,51.0
82.97,24.0
83.03,38.0
83.1,47.0
83.16,23.0
83.22,45.0
83.29,34.0
83.35,43.0
83.41,38.0
83.48,69.0
83.54,60.0
83.6,73.0
83.66,85.0
83.73,67.0
83.79,75.0
83.85,88.0
83.92,104.0
83.98,93.0
84.04,82.0
84.11,93.0
84.17,115.0
84.23,84.0
84.29,90.0
84.36,97.0
84.42,94.0
84.48,92.0
84.55,108.0
84.61,106.0
84.67,102.0
84.74,104.0
84.8,115.0
84.86,111.0
84.92,103.0
84.99,115.0
85.05,86.0
85.11,82.0
85.18,75.0
85.24,87.0
85.3,81.0
85.37,89.0
85.43,65.0
85.49,80.0
85.55,78.0
85.62,64.0
85.68,93.0
85.74,82.0
85.81,96.0
85.87,93.0
85.93,96.0
86.0,90.0
86.06,89.0
86.12,76.0
86.18,98.0
86.25,79.0
86.31,71.0
86.37,54.0
86.44,24.0
86.5,42.0
86.56,57.0
86.63,25.0
86.69,24.0
86.75,31.0
86.81,22.0
86.88,21.0
86.94,3.0
87.0,-7.0
87.07,10.0
87.13,11.0
87.19,34.0
87.26,25.0
87.32,-8.0
87.38,-11.0
87.44,-8.0
87.51,-4.0
87.57,-3.0
87.63,8.0
87.7,-10.0
87.76,-17.0
87.82,6.0
87.89,0.0
87.95,8.0
88.01,14.0
88.07,4.0
88.14,7.0
88.2,-1.0
88.26,9.0
88.33,20.0
88.39,2.0
88.45,-5.0
88.52,-5.0
88.58,-25.0
88.64,-9.0
88.7,8.0
88.77,-7.0
88.83,0.0
88.89,-7.0
88.96,6.0
89.02,-28.0
89.08,-41.0
89.15,-21.0
89.21,-27.0
89.27,-23.0
89.33,-33.0
89.4,-30.0
89.46,4.0
89.52,-4.0
89.59,-21.0
89.65,-50.0
89.71,-27.0
89.78,-16.0
89.84,-17.0
89.9,-27.0
89.96,-18.0
90.03,-39.0
90.09,-38.0
90.15,-58.0
90.22,-68.0
90.28,-53.0
90.34,-84.0
90.41,-70.0
90.47,-86.0
90.53,-81.0
90.59,-95.0
90.66,-101.0
90.72,-85.0
90.78,-105.0
90.85,-123.0
90.91,-120.0
90.97,-128.0
91.04,-132.0
91.1,-117.0
91.16,-101.0
91.22,-101.0
91.29,-112.0
91.35,-98.0
91.41,-103.0
91.48,-97.0
91.54,-95.0
91.6,-98.0
91.67,-93.0
91.73,-103.0
91.79,-109.0
91.85,-100.0
91.92,-97.0
91.98,-92.0
92.04,-90.0
92.11,-83.0
92.17,-74.0
92.23,-73.0
92.3,-74.0
92.36,-87.0
92.42,-74.0
92.48,-79.0
92.55,-68.0
92.61,-79.0
92.67,-73.0
92.74,-76.0
92.8,-69.0
92.86,-61.0
92.93,-67.0
92.99,-76.0
93.05,-47.0
93.11,-48.0
93.18,-46.0
93.24,-32.0
93.3,-27.0
93.37,-33.0
93.43,1.0
93.49,-7.0
93.56,3.0
93.62,6.0
93.68,11.0
93.74,2.0
93.81,-7.0
93.87,0.0
93.93,10.0
94.0,7.0
94.06,10.0
94.12,-8.0
94.19,-11.0
94.25,-12.0
94.31,-2.0
94.37,-2.0
94.44,-21.0
94.5,2.0
94.56,-5.0
94.63,-5.0
94.69,18.0
94.75,24.0
94.82,7.0
94.88,9.0
94.94,13.0
95.0,17.0
95.07,19.0
95.13,27.0
95.19,18.0
95.26,33.0
95.32,41.0
95.38,25.0
95.45,16.0
95.51,30.0
95.57,17.0
95.63,28.0
95.7,26.0
95.76,40.0
95.82,30.0
95.89,27.0
95.95,23.0
96.01,9.0
96.08,25.0
96.14,9.0
96.2,5.0
96.26,13.0
96.33,19.0
96.39,-1.0
96.45,27.0
96.52,36.0
96.58,25.0
96.64,36.0
96.71,28.0
96.77,30.0
96.83,32.0
96.89,49.0
96.96,39.0
97.02,44.0
97.08,50.0
97.15,61.0
97.21,62.0
97.27,44.0
97.34,51.0
97.4,48.0
97.46,43.0
97.52,39.0
97.59,50.0
97.65,49.0
97.71,42.0
97.78,30.0
97.84,48.0
97.9,46.0
97.97,43.0
98.03,46.0
98.09,45.0
98.15,34.0
98.22,35.0
98.28,33.0
98.34,28.0
98.41,36.0
98.47,22.0
98.53,38.0
98.6,21.0
98.66,32.0
98.72,12.0
98.78,9.0
98.85,16.0
98.91,1.0
98.97,2.0
99.04,-6.0
99.1,-27.0
99.16,-12.0
99.23,10.0
99.29,-2.0
99.35,16.0
99.41,15.0
99.48,-2.0
99.54,-18.0
99.6,-30.0
99.67,-9.0
99.73,-31.0
99.79,-20.0
99.86,-14.0
99.92,-34.0
99.98,-32.0
100.04,-24.0
100.11,-28.0
100.17,-33.0
100.23,-26.0
100.3,-18.0
100.36,-7.0
100.42,0.0
100.49,-19.0
100.55,-23.0
100.61,-10.0
100.67,-21.0
100.74,-21.0
100.8,-11.0
100.86,-18.0
100.93,1.0
100.99,13.0
101.05,-9.0
101.12,5.0
101.18,-18.0
101.24,-3.0
101.3,9.0
101.37,9.0
101.43,23.0
101.49,24.0
101.56,17.0
101.62,15.0
101.68,3.0
101.75,-4.0
101.81,-5.0
101.87,-7.0
101.93,10.0
102.0,12.0
102.06,10.0
102.12,13.0
102.19,15.0
102.25,18.0
102.31,21.0
102.38,31.0
102.44,56.0
102.5,13.0
102.56,33.0
102.63,20.0
102.69,-6.0
102.75,40.0
102.82,52.0
102.88,57.0
102.94,51.0
103.01,48.0
103.07,49.0
103.13,35.0
103.19,30.0
103.26,40.0
103.32,25.0
103.38,34.0
103.45,37.0
103.51,38.0
103.57,35.0
103.64,59.0
103.7,48.0
103.76,29.0
103.82,29.0
103.89,41.0
103.95,35.0
104.01,52.0
104.08,58.0
104.14,40.0
104.2,37.0
104.27,56.0
104.33,63.0
104.39,41.0
104.45,39.0
104.52,55.0
104.58,48.0
104.64,49.0
104.71,33.0
104.77,45.0
104.83,34.0
104.9,41.0
104.96,33.0
105.02,34.0
105.08,22.0
105.15,37.0
105.21,48.0
105.27,39.0
105.34,26.0
105.4,4.0
105.46,21.0
105.53,14.0
105.59,29.0
105.65,27.0
105.71,-8.0
105.78,-4.0
105.84,1.0
105.9,-8.0
105.97,-17.0
106.03,-16.0
106.09,-7.0
106.16,-27.0
106.22,-11.0
106.28,-21.0
106.34,-14.0
106.41,-6.0
106.47,-7.0
106.53,-4.0
106.6,-20.0
106.66,-28.0
106.72,-28.0
106.79,-18.0
106.85,-12.0
106.91,-20.0
106.97,2.0
107.04,12.0
107.1,-10.0
107.16,-1.0
107.23,-9.0
107.29,-1.0
107.35,0.0
107.42,-10.0
107.48,8.0
107.54,7.0
107.6,-1.0
107.67,2.0
107.73,3.0
107.79,22.0
107.86,5.0
107.92,-11.0
107.98,0.0
108.05,-6.0
108.11,-6.0
108.17,-15.0
108.23,-10.0
108.3,-13.0
108.36,-11.0
108.42,-2.0
108.49,-18.0
108.55,7.0
108.61,-4.0
108.68,3.0
108.74,10.0
108.8,-6.0
108.86,17.0
108.93,8.0
108.99,-5.0
109.05,5.0
109.12,9.0
109.18,-6.0
109.24,17.0
109.31,8.0
109.37,16.0
109.43,25.0
109.49,29.0
109.56,32.0
109.62,47.0
109.68,42.0
109.75,30.0
109.81,48.0
109.87,47.0
109.94,60.0
110.0,60.0
110.06,75.0
110.12,97.0
110.19,89.0
110.25,64.0
110.31,76.0
110.38,45.0
110.44,64.0
110.5,81.0
110.57,74.0
110.63,73.0
110.69,83.0
110.75,83.0
110.82,102.0
110.88,115.0
110.94,83.0
111.01,96.0
111.07,100.0
111.13,111.0
111.2,107.0
111.26,106.0
111.32,113.0
111.38,78.0
111.45,100.0
111.51,127.0
111.57,107.0
111.64,99.0
111.7,102.0
111.76,114.0
111.83,111.0
111.89,115.0
111.95,117.0
112.01,127.0
112.08,120.0
112.14,114.0
112.2,100.0
112.27,100.0
112.33,112.0
112.39,111.0
112.46,123.0
112.52,122.0
112.58,110.0
112.64,121.0
112.71,127.0
112.77,118.0
112.83,125.0
112.9,140.0
112.96,120.0
113.02,120.0
113.09,92.0
113.15,98.0
113.21,91.0
113.27,83.0
113.34,50.0
113.4,67.0
113.46,60.0
113.53,52.0
113.59,64.0
113.65,48.0
113.72,59.0
113.78,36.0
113.84,32.0
113.9,12.0
113.97,7.0
114.03,26.0
114.09,31.0
114.16,27.0
114.22,26.0
114.28,26.0
114.35,19.0
114.41,5.0
114.47,14.0
114.53,6.0
114.6,2.0
114.66,-8.0
114.72,-5.0
114.79,-6.0
114.85,-9.0
114.91,6.0
114.98,-7.0
115.04,-26.0
115.1,-14.0
115.16,2.0
115.23,-4.0
115.29,-12.0
115.35,-7.0
115.42,-20.0
115.48,-18.0
115.54,-33.0
115.61,-35.0
115.67,-39.0
115.73,-33.0
115.79,-48.0
115.86,-61.0
115.92,-46.0
115.98,-57.0
116.05,-42.0
116.11,-39.0
116.17,-43.0
116.24,-58.0
116.3,-52.0
116.36,-49.0
116.42,-72.0
116.49,-67.0
116.55,-51.0
116.61,-59.0
116.68,-62.0
116.74,-50.0
116.8,-52.0
116.87,-59.0
116.93,-58.0
116.99,-71.0
117.05,-69.0
117.12,-53.0
117.18,-52.0
117.24,-45.0
117.31,-34.0
117.37,-25.0
117.43,-17.0
117.5,-17.0
117.56,-21.0
117.62,-19.0
117.68,7.0
117.75,-4.0
117.81,-1.0
117.87,-1.0
117.94,24.0
118.0,23.0
118.06,40.0
118.13,27.0
118.19,21.0
118.25,35.0
118.31,21.0
118.38,46.0
118.44,39.0
118.5,53.0
118.57,53.0
118.63,52.0
118.69,82.0
118.76,68.0
118.82,79.0
118.88,103.0
118.94,83.0
119.01,68.0
119.07,94.0
119.13,86.0
119.2,95.0
119.26,87.0
119.32,76.0
119.39,100.0
119.45,94.0
119.51,90.0
119.57,109.0
119.64,109.0
119.7,143.0
119.76,126.0
119.83,119.0
119.89,117.0
119.95,109.0
120.02,109.0
120.08,108.0
120.14,125.0
120.2,129.0
120.27,118.0
120.33,111.0
120.39,116.0
120.46,103.0
120.52,89.0
120.58,73.0
120.65,84.0
120.71,108.0
120.77,118.0
120.83,106.0
120.9,89.0
120.96,68.0
121.02,100.0
121.09,78.0
121.15,82.0
121.21,82.0
121.28,97.0
121.34,111.0
121.4,78.0
121.46,86.0
121.53,97.0
121.59,93.0
121.65,100.0
121.72,94.0
121.78,97.0
121.84,75.0
121.91,29.0
121.97,57.0
122.03,63.0
122.09,82.0
122.16,74.0
122.22,76.0
122.28,65.0
122.35,56.0
122.41,63.0
122.47,66.0
122.54,62.0
122.6,54.0
122.66,48.0
122.72,57.0
122.79,56.0
122.85,57.0
122.91,71.0
122.98,61.0
123.04,37.0
123.1,32.0
123.17,63.0
123.23,37.0
123.29,36.0
123.35,27.0
123.42,34.0
123.48,33.0
123.54,12.0
123.61,16.0
123.67,3.0
123.73,20.0
123.8,12.0
123.86,12.0
123.92,12.0
123.98,16.0
124.05,10.0
124.11,19.0
124.17,5.0
124.24,10.0
124.3,7.0
124.36,26.0
124.43,50.0
124.49,41.0
124.55,43.0
124.61,40.0
124.68,30.0
124.74,17.0
124.8,30.0
124.87,40.0
124.93,32.0
124.99,59.0
125.06,60.0
125.12,36.0
125.18,46.0
125.24,53.0
125.31,19.0
125.37,42.0
125.43,59.0
125.5,57.0
125.56,39.0
125.62,27.0
125.69,39.0
125.75,59.0
125.81,65.0
125.87,82.0
125.94,75.0
126.0,57.0
126.06,68.0
126.13,85.0
126.19,96.0
126.25,91.0
126.32,111.0
126.38,118.0
126.44,125.0
126.5,107.0
126.57,114.0
126.63,114.0
126.69,90.0
126.76,107.0
126.82,123.0
126.88,121.0
126.95,125.0
127.01,126.0
127.07,118.0
127.13,141.0
127.2,144.0
127.26,142.0
127.32,125.0
127.39,145.0
127.45,158.0
127.51,160.0
127.58,140.0
127.64,150.0
127.7,148.0
127.76,140.0
127.83,161.0
127.89,161.0
127.95,156.0
128.02,167.0
128.08,177.0
128.14,190.0
128.21,174.0
128.27,174.0
128.33,174.0
128.39,167.0
128.46,177.0
128.52,196.0
128.58,211.0
128.65,207.0
128.71,198.0
128.77,207.0
128.84,209.0
128.9,173.0
128.96,160.0
129.02,178.0
129.09,178.0
129.15,166.0
129.21,168.0
129.28,151.0
129.34,145.0
129.4,139.0
129.47,121.0
129.53,150.0
129.59,143.0
129.65,142.0
129.72,134.0
129.78,161.0
129.84,147.0
129.91,147.0
129.97,131.0
130.03,149.0
130.1,151.0
130.16,136.0
130.22,142.0
130.28,132.0
130.35,141.0
130.41,137.0
130.47,140.0
130.54,134.0
130.6,120.0
130.66,117.0
130.73,108.0
130.79,97.0
130.85,98.0
130.91,108.0
130.98,126.0
131.04,116.0
131.1,98.0
131.17,93.0
131.23,99.0
131.29,77.0
131.36,82.0
131.42,71.0
131.48,50.0
131.54,39.0
131.61,37.0
131.67,58.0
131.73,38.0
131.8,41.0
131.86,31.0
131.92,32.0
131.99,37.0
132.05,37.0
132.11,60.0
132.17,49.0
132.24,57.0
132.3,36.0
132.36,30.0
132.43,43.0
132.49,56.0
132.55,29.0
132.62,37.0
132.68,38.0
132.74,36.0
132.8,56.0
132.87,43.0
132.93,26.0
132.99,14.0
133.06,26.0
133.12,15.0
133.18,20.0
133.25,20.0
133.31,42.0
133.37,41.0
133.43,45.0
133.5,60.0
133.56,52.0
133.62,72.0
133.69,71.0
133.75,78.0
133.81,54.0
133.88,55.0
133.94,64.0
134.0,71.0
134.06,69.0
134.13,70.0
134.19,100.0
134.25,89.0
134.32,80.0
134.38,86.0
134.44,81.0
134.51,84.0
134.57,98.0
134.63,78.0
134.69,99.0
134.76,104.0
134.82,109.0
134.88,111.0
134.95,136.0
135.01,130.0
135.07,144.0
135.14,122.0
135.2,122.0
135.26,120.0
135.32,144.0
135.39,129.0
135.45,140.0
135.51,137.0
135.58,133.0
135.64,148.0
135.7,155.0
135.77,142.0
135.83,148.0
135.89,153.0
135.95,154.0
136.02,155.0
136.08,142.0
136.14,137.0
136.21,155.0
136.27,168.0
136.33,150.0
136.4,142.0
136.46,150.0
136.52,157.0
136.58,157.0
136.65,145.0
136.71,131.0
136.77,144.0
136.84,138.0
136.9,121.0
136.96,137.0
137.03,135.0
137.09,152.0
137.15,140.0
137.21,127.0
137.28,144.0
137.34,142.0
137.4,148.0
137.47,147.0
137.53,130.0
137.59,128.0
137.66,128.0
137.72,126.0
137.78,106.0
137.84,121.0
137.91,122.0
137.97,106.0
138.03,101.0
138.1,102.0
138.16,92.0
138.22,122.0
138.29,84.0
138.35,98.0
138.41,123.0
138.47,103.0
138.54,129.0
138.6,100.0
138.66,93.0
138.73,89.0
138.79,93.0
138.85,106.0
138.92,104.0
138.98,103.0
139.04,93.0
139.1,108.0
139.17,91.0
139.23,65.0
139.29,65.0
139.36,57.0
139.42,64.0
139.48,45.0
139.55,41.0
139.61,48.0
139.67,37.0
139.73,56.0
139.8,43.0
139.86,41.0
139.92,30.0
139.99,28.0
140.05,34.0
140.11,59.0
140.18,32.0
140.24,37.0
140.3,43.0
140.36,37.0
140.43,26.0
140.49,27.0
140.55,2.0
140.62,2.0
140.68,20.0
140.74,1.0
140.81,-9.0
140.87,2.0
140.93,-3.0
140.99,-25.0
141.06,-1.0
141.12,2.0
141.18,-2.0
141.25,5.0
141.31,8.0
141.37,-5.0
141.44,-13.0
141.5,-5.0
141.56,-15.0
141.62,-29.0
141.69,-7.0
141.75,-4.0
141.81,5.0
141.88,0.0
141.94,4.0
142.0,17.0
142.07,-1.0
142.13,10.0
142.19,15.0
142.25,9.0
142.32,0.0
142.38,3.0
142.44,32.0
142.51,23.0
142.57,18.0
142.63,18.0
142.7,24.0
142.76,8.0
142.82,26.0
142.88,10.0
142.95,12.0
143.01,10.0
143.07,25.0
143.14,22.0
143.2,43.0
143.26,45.0
143.33,46.0
143.39,72.0
143.45,62.0
143.51,51.0
143.58,59.0
143.64,56.0
143.7,60.0
143.77,51.0
143.83,37.0
143.89,31.0
143.96,36.0
144.02,40.0
144.08,53.0
144.14,52.0
144.21,48.0
144.27,51.0
144.33,61.0
144.4,60.0
144.46,60.0
144.52,46.0
144.59,69.0
144.65,71.0
144.71,77.0
144.77,92.0
144.84,86.0
144.9,89.0
144.96,76.0
145.03,84.0
145.09,84.0
145.15,88.0
145.22,71.0
145.28,75.0
145.34,77.0
145.4,85.0
145.47,92.0
145.53,78.0
145.59,81.0
145.66,94.0
145.72,110.0
145.78,132.0
145.85,110.0
145.91,88.0
145.97,87.0
146.03,99.0
146.1,99.0
146.16,106.0
146.22,103.0
146.29,117.0
146.35,106.0
146.41,95.0
146.47,92.0
146.54,74.0
146.6,66.0
146.66,54.0
146.73,65.0
146.79,80.0
146.85,70.0
146.92,62.0
146.98,43.0
147.04,59.0
147.1,55.0
147.17,54.0
147.23,43.0
147.29,42.0
147.36,38.0
147.42,33.0
147.48,39.0
147.55,46.0
147.61,46.0
147.67,30.0
147.73,29.0
147.8,36.0
147.86,27.0
147.92,22.0
147.99,-10.0
148.05,-1.0
148.11,0.0
148.18,-8.0
148.24,-8.0
148.3,-35.0
148.36,-25.0
148.43,-20.0
148.49,-29.0
148.55,-29.0
148.62,-20.0
148.68,-34.0
148.74,-38.0
148.81,-24.0
148.87,-33.0
148.93,-30.0
148.99,-61.0
149.06,-35.0
149.12,-38.0
149.18,-53.0
149.25,-58.0
149.31,-20.0
149.37,-40.0
149.44,-37.0
149.5,-31.0
149.56,-51.0
149.62,-41.0
149.69,-52.0
149.75,-33.0
149.81,-37.0
149.88,-30.0
149.94,-20.0
150.0,-46.0
150.07,-34.0
150.13,-32.0
150.19,-39.0
150.25,-35.0
150.32,-35.0
150.38,-44.0
150.44,-18.0
150.51,-24.0
150.57,-9.0
150.63,-14.0
150.7,-17.0
150.76,13.0
150.82,10.0
150.88,13.0
150.95,30.0
151.01,38.0
151.07,57.0
151.14,31.0
151.2,16.0
151.26,27.0
151.33,56.0
151.39,41.0
151.45,49.0
151.51,52.0
151.58,41.0
151.64,53.0
151.7,41.0
151.77,52.0
151.83,54.0
151.89,63.0
151.96,61.0
152.02,59.0
152.08,71.0
152.14,72.0
152.21,82.0
152.27,78.0
152.33,84.0
152.4,94.0
152.46,103.0
152.52,98.0
152.59,109.0
152.65,101.0
152.71,121.0
152.77,125.0
152.84,134.0
152.9,126.0
152.96,130.0
153.03,110.0
153.09,111.0
153.15,126.0
153.22,135.0
153.28,125.0
153.34,135.0
153.4,132.0
153.47,123.0
153.53,133.0
153.59,125.0
153.66,118.0
153.72,109.0
153.78,107.0
153.85,101.0
153.91,96.0
153.97,85.0
154.03,78.0
154.1,89.0
154.16,90.0
154.22,87.0
154.29,87.0
154.35,92.0
154.41,99.0
154.48,78.0
154.54,73.0
154.6,81.0
154.66,59.0
154.73,68.0
154.79,87.0
154.85,76.0
154.92,84.0
154.98,76.0
155.04,81.0
155.11,73.0
155.17,88.0
155.23,102.0
155.29,84.0
155.36,64.0
155.42,69.0
155.48,62.0
155.55,72.0
155.61,53.0
155.67,64.0
155.74,54.0
155.8,66.0
155.86,53.0
155.92,49.0
155.99,41.0
156.05,28.0
156.11,36.0
156.18,42.0
156.24,41.0
156.3,26.0
156.37,54.0
156.43,44.0
156.49,63.0
156.55,81.0
156.62,62.0
156.68,81.0
156.74,51.0
156.81,49.0
156.87,76.0
156.93,66.0
157.0,75.0
157.06,73.0
157.12,66.0
157.18,79.0
157.25,62.0
157.31,97.0
157.37,93.0
157.44,96.0
157.5,79.0
157.56,79.0
157.63,96.0
157.69,88.0
157.75,96.0
157.81,96.0
157.88,93.0
157.94,103.0
158.0,114.0
158.07,106.0
158.13,113.0
158.19,107.0
158.26,95.0
158.32,107.0
158.38,106.0
158.44,101.0
158.51,101.0
158.57,100.0
158.63,139.0
158.7,137.0
158.76,129.0
158.82,145.0
158.89,147.0
158.95,139.0
159.01,134.0
159.07,142.0
159.14,131.0
159.2,127.0
159.26,120.0
159.33,151.0
159.39,156.0
159.45,148.0
159.52,170.0
159.58,151.0
159.64,158.0
159.7,148.0
159.77,152.0
159.83,152.0
159.89,158.0
159.96,167.0
160.02,163.0
160.08,163.0
160.15,173.0
160.21,187.0
160.27,162.0
160.33,169.0
160.4,178.0
160.46,176.0
160.52,183.0
160.59,195.0
160.65,193.0
160.71,186.0
160.78,186.0
160.84,180.0
160.9,182.0
160.96,204.0
161.03,205.0
161.09,206.0
161.15,226.0
161.22,210.0
161.28,206.0
161.34,208.0
161.41,218.0
161.47,195.0
161.53,189.0
161.59,181.0
161.66,197.0
161.72,195.0
161.78,203.0
161.85,208.0
161.91,182.0
161.97,178.0
162.04,211.0
162.1,207.0
162.16,192.0
162.22,199.0
162.29,219.0
162.35,205.0
162.41,176.0
162.48,198.0
162.54,190.0
162.6,181.0
162.67,176.0
162.73,183.0
162.79,185.0
162.85,167.0
162.92,182.0
162.98,211.0
163.04,184.0
163.11,158.0
163.17,158.0
163.23,157.0
163.3,165.0
163.36,153.0
163.42,151.0
163.48,155.0
163.55,124.0
163.61,123.0
163.67,128.0
163.74,134.0
163.8,144.0
163.86,139.0
163.93,128.0
163.99,122.0
164.05,107.0
164.11,115.0
164.18,111.0
164.24,114.0
164.3,112.0
164.37,122.0
164.43,108.0
164.49,107.0
164.56,110.0
164.62,107.0
164.68,97.0
164.74,102.0
164.81,94.0
164.87,85.0
164.93,74.0
165.0,72.0
165.06,65.0
165.12,68.0
165.19,71.0
165.25,57.0
165.31,62.0
165.37,66.0
165.44,71.0
165.5,54.0
165.56,71.0
165.63,57.0
165.69,42.0
165.75,49.0
165.82,56.0
165.88,53.0
165.94,34.0
166.0,43.0
166.07,46.0
166.13,59.0
166.19,46.0
166.26,63.0
166.32,38.0
166.38,48.0
166.45,68.0
166.51,52.0
166.57,55.0
166.63,70.0
166.7,63.0
166.76,63.0
166.82,74.0
166.89,67.0
166.95,46.0
167.01,33.0
167.08,48.0
167.14,23.0
167.2,40.0
167.26,46.0
167.33,27.0
167.39,35.0
167.45,50.0
167.52,19.0
167.58,33.0
167.64,49.0
167.71,51.0
167.77,58.0
167.83,51.0
167.89,63.0
167.96,55.0
168.02,60.0
168.08,63.0
168.15,62.0
168.21,60.0
168.27,71.0
168.34,73.0
168.4,54.0
168.46,45.0
168.52,48.0
168.59,62.0
168.65,53.0
168.71,78.0
168.78,69.0
168.84,80.0
168.9,80.0
168.97,81.0
169.03,83.0
169.09,91.0
169.15,96.0
169.22,84.0
169.28,88.0
169.34,90.0
169.41,85.0
169.47,82.0
169.53,81.0
169.6,101.0
169.66,87.0
169.72,86.0
169.78,75.0
169.85,90.0
169.91,86.0
169.97,95.0
170.04,81.0
170.1,79.0
170.16,84.0
170.23,96.0
170.29,77.0
170.35,98.0
170.41,115.0
170.48,102.0
170.54,97.0
170.6,84.0
170.67,98.0
170.73,100.0
170.79,90.0
170.86,77.0
170.92,79.0
170.98,70.0
171.04,61.0
171.11,79.0
171.17,79.0
171.23,62.0
171.3,74.0
171.36,84.0
171.42,56.0
171.49,68.0
171.55,62.0
171.61,74.0
171.67,61.0
171.74,35.0
171.8,35.0
171.86,40.0
171.93,27.0
171.99,34.0
172.05,42.0
172.12,28.0
172.18,23.0
172.24,31.0
172.3,37.0
172.37,40.0
172.43,27.0
172.49,13.0
172.56,36.0
172.62,55.0
172.68,41.0
172.75,18.0
172.81,33.0
172.87,16.0
172.93,18.0
173.0,-4.0
173.06,12.0
173.12,14.0
173.19,0.0
173.25,-3.0
173.31,-13.0
173.38,-10.0
173.44,1.0
173.5,-11.0
173.56,-2.0
173.63,4.0
173.69,4.0
173.75,-4.0
173.82,11.0
173.88,-11.0
173.94,-8.0
174.01,10.0
174.07,-4.0
174.13,-6.0
174.19,-1.0
174.26,-26.0
174.32,-8.0
174.38,0.0
174.45,6.0
174.51,-4.0
174.57,-6.0
174.64,-7.0
174.7,-8.0
174.76,-8.0
174.82,-12.0
174.89,-20.0
174.95,-8.0
175.01,-14.0
175.08,-7.0
175.14,-6.0
175.2,-2.0
175.27,-1.0
175.33,-12.0
175.39,7.0
175.45,-14.0
175.52,-10.0
175.58,-2.0
175.64,-3.0
175.71,0.0
175.77,-15.0
175.83,-13.0
175.9,13.0
175.96,5.0
176.02,0.0
176.08,-6.0
176.15,10.0
176.21,21.0
176.27,9.0
176.34,12.0
176.4,0.0
176.46,21.0
176.53,5.0
176.59,-9.0
176.65,16.0
176.71,-4.0
176.78,-3.0
176.84,0.0
176.9,6.0
176.97,14.0
177.03,17.0
177.09,3.0
177.16,-14.0
177.22,14.0
177.28,-7.0
177.34,0.0
177.41,26.0
177.47,6.0
177.53,31.0
177.6,30.0
177.66,24.0
177.72,22.0
177.79,15.0
177.85,42.0
177.91,31.0
177.97,28.0
178.04,24.0
178.1,23.0
178.16,21.0
178.23,43.0
178.29,40.0
178.35,30.0
178.42,19.0
178.48,28.0
178.54,31.0
178.6,14.0
178.67,7.0
178.73,10.0
178.79,20.0
178.86,35.0
178.92,17.0
178.98,12.0
179.05,11.0
179.11,6.0
179.17,11.0
179.23,23.0
179.3,30.0
179.36,31.0
179.42,21.0
179.49,31.0
179.55,17.0
179.61,9.0
179.68,20.0
179.74,0.0
179.8,3.0
179.86,14.0
179.93,13.0
179.99,25.0
180.05,20.0
180.12,33.0
180.18,23.0
180.24,26.0
180.31,8.0
180.37,0.0
180.43,-8.0
180.49,-21.0
180.56,-15.0
180.62,6.0
180.68,-3.0
180.75,13.0
180.81,12.0
180.87,24.0
180.94,63.0
181.0,39.0
181.06,49.0
181.12,48.0
181.19,43.0
181.25,60.0
181.31,43.0
181.38,56.0
181.44,53.0
181.5,40.0
181.57,34.0
181.63,13.0
181.69,19.0
181.75,11.0
181.82,1.0
181.88,5.0
181.94,22.0
182.01,26.0
182.07,5.0
182.13,14.0
182.2,23.0
182.26,2.0
182.32,5.0
182.38,-7.0
182.45,-7.0
182.51,-4.0
182.57,7.0
182.64,13.0
182.7,19.0
182.76,41.0
182.83,24.0
182.89,34.0
182.95,32.0
183.01,35.0
183.08,46.0
183.14,61.0
183.2,54.0
183.27,40.0
183.33,51.0
183.39,24.0
183.46,40.0
183.52,35.0
183.58,54.0
183.64,45.0
183.71,55.0
183.77,53.0
183.83,33.0
183.9,49.0
183.96,60.0
184.02,61.0
184.09,80.0
184.15,63.0
184.21,48.0
184.27,71.0
184.34,74.0
184.4,82.0
184.46,97.0
184.53,112.0
184.59,93.0
184.65,100.0
184.72,100.0
184.78,103.0
184.84,83.0
184.9,110.0
184.97,112.0
185.03,116.0
185.09,133.0
185.16,120.0
185.22,124.0
185.28,125.0
185.35,133.0
185.41,143.0
185.47,132.0
185.53,156.0
185.6,146.0
185.66,133.0
185.72,159.0
185.79,164.0
185.85,157.0
185.91,163.0
185.98,178.0
186.04,186.0
186.1,171.0
186.16,168.0
186.23,175.0
186.29,158.0
186.35,152.0
186.42,152.0
186.48,159.0
186.54,140.0
186.61,151.0
186.67,174.0
186.73,179.0
186.79,161.0
186.86,172.0
186.92,189.0
186.98,173.0
187.05,195.0
187.11,186.0
187.17,184.0
187.24,181.0
187.3,182.0
187.36,186.0
187.42,173.0
187.49,172.0
187.55,172.0
187.61,151.0
187.68,154.0
187.74,182.0
187.8,153.0
187.87,175.0
187.93,148.0
187.99,155.0
188.05,138.0
188.12,159.0
188.18,149.0
188.24,145.0
188.31,165.0
188.37,183.0
188.43,182.0
188.5,170.0
188.56,165.0
188.62,162.0
188.68,189.0
188.75,171.0
188.81,154.0
188.87,162.0
188.94,154.0
189.0,147.0
189.06,153.0
189.13,160.0
189.19,155.0
189.25,131.0
189.31,138.0
189.38,134.0
189.44,126.0
189.5,137.0
189.57,151.0
189.63,142.0
189.69,134.0
189.76,133.0
189.82,115.0
189.88,120.0
189.94,133.0
190.01,118.0
190.07,93.0
190.13,101.0
190.2,83.0
190.26,84.0
190.32,91.0
190.39,100.0
190.45,105.0
190.51,89.0
190.57,83.0
190.64,86.0
190.7,83.0
190.76,93.0
190.83,85.0
190.89,69.0
190.95,65.0
191.02,75.0
191.08,58.0
191.14,69.0
191.2,65.0
191.27,52.0
191.33,44.0
191.39,30.0
191.46,28.0
191.52,36.0
191.58,44.0
191.65,47.0
191.71,27.0
191.77,10.0
191.83,16.0
191.9,31.0
191.96,36.0
192.02,33.0
192.09,24.0
192.15,10.0
192.21,19.0
192.28,19.0
192.34,27.0
192.4,42.0
192.46,40.0
192.53,22.0
192.59,19.0
192.65,26.0
192.72,18.0
192.78,5.0
192.84,13.0
192.91,30.0
192.97,16.0
193.03,26.0
193.09,9.0
193.16,6.0
193.22,-1.0
193.28,22.0
193.35,23.0
193.41,23.0
193.47,29.0
193.54,22.0
193.6,15.0
193.66,42.0
193.72,55.0
193.79,45.0
193.85,44.0
193.91,50.0
193.98,46.0
194.04,69.0
194.1,75.0
194.17,58.0
194.23,86.0
194.29,78.0
194.35,80.0
194.42,91.0
194.48,88.0
194.54,89.0
194.61,89.0
194.67,86.0
194.73,93.0
194.8,104.0
194.86,89.0
194.92,90.0
194.98,105.0
195.05,104.0
195.11,91.0
195.17,118.0
195.24,97.0
195.3,87.0
195.36,98.0
195.43,118.0
195.49,99.0
195.55,89.0
195.61,111.0
195.68,107.0
195.74,124.0
195.8,124.0
195.87,121.0
195.93,127.0
195.99,112.0
196.06,110.0
196.12,93.0
196.18,104.0
196.24,108.0
196.31,94.0
196.37,73.0
196.43,110.0
196.5,124.0
196.56,102.0
196.62,133.0
196.69,136.0
196.75,141.0
196.81,141.0
196.87,123.0
196.94,129.0
197.0,127.0
197.06,146.0
197.13,140.0
197.19,148.0
197.25,143.0
197.32,116.0
197.38,140.0
197.44,130.0
197.5,117.0
197.57,119.0
197.63,130.0
197.69,139.0
197.76,129.0
197.82,138.0
197.88,149.0
197.95,149.0
198.01,144.0
198.07,116.0
198.13,122.0
198.2,105.0
198.26,93.0
198.32,107.0
198.39,107.0
198.45,102.0
198.51,105.0
198.58,97.0
198.64,82.0
198.7,55.0
198.76,86.0
198.83,86.0
198.89,64.0
198.95,93.0
199.02,92.0
199.08,86.0
199.14,77.0
199.21,60.0
199.27,58.0
199.33,70.0
199.39,63.0
199.46,42.0
199.52,60.0
199.58,56.0
199.65,55.0
199.71,52.0
199.77,53.0
199.84,75.0
199.9,69.0
199.96,81.0
200.02,61.0
200.09,52.0
200.15,58.0
200.21,50.0
200.28,35.0
200.34,49.0
200.4,38.0
200.47,41.0
200.53,20.0
200.59,36.0
200.65,42.0
200.72,42.0
200.78,50.0
200.84,60.0
200.91,73.0
200.97,58.0
201.03,56.0
201.1,72.0
201.16,75.0
201.22,79.0
201.28,75.0
201.35,82.0
201.41,92.0
201.47,93.0
201.54,82.0
201.6,75.0
201.66,62.0
201.73,64.0
201.79,55.0
201.85,57.0
201.91,38.0
201.98,53.0
202.04,63.0
202.1,79.0
202.17,44.0
202.23,47.0
202.29,61.0
202.36,58.0
202.42,56.0
202.48,54.0
202.54,39.0
202.61,31.0
202.67,52.0
202.73,56.0
202.8,64.0
202.86,74.0
202.92,63.0
202.99,49.0
203.05,74.0
203.11,80.0
203.17,76.0
203.24,64.0
203.3,74.0
203.36,74.0
203.43,62.0
203.49,83.0
203.55,71.0
203.62,86.0
203.68,85.0
203.74,85.0
203.8,85.0
203.87,91.0
203.93,78.0
203.99,93.0
204.06,86.0
204.12,90.0
204.18,93.0
204.25,92.0
204.31,93.0
204.37,91.0
204.43,115.0
204.5,91.0
204.56,95.0
204.62,100.0
204.69,107.0
204.75,92.0
204.81,80.0
204.88,103.0
204.94,96.0
205.0,79.0
205.06,93.0
205.13,104.0
205.19,85.0
205.25,93.0
205.32,95.0
205.38,97.0
205.44,75.0
205.51,90.0
205.57,112.0
205.63,111.0
205.69,102.0
205.76,89.0
205.82,86.0
205.88,115.0
205.95,104.0
206.01,94.0
206.07,77.0
206.14,77.0
206.2,86.0
206.26,60.0
206.32,62.0
206.39,60.0
206.45,62.0
206.51,86.0
206.58,85.0
206.64,82.0
206.7,77.0
206.77,89.0
206.83,73.0
206.89,86.0
206.95,101.0
207.02,106.0
207.08,111.0
207.14,80.0
207.21,91.0
207.27,95.0
207.33,102.0
207.4,105.0
207.46,111.0
207.52,111.0
207.58,126.0
207.65,130.0
207.71,113.0
207.77,91.0
207.84,66.0
207.9,103.0
207.96,104.0
208.03,94.0
208.09,86.0
208.15,77.0
208.21,78.0
208.28,75.0
208.34,56.0
208.4,56.0
208.47,67.0
208.53,69.0
208.59,70.0
208.66,62.0
208.72,65.0
208.78,70.0
208.84,90.0
208.91,94.0
208.97,93.0
209.03,92.0
209.1,88.0
209.16,81.0
209.22,83.0
209.29,91.0
209.35,94.0
209.41,125.0
209.47,115.0
209.54,110.0
209.6,119.0
209.66,128.0
209.73,133.0
209.79,129.0
209.85,136.0
209.92,134.0
209.98,124.0
210.04,143.0
210.1,148.0
210.17,155.0
210.23,131.0
210.29,133.0
210.36,138.0
210.42,115.0
210.48,144.0
210.55,141.0
210.61,152.0
210.67,148.0
210.73,148.0
210.8,152.0
210.86,169.0
210.92,154.0
210.99,155.0
211.05,177.0
211.11,160.0
211.18,163.0
211.24,183.0
211.3,189.0
211.36,187.0
211.43,188.0
211.49,212.0
211.55,204.0
211.62,188.0
211.68,205.0
211.74,212.0
211.81,196.0
211.87,188.0
211.93,211.0
211.99,215.0
212.06,207.0
212.12,225.0
212.18,215.0
212.25,236.0
212.31,235.0
212.37,216.0
212.44,218.0
212.5,201.0
212.56,195.0
212.62,209.0
212.69,207.0
212.75,190.0
212.81,202.0
212.88,210.0
212.94,199.0
213.0,201.0
213.07,188.0
213.13,199.0
213.19,227.0
213.25,227.0
213.32,220.0
213.38,224.0
213.44,234.0
213.51,240.0
213.57,218.0
213.63,229.0
213.7,220.0
213.76,212.0
213.82,222.0
213.88,201.0
213.95,200.0
214.01,205.0
214.07,184.0
214.14,182.0
214.2,182.0
214.26,156.0
214.33,173.0
214.39,187.0
214.45,200.0
214.51,180.0
214.58,168.0
214.64,174.0
214.7,190.0
214.77,174.0
214.83,183.0
214.89,197.0
214.96,179.0
215.02,189.0
215.08,194.0
215.14,195.0
215.21,184.0
215.27,175.0
215.33,201.0
215.4,192.0
215.46,176.0
215.52,159.0
215.59,173.0
215.65,165.0
215.71,176.0
215.77,179.0
215.84,178.0
215.9,158.0
215.96,162.0
216.03,164.0
216.09,151.0
216.15,134.0
216.22,154.0
216.28,149.0
216.34,145.0
216.4,135.0
216.47,142.0
216.53,159.0
216.59,133.0
216.66,141.0
216.72,130.0
216.78,123.0
216.85,129.0
216.91,122.0
216.97,124.0
217.03,122.0
217.1,115.0
217.16,105.0
217.22,119.0
217.29,92.0
217.35,86.0
217.41,107.0
217.48,100.0
217.54,85.0
217.6,100.0
217.66,115.0
217.73,89.0
217.79,106.0
217.85,127.0
217.92,125.0
217.98,118.0
218.04,117.0
218.11,129.0
218.17,111.0
218.23,105.0
218.29,113.0
218.36,122.0
218.42,121.0
218.48,149.0
218.55,167.0
218.61,156.0
218.67,144.0
218.74,149.0
218.8,163.0
218.86,140.0
218.92,134.0
218.99,135.0
219.05,141.0
219.11,153.0
219.18,157.0
219.24,152.0
219.3,165.0
219.37,158.0
219.43,171.0
219.49,154.0
219.55,161.0
219.62,177.0
219.68,176.0
219.74,183.0
219.81,170.0
219.87,178.0
219.93,180.0
220.0,159.0
220.06,168.0
220.12,181.0
220.18,200.0
220.25,203.0
220.31,217.0
220.37,207.0
220.44,212.0
220.5,193.0
220.56,202.0
220.63,217.0
220.69,200.0
220.75,199.0
220.81,188.0
220.88,191.0
220.94,179.0
221.0,185.0
221.07,199.0
221.13,179.0
221.19,182.0
221.26,170.0
221.32,157.0
221.38,177.0
221.44,160.0
221.51,143.0
221.57,137.0
221.63,147.0
221.7,139.0
221.76,126.0
221.82,139.0
221.89,146.0
221.95,157.0
222.01,187.0
222.07,171.0
222.14,163.0
222.2,147.0
222.26,143.0
222.33,135.0
222.39,145.0
222.45,130.0
222.52,147.0
222.58,141.0
222.64,135.0
222.7,137.0
222.77,135.0
222.83,140.0
222.89,141.0
222.96,121.0
223.02,115.0
223.08,124.0
223.15,98.0
223.21,116.0
223.27,124.0
223.33,132.0
223.4,132.0
223.46,126.0
223.52,109.0
223.59,111.0
223.65,111.0
223.71,89.0
223.78,75.0
223.84,88.0
223.9,90.0
223.96,90.0
224.03,109.0
224.09,91.0
224.15,96.0
224.22,94.0
224.28,107.0
224.34,93.0
224.41,69.0
224.47,79.0
224.53,84.0
224.59,113.0
224.66,93.0
224.72,81.0
224.78,108.0
224.85,91.0
224.91,83.0
224.97,75.0
225.04,78.0
225.1,85.0
225.16,82.0
225.22,93.0
225.29,81.0
225.35,61.0
225.41,68.0
225.48,57.0
225.54,69.0
225.6,74.0
225.67,68.0
225.73,84.0
225.79,70.0
225.85,79.0
225.92,58.0
225.98,41.0
226.04,67.0
226.11,63.0
226.17,45.0
226.23,25.0
226.3,39.0
226.36,49.0
226.42,61.0
226.48,79.0
226.55,71.0
226.61,75.0
226.67,63.0
226.74,65.0
226.8,61.0
226.86,46.0
226.93,46.0
226.99,50.0
227.05,54.0
227.11,62.0
227.18,59.0
227.24,60.0
227.3,52.0
227.37,38.0
227.43,52.0
227.49,52.0
227.56,49.0
227.62,34.0
227.68,42.0
227.74,39.0
227.81,26.0
227.87,41.0
227.93,52.0
228.0,23.0
228.06,22.0
228.12,30.0
228.19,51.0
228.25,48.0
228.31,28.0
228.37,28.0
228.44,21.0
228.5,34.0
228.56,37.0
228.63,42.0
228.69,50.0
228.75,50.0
228.82,48.0
228.88,48.0
228.94,59.0
229.0,40.0
229.07,58.0
229.13,50.0
229.19,38.0
229.26,39.0
229.32,50.0
229.38,46.0
229.45,45.0
229.51,51.0
229.57,36.0
229.63,44.0
229.7,48.0
229.76,41.0
229.82,64.0
229.89,41.0
229.95,43.0
230.01,40.0
230.08,56.0
230.14,62.0
230.2,41.0
230.26,37.0
230.33,57.0
230.39,61.0
230.45,33.0
230.52,27.0
230.58,39.0
230.64,36.0
230.71,27.0
230.77,31.0
230.83,35.0
230.89,50.0
230.96,45.0
231.02,58.0
231.08,56.0
231.15,69.0
231.21,60.0
231.27,41.0
231.34,60.0
231.4,52.0
231.46,56.0
231.52,36.0
231.59,34.0
231.65,46.0
231.71,51.0
231.78,67.0
231.84,44.0
231.9,51.0
231.97,42.0
232.03,40.0
232.09,50.0
232.15,56.0
232.22,50.0
232.28,40.0
232.34,52.0
232.41,53.0
232.47,49.0
232.53,49.0
232.6,33.0
232.66,27.0
232.72,28.0
232.78,9.0
232.85,14.0
232.91,6.0
232.97,-6.0
233.04,2.0
233.1,-6.0
233.16,-10.0
233.23,9.0
233.29,-6.0
233.35,10.0
233.41,19.0
233.48,3.0
233.54,-3.0
233.6,-1.0
233.67,-3.0
233.73,7.0
233.79,-3.0
233.86,33.0
233.92,36.0
233.98,29.0
234.04,41.0
234.11,15.0
234.17,35.0
234.23,35.0
234.3,55.0
234.36,60.0
234.42,60.0
234.49,49.0
234.55,41.0
234.61,48.0
234.67,49.0
234.74,48.0
234.8,63.0
234.86,64.0
234.93,76.0
234.99,65.0
235.05,66.0
235.12,78.0
235.18,55.0
235.24,69.0
235.3,93.0
235.37,69.0
235.43,80.0
235.49,82.0
235.56,78.0
235.62,101.0
235.68,86.0
235.75,78.0
235.81,86.0
235.87,87.0
235.93,81.0
236.0,74.0
236.06,77.0
236.12,73.0
236.19,71.0
236.25,83.0
236.31,72.0
236.38,93.0
236.44,70.0
236.5,68.0
236.56,88.0
236.63,95.0
236.69,71.0
236.75,74.0
236.82,65.0
236.88,76.0
236.94,84.0
237.01,98.0
237.07,86.0
237.13,83.0
237.19,86.0
237.26,93.0
237.32,80.0
237.38,84.0
237.45,92.0
237.51,86.0
237.57,76.0
237.64,70.0
237.7,90.0
237.76,90.0
237.82,81.0
237.89,93.0
237.95,104.0
238.01,83.0
238.08,86.0
238.14,84.0
238.2,80.0
238.27,84.0
238.33,58.0
238.39,48.0
238.45,62.0
238.52,65.0
238.58,60.0
238.64,53.0
238.71,48.0
238.77,65.0
238.83,56.0
238.9,63.0
238.96,49.0
239.02,41.0
239.08,68.0
239.15,66.0
239.21,76.0
239.27,73.0
239.34,53.0
239.4,68.0
239.46,58.0
239.53,69.0
239.59,57.0
239.65,73.0
239.71,57.0
239.78,48.0
239.84,52.0
239.9,40.0
239.97,59.0
240.03,60.0
240.09,43.0
240.16,57.0
240.22,45.0
240.28,63.0
240.34,58.0
240.41,68.0
240.47,59.0
240.53,63.0
240.6,41.0
240.66,37.0
240.72,51.0
240.79,29.0
240.85,44.0
240.91,49.0
240.97,63.0
241.04,76.0
241.1,59.0
241.16,57.0
241.23,59.0
241.29,77.0
241.35,82.0
241.42,66.0
241.48,60.0
241.54,66.0
241.6,69.0
241.67,54.0
241.73,44.0
241.79,54.0
241.86,59.0
241.92,56.0
241.98,53.0
242.05,64.0
242.11,71.0
242.17,69.0
242.23,84.0
242.3,69.0
242.36,95.0
242.42,74.0
242.49,93.0
242.55,84.0
242.61,76.0
242.68,85.0
242.74,66.0
242.8,82.0
242.86,77.0
242.93,68.0
242.99,80.0
243.05,73.0
243.12,70.0
243.18,90.0
243.24,78.0
243.31,92.0
243.37,94.0
243.43,77.0
243.49,83.0
243.56,73.0
243.62,66.0
243.68,78.0
243.75,74.0
243.81,78.0
243.87,77.0
243.94,61.0
244.0,77.0
244.06,98.0
244.12,108.0
244.19,101.0
244.25,105.0
244.31,101.0
244.38,103.0
244.44,118.0
244.5,109.0
244.57,135.0
244.63,117.0
244.69,121.0
244.75,128.0
244.82,157.0
244.88,148.0
244.94,128.0
245.01,127.0
245.07,125.0
245.13,150.0
245.2,156.0
245.26,158.0
245.32,148.0
245.38,150.0
245.45,141.0
245.51,132.0
245.57,129.0
245.64,146.0
245.7,154.0
245.76,143.0
245.83,165.0
245.89,164.0
245.95,168.0
246.01,165.0
246.08,154.0
246.14,153.0
246.2,161.0
246.27,148.0
246.33,166.0
246.39,158.0
246.46,157.0
246.52,165.0
246.58,161.0
246.64,162.0
246.71,169.0
246.77,163.0
246.83,146.0
246.9,143.0
246.96,154.0
247.02,145.0
247.09,144.0
247.15,131.0
247.21,143.0
247.27,140.0
247.34,112.0
247.4,110.0
247.46,139.0
247.53,144.0
247.59,131.0
247.65,139.0
247.72,146.0
247.78,135.0
247.84,126.0
247.9,136.0
247.97,135.0
248.03,128.0
248.09,107.0
248.16,140.0
248.22,129.0
248.28,112.0
248.35,108.0
248.41,100.0
248.47,114.0
248.53,110.0
248.6,143.0
248.66,134.0
248.72,125.0
248.79,126.0
248.85,136.0
248.91,124.0
248.98,147.0
249.04,128.0
249.1,168.0
249.16,180.0
249.23,158.0
249.29,165.0
249.35,163.0
249.42,172.0
249.48,178.0
249.54,171.0
249.61,134.0
249.67,128.0
249.73,125.0
249.79,133.0
249.86,120.0
249.92,132.0
249.98,143.0
250.05,138.0
250.11,104.0
250.17,93.0
250.24,109.0
250.3,121.0
250.36,118.0
250.42,115.0
250.49,85.0
250.55,102.0
250.61,84.0
250.68,95.0
250.74,98.0
250.8,87.0
250.87,87.0
250.93,85.0
250.99,77.0
251.05,78.0
251.12,84.0
251.18,107.0
251.24,89.0
251.31,78.0
251.37,71.0
251.43,82.0
251.5,69.0
251.56,67.0
251.62,64.0
251.68,77.0
251.75,88.0
251.81,74.0
251.87,87.0
251.94,82.0
252.0,72.0
252.06,82.0
252.13,93.0
252.19,96.0
252.25,90.0
252.31,96.0
252.38,129.0
252.44,101.0
252.5,93.0
252.57,74.0
252.63,87.0
252.69,80.0
252.76,77.0
252.82,69.0
252.88,55.0
252.94,66.0
253.01,58.0
253.07,58.0
253.13,68.0
253.2,72.0
253.26,53.0
253.32,49.0
253.39,59.0
253.45,57.0
253.51,61.0
253.57,73.0
253.64,79.0
253.7,81.0
253.76,65.0
253.83,68.0
253.89,68.0
253.95,75.0
254.02,79.0
254.08,57.0
254.14,59.0
254.2,66.0
254.27,68.0
254.33,62.0
254.39,69.0
254.46,73.0
254.52,59.0
254.58,37.0
254.65,38.0
254.71,31.0
254.77,40.0
254.83,39.0
254.9,49.0
254.96,43.0
255.02,43.0
255.09,26.0
255.15,29.0
255.21,39.0
255.28,32.0
255.34,44.0
255.4,33.0
255.46,51.0
255.53,40.0
255.59,51.0
255.65,59.0
255.72,48.0
255.78,56.0
255.84,55.0
255.91,44.0
255.97,49.0
256.03,44.0
256.09,40.0
256.16,61.0
256.22,60.0
256.28,52.0
256.35,71.0
256.41,83.0
256.47,72.0
256.54,63.0
256.6,67.0
256.66,79.0
256.72,77.0
256.79,90.0
256.85,103.0
256.91,99.0
256.98,84.0
257.04,99.0
257.1,104.0
257.17,77.0
257.23,61.0
257.29,76.0
257.35,47.0
257.42,49.0
257.48,40.0
257.54,71.0
257.61,93.0
257.67,90.0
257.73,66.0
257.8,79.0
257.86,65.0
257.92,68.0
257.98,79.0
258.05,74.0
258.11,67.0
258.17,48.0
258.24,59.0
258.3,56.0
258.36,48.0
258.43,66.0
258.49,68.0
258.55,73.0
258.61,58.0
258.68,43.0
258.74,61.0
258.8,64.0
258.87,73.0
258.93,73.0
258.99,69.0
259.06,80.0
259.12,91.0
259.18,90.0
259.24,77.0
259.31,62.0
259.37,59.0
259.43,75.0
259.5,81.0
259.56,66.0
259.62,79.0
259.69,83.0
259.75,91.0
259.81,99.0
259.87,85.0
259.94,104.0
260.0,91.0
260.06,70.0
260.13,80.0
260.19,88.0
260.25,86.0
260.32,81.0
260.38,99.0
260.44,96.0
260.5,84.0
260.57,74.0
260.63,86.0
260.69,104.0
260.76,118.0
260.82,88.0
260.88,92.0
260.95,99.0
261.01,99.0
261.07,84.0
261.13,69.0
261.2,76.0
261.26,95.0
261.32,80.0
261.39,97.0
261.45,90.0
261.51,46.0
261.58,63.0
261.64,78.0
261.7,58.0
261.76,70.0
261.83,86.0
261.89,60.0
261.95,76.0
262.02,50.0
262.08,50.0
262.14,64.0
262.21,74.0
262.27,84.0
262.33,58.0
262.39,70.0
262.46,77.0
262.52,66.0
262.58,71.0
262.65,80.0
262.71,68.0
262.77,81.0
262.84,76.0
262.9,55.0
262.96,63.0
263.02,68.0
263.09,70.0
263.15,75.0
263.21,60.0
263.28,58.0
263.34,60.0
263.4,59.0
263.47,54.0
263.53,67.0
263.59,59.0
263.65,41.0
263.72,53.0
263.78,63.0
263.84,59.0
263.91,65.0
263.97,55.0
264.03,45.0
264.1,57.0
264.16,78.0
264.22,75.0
264.28,55.0
264.35,69.0
264.41,69.0
264.47,52.0
264.54,66.0
264.6,75.0
264.66,77.0
264.73,58.0
264.79,69.0
264.85,84.0
264.91,78.0
264.98,64.0
265.04,68.0
265.1,76.0
265.17,61.0
265.23,58.0
265.29,48.0
265.36,73.0
265.42,86.0
265.48,66.0
265.54,66.0
265.61,94.0
265.67,55.0
265.73,69.0
265.8,76.0
265.86,72.0
265.92,64.0
265.99,60.0
266.05,88.0
266.11,86.0
266.17,85.0
266.24,76.0
266.3,74.0
266.36,78.0
266.43,77.0
266.49,73.0
266.55,72.0
266.62,50.0
266.68,72.0
266.74,82.0
266.8,66.0
266.87,77.0
266.93,64.0
266.99,63.0
267.06,61.0
267.12,41.0
267.18,55.0
267.25,73.0
267.31,71.0
267.37,94.0
267.43,94.0
267.5,84.0
267.56,96.0
267.62,100.0
267.69,104.0
267.75,106.0
267.81,103.0
267.88,96.0
267.94,110.0
268.0,106.0
268.06,113.0
268.13,112.0
268.19,89.0
268.25,86.0
268.32,88.0
268.38,105.0
268.44,97.0
268.51,69.0
268.57,56.0
268.63,78.0
268.69,61.0
268.76,82.0
268.82,83.0
268.88,79.0
268.95,59.0
269.01,70.0
269.07,91.0
269.14,61.0
269.2,76.0
269.26,81.0
269.32,76.0
269.39,80.0
269.45,86.0
269.51,88.0
269.58,88.0
269.64,88.0
269.7,91.0
269.77,98.0
269.83,90.0
269.89,103.0
269.95,96.0
270.02,77.0
270.08,74.0
270.14,96.0
270.21,98.0
270.27,111.0
270.33,113.0
270.4,113.0
270.46,100.0
270.52,115.0
270.58,119.0
270.65,119.0
270.71,101.0
270.77,90.0
270.84,81.0
270.9,99.0
270.96,99.0
271.03,108.0
271.09,96.0
271.15,83.0
271.21,99.0
271.28,89.0
271.34,81.0
271.4,82.0
271.47,95.0
271.53,79.0
271.59,90.0
271.66,99.0
271.72,88.0
271.78,95.0
271.84,84.0
271.91,99.0
271.97,67.0
272.03,70.0
272.1,93.0
272.16,63.0
272.22,69.0
272.29,81.0
272.35,57.0
272.41,73.0
272.47,95.0
272.54,106.0
272.6,97.0
272.66,89.0
272.73,102.0
272.79,98.0
272.85,87.0
272.92,82.0
272.98,87.0
273.04,96.0
273.1,85.0
273.17,77.0
273.23,96.0
273.29,83.0
273.36,76.0
273.42,93.0
273.48,88.0
273.55,98.0
273.61,113.0
273.67,87.0
273.73,104.0
273.8,121.0
273.86,114.0
273.92,98.0
273.99,84.0
274.05,99.0
274.11,110.0
274.18,103.0
274.24,122.0
274.3,129.0
274.36,123.0
274.43,145.0
274.49,150.0
274.55,121.0
274.62,144.0
274.68,135.0
274.74,142.0
274.81,121.0
274.87,136.0
274.93,134.0
274.99,132.0
275.06,112.0
275.12,122.0
275.18,121.0
275.25,121.0
275.31,115.0
275.37,115.0
275.44,132.0
275.5,124.0
275.56,103.0
275.62,109.0
275.69,92.0
275.75,123.0
275.81,119.0
275.88,95.0
275.94,106.0
276.0,88.0
276.07,93.0
276.13,96.0
276.19,106.0
276.25,93.0
276.32,82.0
276.38,66.0
276.44,72.0
276.51,77.0
276.57,75.0
276.63,87.0
276.7,93.0
276.76,94.0
276.82,73.0
276.88,73.0
276.95,95.0
277.01,92.0
277.07,67.0
277.14,76.0
277.2,58.0
277.26,75.0
277.33,85.0
277.39,77.0
277.45,107.0
277.51,88.0
277.58,95.0
277.64,85.0
277.7,88.0
277.77,80.0
277.83,89.0
277.89,69.0
277.96,82.0
278.02,73.0
278.08,81.0
278.14,80.0
278.21,90.0
278.27,89.0
278.33,90.0
278.4,92.0
278.46,97.0
278.52,114.0
278.59,94.0
278.65,102.0
278.71,115.0
278.77,137.0
278.84,123.0
278.9,138.0
278.96,144.0
279.03,136.0
279.09,142.0
279.15,149.0
279.22,140.0
279.28,132.0
279.34,120.0
279.4,128.0
279.47,106.0
279.53,110.0
279.59,105.0
279.66,92.0
279.72,110.0
279.78,117.0
279.85,135.0
279.91,126.0
279.97,100.0
280.03,112.0
280.1,110.0
280.16,92.0
280.22,111.0
280.29,104.0
280.35,103.0
280.41,98.0
280.48,86.0
280.54,89.0
280.6,90.0
280.66,119.0
280.73,114.0
280.79,95.0
280.85,102.0
280.92,65.0
280.98,84.0
281.04,96.0
281.11,97.0
281.17,87.0
281.23,110.0
281.29,103.0
281.36,115.0
281.42,127.0
281.48,103.0
281.55,94.0
281.61,102.0
281.67,91.0
281.74,99.0
281.8,102.0
281.86,101.0
281.92,112.0
281.99,114.0
282.05,123.0
282.11,110.0
282.18,90.0
282.24,110.0
282.3,121.0
282.37,102.0
282.43,114.0
282.49,115.0
282.55,96.0
282.62,116.0
282.68,100.0
282.74,93.0
282.81,95.0
282.87,71.0
282.93,66.0
283.0,74.0
283.06,75.0
283.12,67.0
283.18,77.0
283.25,85.0
283.31,87.0
283.37,98.0
283.44,95.0
283.5,95.0
283.56,91.0
283.63,92.0
283.69,83.0
283.75,70.0
283.81,85.0
283.88,80.0
283.94,52.0
284.0,79.0
284.07,68.0
284.13,68.0
284.19,75.0
284.26,79.0
284.32,59.0
284.38,56.0
284.44,53.0
284.51,63.0
284.57,55.0
284.63,69.0
284.7,76.0
284.76,51.0
284.82,60.0
284.89,59.0
284.95,76.0
285.01,74.0
285.07,51.0
285.14,45.0
285.2,54.0
285.26,76.0
285.33,62.0
285.39,66.0
285.45,73.0
285.52,51.0
285.58,43.0
285.64,63.0
285.7,77.0
285.77,98.0
285.83,84.0
285.89,91.0
285.96,95.0
286.02,89.0
286.08,103.0
286.15,87.0
286.21,87.0
286.27,100.0
286.33,119.0
286.4,106.0
286.46,81.0
286.52,95.0
286.59,98.0
286.65,85.0
286.71,83.0
286.78,59.0
286.84,72.0
286.9,71.0
286.96,90.0
287.03,70.0
287.09,66.0
287.15,67.0
287.22,65.0
287.28,66.0
287.34,106.0
287.41,84.0
287.47,79.0
287.53,90.0
287.59,98.0
287.66,74.0
287.72,90.0
287.78,98.0
287.85,81.0
287.91,88.0
287.97,88.0
288.04,93.0
288.1,85.0
288.16,95.0
288.22,97.0
288.29,117.0
288.35,103.0
288.41,103.0
288.48,90.0
288.54,84.0
288.6,89.0
288.67,120.0
288.73,101.0
288.79,114.0
288.85,127.0
288.92,106.0
288.98,114.0
289.04,119.0
289.11,126.0
289.17,134.0
289.23,128.0
289.3,131.0
289.36,131.0
289.42,146.0
289.48,126.0
289.55,131.0
289.61,157.0
289.67,127.0
289.74,136.0
289.8,149.0
289.86,144.0
289.93,145.0
289.99,126.0
290.05,122.0
290.11,112.0
290.18,139.0
290.24,112.0
290.3,106.0
290.37,113.0
290.43,139.0
290.49,141.0
290.56,147.0
290.62,146.0
290.68,128.0
290.74,128.0
290.81,114.0
290.87,121.0
290.93,129.0
291.0,113.0
291.06,143.0
291.12,117.0
291.19,134.0
291.25,129.0
291.31,127.0
291.37,120.0
291.44,116.0
291.5,103.0
291.56,112.0
291.63,132.0
291.69,116.0
291.75,115.0
291.82,124.0
291.88,110.0
291.94,114.0
292.0,96.0
292.07,101.0
292.13,93.0
292.19,75.0
292.26,58.0
292.32,62.0
292.38,54.0
292.45,63.0
292.51,69.0
292.57,35.0
292.63,56.0
292.7,53.0
292.76,61.0
292.82,55.0
292.89,33.0
292.95,56.0
293.01,43.0
293.08,33.0
293.14,38.0
293.2,50.0
293.26,57.0
293.33,33.0
293.39,51.0
293.45,44.0
293.52,48.0
293.58,41.0
293.64,37.0
293.71,40.0
293.77,38.0
293.83,60.0
293.89,33.0
293.96,32.0
294.02,42.0
294.08,57.0
294.15,40.0
294.21,19.0
294.27,43.0
294.34,48.0
294.4,59.0
294.46,21.0
294.52,27.0
294.59,34.0
294.65,50.0
294.71,36.0
294.78,59.0
294.84,29.0
294.9,26.0
294.97,23.0
295.03,44.0
295.09,40.0
295.15,27.0
295.22,25.0
295.28,33.0
295.34,41.0
295.41,24.0
295.47,24.0
295.53,42.0
295.6,52.0
295.66,43.0
295.72,21.0
295.78,45.0
295.85,32.0
295.91,57.0
295.97,56.0
296.04,56.0
296.1,71.0
296.16,74.0
296.23,71.0
296.29,76.0
296.35,76.0
296.41,84.0
296.48,95.0
296.54,82.0
296.6,72.0
296.67,93.0
296.73,96.0
296.79,104.0
296.86,102.0
296.92,112.0
296.98,115.0
297.04,120.0
297.11,117.0
297.17,117.0
297.23,120.0
297.3,132.0
297.36,144.0
297.42,115.0
297.49,129.0
297.55,108.0
297.61,107.0
297.67,107.0
297.74,105.0
297.8,111.0
297.86,114.0
297.93,113.0
297.99,116.0
298.05,127.0
298.12,103.0
298.18,124.0
298.24,128.0
298.3,129.0
298.37,118.0
298.43,124.0
298.49,125.0
298.56,122.0
298.62,138.0
298.68,151.0
298.75,154.0
298.81,142.0
298.87,131.0
298.93,110.0
299.0,125.0
299.06,141.0
299.12,132.0
299.19,135.0
299.25,131.0
299.31,120.0
299.38,127.0
299.44,142.0
299.5,132.0
299.56,120.0
299.63,128.0
299.69,143.0
299.75,135.0
299.82,138.0
299.88,151.0
299.94,126.0
300.01,135.0
300.07,124.0
300.13,130.0
300.19,129.0
300.26,128.0
300.32,121.0
300.38,113.0
300.45,138.0
300.51,125.0
300.57,113.0
300.64,116.0
300.7,104.0
300.76,115.0
300.82,124.0
300.89,103.0
300.95,107.0
301.01,102.0
301.08,106.0
301.14,74.0
301.2,90.0
301.27,83.0
301.33,80.0
301.39,81.0
301.45,82.0
301.52,79.0
301.58,84.0
301.64,86.0
301.71,84.0
301.77,72.0
301.83,66.0
301.9,70.0
301.96,82.0
302.02,77.0
302.08,88.0
302.15,95.0
302.21,90.0
302.27,76.0
302.34,77.0
302.4,68.0
302.46,47.0
302.53,68.0
302.59,73.0
302.65,74.0
302.71,94.0
302.78,84.0
302.84,78.0
302.9,74.0
302.97,66.0
303.03,74.0
303.09,66.0
303.16,57.0
303.22,84.0
303.28,66.0
303.34,68.0
303.41,75.0
303.47,58.0
303.53,58.0
303.6,63.0
303.66,63.0
303.72,73.0
303.79,64.0
303.85,53.0
303.91,58.0
303.97,68.0
304.04,70.0
304.1,63.0
304.16,56.0
304.23,46.0
304.29,58.0
304.35,49.0
304.42,63.0
304.48,74.0
304.54,46.0
304.6,51.0
304.67,58.0
304.73,41.0
304.79,55.0
304.86,50.0
304.92,41.0
304.98,40.0
305.05,51.0
305.11,42.0
305.17,55.0
305.23,70.0
305.3,61.0
305.36,48.0
305.42,47.0
305.49,67.0
305.55,44.0
305.61,39.0
305.68,35.0
305.74,63.0
305.8,59.0
305.86,58.0
305.93,60.0
305.99,71.0
306.05,77.0
306.12,80.0
306.18,104.0
306.24,90.0
306.31,91.0
306.37,90.0
306.43,76.0
306.49,66.0
306.56,94.0
306.62,88.0
306.68,85.0
306.75,93.0
306.81,95.0
306.87,88.0
306.94,82.0
307.0,117.0
307.06,106.0
307.12,114.0
307.19,101.0
307.25,106.0
307.31,126.0
307.38,107.0
307.44,106.0
307.5,120.0
307.57,109.0
307.63,112.0
307.69,95.0
307.75,100.0
307.82,116.0
307.88,105.0
307.94,107.0
308.01,132.0
308.07,139.0
308.13,124.0
308.2,127.0
308.26,106.0
308.32,94.0
308.38,99.0
308.45,90.0
308.51,92.0
308.57,96.0
308.64,100.0
308.7,78.0
308.76,83.0
308.83,88.0
308.89,86.0
308.95,88.0
309.01,82.0
309.08,73.0
309.14,62.0
309.2,59.0
309.27,71.0
309.33,73.0
309.39,67.0
309.46,65.0
309.52,70.0
309.58,81.0
309.64,81.0
309.71,59.0
309.77,54.0
309.83,28.0
309.9,40.0
309.96,47.0
310.02,65.0
310.09,59.0
310.15,29.0
310.21,35.0
310.27,51.0
310.34,67.0
310.4,48.0
310.46,25.0
310.53,36.0
310.59,40.0
310.65,40.0
310.72,16.0
310.78,27.0
310.84,28.0
310.9,36.0
310.97,41.0
311.03,59.0
311.09,55.0
311.16,56.0
311.22,65.0
311.28,53.0
311.35,76.0
311.41,73.0
311.47,88.0
311.53,89.0
311.6,88.0
311.66,90.0
311.72,84.0
311.79,85.0
311.85,88.0
311.91,96.0
311.98,84.0
312.04,93.0
312.1,95.0
312.16,104.0
312.23,98.0
312.29,106.0
312.35,91.0
312.42,96.0
312.48,96.0
312.54,98.0
312.61,101.0
312.67,92.0
312.73,77.0
312.79,86.0
312.86,88.0
312.92,86.0
312.98,103.0
313.05,110.0
313.11,119.0
313.17,121.0
313.24,130.0
313.3,132.0
313.36,138.0
313.42,126.0
313.49,135.0
313.55,125.0
313.61,132.0
313.68,150.0
313.74,142.0
313.8,150.0
313.87,143.0
313.93,131.0
313.99,139.0
314.05,131.0
314.12,150.0
314.18,143.0
314.24,139.0
314.31,145.0
314.37,148.0
314.43,146.0
314.5,146.0
314.56,129.0
314.62,133.0
314.68,131.0
314.75,122.0
314.81,124.0
314.87,118.0
314.94,112.0
315.0,125.0
315.06,124.0
315.13,130.0
315.19,125.0
315.25,136.0
315.31,147.0
315.38,152.0
315.44,154.0
315.5,147.0
315.57,135.0
315.63,160.0
315.69,149.0
315.76,144.0
315.82,161.0
315.88,145.0
315.94,142.0
316.01,131.0
316.07,129.0
316.13,132.0
316.2,125.0
316.26,143.0
316.32,146.0
316.39,164.0
316.45,159.0
316.51,162.0
316.57,157.0
316.64,154.0
316.7,139.0
316.76,165.0
316.83,167.0
316.89,145.0
316.95,134.0
317.02,132.0
317.08,144.0
317.14,166.0
317.2,161.0
317.27,146.0
317.33,151.0
317.39,123.0
317.46,134.0
317.52,126.0
317.58,119.0
317.65,109.0
317.71,99.0
317.77,130.0
317.83,121.0
317.9,106.0
317.96,99.0
318.02,97.0
318.09,112.0
318.15,113.0
318.21,94.0
318.28,105.0
318.34,77.0
318.4,89.0
318.46,83.0
318.53,87.0
318.59,92.0
318.65,74.0
318.72,60.0
318.78,79.0
318.84,71.0
318.91,60.0
318.97,60.0
319.03,62.0
319.09,51.0
319.16,68.0
319.22,88.0
319.28,86.0
319.35,60.0
319.41,84.0
319.47,59.0
319.54,71.0
319.6,68.0
319.66,57.0
319.72,77.0
319.79,55.0
319.85,53.0
319.91,57.0
319.98,54.0
320.04,73.0
320.1,58.0
320.17,79.0
320.23,68.0
320.29,78.0
320.35,73.0
320.42,80.0
320.48,63.0
320.54,77.0
320.61,83.0
320.67,88.0
320.73,77.0
320.8,96.0
320.86,87.0
320.92,77.0
320.98,91.0
321.05,74.0
321.11,68.0
321.17,77.0
321.24,64.0
321.3,81.0
321.36,90.0
321.43,95.0
321.49,73.0
321.55,90.0
321.61,70.0
321.68,82.0
321.74,113.0
321.8,113.0
321.87,103.0
321.93,108.0
321.99,106.0
322.06,114.0
322.12,111.0
322.18,114.0
322.24,124.0
322.31,114.0
322.37,122.0
322.43,132.0
322.5,125.0
322.56,124.0
322.62,133.0
322.69,124.0
322.75,132.0
322.81,129.0
322.87,123.0
322.94,126.0
323.0,143.0
323.06,121.0
323.13,117.0
323.19,140.0
323.25,139.0
323.32,142.0
323.38,121.0
323.44,101.0
323.5,112.0
323.57,128.0
323.63,125.0
323.69,130.0
323.76,115.0
323.82,128.0
323.88,154.0
323.95,130.0
324.01,131.0
324.07,132.0
324.13,147.0
324.2,162.0
324.26,147.0
324.32,146.0
324.39,140.0
324.45,134.0
324.51,131.0
324.58,126.0
324.64,139.0
324.7,128.0
324.76,127.0
324.83,127.0
324.89,116.0
324.95,130.0
325.02,110.0
325.08,124.0
325.14,118.0
325.21,115.0
325.27,119.0
325.33,115.0
325.39,107.0
325.46,94.0
325.52,85.0
325.58,98.0
325.65,79.0
325.71,71.0
325.77,86.0
325.84,87.0
325.9,85.0
325.96,77.0
326.02,72.0
326.09,52.0
326.15,84.0
326.21,58.0
326.28,65.0
326.34,62.0
326.4,42.0
326.47,41.0
326.53,68.0
326.59,68.0
326.65,47.0
326.72,55.0
326.78,51.0
326.84,21.0
326.91,47.0
326.97,45.0
327.03,25.0
327.1,4.0
327.16,34.0
327.22,41.0
327.28,41.0
327.35,47.0
327.41,38.0
327.47,30.0
327.54,18.0
327.6,38.0
327.66,37.0
327.73,21.0
327.79,26.0
327.85,30.0
327.91,29.0
327.98,43.0
328.04,21.0
328.1,4.0
328.17,17.0
328.23,36.0
328.29,47.0
328.36,28.0
328.42,43.0
328.48,60.0
328.54,26.0
328.61,44.0
328.67,44.0
328.73,36.0
328.8,37.0
328.86,36.0
328.92,16.0
328.99,32.0
329.05,36.0
329.11,35.0
329.17,36.0
329.24,39.0
329.3,49.0
329.36,33.0
329.43,35.0
329.49,36.0
329.55,41.0
329.62,58.0
329.68,62.0
329.74,58.0
329.8,49.0
329.87,33.0
329.93,35.0
329.99,42.0
330.06,40.0
330.12,54.0
330.18,41.0
330.25,56.0
330.31,63.0
330.37,48.0
330.43,40.0
330.5,51.0
330.56,73.0
330.62,72.0
330.69,70.0
330.75,61.0
330.81,49.0
330.88,46.0
330.94,63.0
331.0,52.0
331.06,48.0
331.13,71.0
331.19,72.0
331.25,71.0
331.32,62.0
331.38,80.0
331.44,62.0
331.51,60.0
331.57,72.0
331.63,54.0
331.69,47.0
331.76,51.0
331.82,42.0
331.88,40.0
331.95,40.0
332.01,58.0
332.07,51.0
332.14,65.0
332.2,42.0
332.26,51.0
332.32,44.0
332.39,55.0
332.45,66.0
332.51,79.0
332.58,81.0
332.64,77.0
332.7,92.0
332.77,93.0
332.83,93.0
332.89,88.0
332.95,61.0
333.02,69.0
333.08,75.0
333.14,63.0
333.21,79.0
333.27,96.0
333.33,90.0
333.4,86.0
333.46,47.0
333.52,49.0
333.58,71.0
333.65,69.0
333.71,57.0
333.77,69.0
333.84,59.0
333.9,38.0
333.96,22.0
334.03,60.0
334.09,26.0
334.15,32.0
334.21,58.0
334.28,44.0
334.34,48.0
334.4,62.0
334.47,29.0
334.53,21.0
334.59,44.0
334.66,51.0
334.72,48.0
334.78,40.0
334.84,44.0
334.91,35.0
334.97,26.0
335.03,35.0
335.1,31.0
335.16,20.0
335.22,35.0
335.29,18.0
335.35,26.0
335.41,22.0
335.47,24.0
335.54,44.0
335.6,49.0
335.66,41.0
335.73,35.0
335.79,17.0
335.85,30.0
335.92,29.0
335.98,27.0
336.04,18.0
336.1,14.0
336.17,18.0
336.23,-17.0
336.29,0.0
336.36,7.0
336.42,23.0
336.48,8.0
336.55,14.0
336.61,39.0
336.67,10.0
336.73,23.0
336.8,20.0
336.86,27.0
336.92,17.0
336.99,28.0
337.05,7.0
337.11,-5.0
337.18,-13.0
337.24,-6.0
337.3,-4.0
337.36,-7.0
337.43,13.0
337.49,25.0
337.55,17.0
337.62,25.0
337.68,40.0
337.74,53.0
337.81,28.0
337.87,19.0
337.93,32.0
337.99,26.0
338.06,34.0
338.12,36.0
338.18,44.0
338.25,47.0
338.31,62.0
338.37,67.0
338.44,71.0
338.5,77.0
338.56,69.0
338.62,65.0
338.69,51.0
338.75,51.0
338.81,57.0
338.88,66.0
338.94,72.0
339.0,66.0
339.07,64.0
339.13,51.0
339.19,38.0
339.25,59.0
339.32,62.0
339.38,79.0
339.44,51.0
339.51,72.0
339.57,85.0
339.63,78.0
339.7,54.0
339.76,62.0
339.82,76.0
339.88,62.0
339.95,70.0
340.01,87.0
340.07,69.0
340.14,86.0
340.2,98.0
340.26,73.0
340.33,84.0
340.39,96.0
340.45,117.0
340.51,101.0
340.58,106.0
340.64,102.0
340.7,118.0
340.77,106.0
340.83,100.0
340.89,99.0
340.96,102.0
341.02,91.0
341.08,96.0
341.14,103.0
341.21,113.0
341.27,126.0
341.33,123.0
341.4,135.0
341.46,139.0
341.52,125.0
341.59,119.0
341.65,109.0
341.71,98.0
341.77,109.0
341.84,98.0
341.9,103.0
341.96,94.0
342.03,108.0
342.09,105.0
342.15,110.0
342.22,106.0
342.28,97.0
342.34,99.0
342.4,85.0
342.47,91.0
342.53,96.0
342.59,76.0
342.66,80.0
342.72,86.0
342.78,112.0
342.85,102.0
342.91,97.0
342.97,97.0
343.03,91.0
343.1,87.0
343.16,90.0
343.22,81.0
343.29,78.0
343.35,84.0
343.41,86.0
343.48,78.0
343.54,65.0
343.6,69.0
343.66,92.0
343.73,62.0
343.79,67.0
343.85,78.0
343.92,65.0
343.98,86.0
344.04,81.0
344.11,72.0
344.17,84.0
344.23,75.0
344.29,80.0
344.36,78.0
344.42,76.0
344.48,102.0
344.55,95.0
344.61,120.0
344.67,124.0
344.74,118.0
344.8,133.0
344.86,113.0
344.92,124.0
344.99,142.0
345.05,116.0
345.11,139.0
345.18,157.0
345.24,160.0
345.3,135.0
345.37,110.0
345.43,120.0
345.49,128.0
345.55,122.0
345.62,103.0
345.68,95.0
345.74,102.0
345.81,117.0
345.87,114.0
345.93,118.0
346.0,133.0
346.06,134.0
346.12,139.0
346.18,151.0
346.25,122.0
346.31,128.0
346.37,127.0
346.44,131.0
346.5,161.0
346.56,138.0
346.63,137.0
346.69,152.0
346.75,142.0
346.81,139.0
346.88,153.0
346.94,168.0
347.0,188.0
347.07,179.0
347.13,159.0
347.19,163.0
347.26,175.0
347.32,178.0
347.38,166.0
347.44,153.0
347.51,166.0
347.57,177.0
347.63,167.0
347.7,163.0
347.76,165.0
347.82,160.0
347.89,163.0
347.95,183.0
348.01,161.0
348.07,155.0
348.14,172.0
348.2,180.0
348.26,167.0
348.33,141.0
348.39,147.0
348.45,128.0
348.52,150.0
348.58,171.0
348.64,152.0
348.7,150.0
348.77,154.0
348.83,152.0
348.89,161.0
348.96,157.0
349.02,135.0
349.08,152.0
349.15,151.0
349.21,143.0
349.27,151.0
349.33,164.0
349.4,151.0
349.46,141.0
349.52,149.0
349.59,159.0
349.65,146.0
349.71,135.0
349.78,136.0
349.84,112.0
349.9,144.0
349.96,149.0
350.03,153.0
350.09,160.0
350.15,139.0
350.22,124.0
350.28,132.0
350.34,121.0
350.41,133.0
350.47,120.0
350.53,127.0
350.59,89.0
350.66,97.0
350.72,110.0
350.78,111.0
350.85,99.0
350.91,102.0
350.97,105.0
351.04,108.0
351.1,110.0
351.16,82.0
351.22,91.0
351.29,89.0
351.35,84.0
351.41,83.0
351.48,87.0
351.54,89.0
351.6,100.0
351.67,117.0
351.73,111.0
351.79,84.0
351.85,97.0
351.92,117.0
351.98,103.0
352.04,113.0
352.11,94.0
352.17,111.0
352.23,108.0
352.3,95.0
352.36,91.0
352.42,100.0
352.48,105.0
352.55,99.0
352.61,91.0
352.67,96.0
352.74,98.0
352.8,106.0
352.86,88.0
352.93,87.0
352.99,89.0
353.05,50.0
353.11,64.0
353.18,96.0
353.24,81.0
353.3,95.0
353.37,92.0
353.43,84.0
353.49,95.0
353.56,66.0
353.62,58.0
353.68,79.0
353.74,86.0
353.81,76.0
353.87,86.0
353.93,79.0
354.0,58.0
354.06,58.0
354.12,59.0
354.19,77.0
354.25,82.0
354.31,69.0
354.37,81.0
354.44,84.0
354.5,70.0
354.56,70.0
354.63,62.0
354.69,83.0
354.75,81.0
354.82,91.0
354.88,90.0
354.94,58.0
355.0,68.0
355.07,73.0
355.13,72.0
355.19,81.0
355.26,86.0
355.32,91.0
355.38,73.0
355.45,62.0
355.51,58.0
355.57,63.0
355.63,63.0
355.7,50.0
355.76,54.0
355.82,62.0
355.89,50.0
355.95,58.0
356.01,59.0
356.08,72.0
356.14,72.0
356.2,60.0
356.26,84.0
356.33,77.0
356.39,74.0
356.45,58.0
356.52,80.0
356.58,64.0
356.64,67.0
356.71,80.0
356.77,80.0
356.83,75.0
356.89,87.0
356.96,87.0
357.02,85.0
357.08,92.0
357.15,61.0
357.21,58.0
357.27,67.0
357.34,84.0
357.4,84.0
357.46,85.0
357.52,88.0
357.59,81.0
357.65,85.0
357.71,94.0
357.78,98.0
357.84,93.0
357.9,103.0
357.97,106.0
358.03,107.0
358.09,81.0
358.15,76.0
358.22,77.0
358.28,69.0
358.34,90.0
358.41,68.0
358.47,55.0
358.53,67.0
358.6,84.0
358.66,74.0
358.72,69.0
358.78,48.0
358.85,30.0
358.91,30.0
358.97,31.0
359.04,47.0
359.1,42.0
359.16,60.0
359.23,29.0
359.29,-1.0
359.35,25.0
359.41,20.0
359.48,10.0
359.54,-5.0
359.6,7.0
359.67,1.0
359.73,3.0
359.79,-9.0
359.86,-23.0
359.92,-28.0
359.98,-28.0
360.04,-25.0
360.11,-17.0
360.17,-24.0
360.23,-20.0
360.3,-16.0
360.36,-27.0
360.42,-8.0
360.49,-8.0
360.55,16.0
360.61,6.0
360.67,10.0
360.74,12.0
360.8,18.0
360.86,51.0
360.93,35.0
360.99,42.0
361.05,37.0
361.12,35.0
361.18,52.0
361.24,37.0
361.3,42.0
361.37,62.0
361.43,31.0
361.49,42.0
361.56,43.0
361.62,26.0
361.68,41.0
361.75,44.0
361.81,58.0
361.87,45.0
361.93,45.0
362.0,40.0
362.06,63.0
362.12,71.0
362.19,68.0
362.25,51.0
362.31,48.0
362.38,45.0
362.44,37.0
362.5,54.0
362.56,63.0
362.63,68.0
362.69,69.0
362.75,73.0
362.82,67.0
362.88,100.0
362.94,92.0
363.01,101.0
363.07,98.0
363.13,100.0
363.19,111.0
363.26,87.0
363.32,109.0
363.38,79.0
363.45,95.0
363.51,80.0
363.57,48.0
363.64,93.0
363.7,88.0
363.76,107.0
363.82,109.0
363.89,120.0
363.95,106.0
364.01,102.0
364.08,105.0
364.14,98.0
364.2,115.0
364.27,112.0
364.33,95.0
364.39,96.0
364.45,96.0
364.52,99.0
364.58,121.0
364.64,140.0
364.71,120.0
364.77,122.0
364.83,135.0
364.9,139.0
364.96,140.0
365.02,138.0
365.08,114.0
365.15,120.0
365.21,113.0
365.27,128.0
365.34,129.0
365.4,125.0
365.46,148.0
365.53,148.0
365.59,134.0
365.65,149.0
365.71,140.0
365.78,153.0
365.84,144.0
365.9,139.0
365.97,145.0
366.03,145.0
366.09,142.0
366.16,136.0
366.22,140.0
366.28,144.0
366.34,144.0
366.41,136.0
366.47,115.0
366.53,132.0
366.6,136.0
366.66,119.0
366.72,133.0
366.79,143.0
366.85,140.0
366.91,115.0
366.97,134.0
367.04,128.0
367.1,127.0
367.16,134.0
367.23,109.0
367.29,126.0
367.35,113.0
367.42,108.0
367.48,112.0
367.54,101.0
367.6,108.0
367.67,122.0
367.73,127.0
367.79,111.0
367.86,101.0
367.92,100.0
367.98,102.0
368.05,126.0
368.11,103.0
368.17,115.0
368.23,128.0
368.3,111.0
368.36,117.0
368.42,121.0
368.49,119.0
368.55,112.0
368.61,111.0
368.68,114.0
368.74,100.0
368.8,118.0
368.86,119.0
368.93,129.0
368.99,122.0
369.05,98.0
369.12,93.0
369.18,100.0
369.24,113.0
369.31,87.0
369.37,106.0
369.43,104.0
369.49,106.0
369.56,126.0
369.62,119.0
369.68,119.0
369.75,106.0
369.81,129.0
369.87,130.0
369.94,126.0
370.0,125.0
370.06,130.0
370.12,128.0
370.19,120.0
370.25,114.0
370.31,112.0
370.38,123.0
370.44,128.0
370.5,150.0
370.57,127.0
370.63,165.0
370.69,178.0
370.75,160.0
370.82,144.0
370.88,162.0
370.94,159.0
371.01,148.0
371.07,135.0
371.13,127.0
371.2,136.0
371.26,124.0
371.32,150.0
371.38,163.0
371.45,156.0
371.51,155.0
371.57,153.0
371.64,150.0
371.7,155.0
371.76,139.0
371.83,128.0
371.89,138.0
371.95,152.0
372.01,145.0
372.08,119.0
372.14,141.0
372.2,135.0
372.27,127.0
372.33,129.0
372.39,135.0
372.46,139.0
372.52,131.0
372.58,155.0
372.64,148.0
372.71,141.0
372.77,154.0
372.83,169.0
372.9,189.0
372.96,171.0
373.02,166.0
373.09,157.0
373.15,154.0
373.21,151.0
373.27,129.0
373.34,118.0
373.4,136.0
373.46,123.0
373.53,104.0
373.59,95.0
373.65,101.0
373.72,110.0
373.78,104.0
373.84,97.0
373.9,102.0
373.97,99.0
374.03,92.0
374.09,94.0
374.16,115.0
374.22,104.0
374.28,109.0
374.35,119.0
374.41,97.0
374.47,106.0
374.53,104.0
374.6,104.0
374.66,95.0
374.72,88.0
374.79,103.0
374.85,98.0
374.91,86.0
374.98,91.0
375.04,93.0
375.1,103.0
375.16,74.0
375.23,76.0
375.29,86.0
375.35,73.0
375.42,103.0
375.48,98.0
375.54,95.0
375.61,109.0
375.67,104.0
375.73,93.0
375.79,83.0
375.86,68.0
375.92,63.0
375.98,79.0
376.05,71.0
376.11,50.0
376.17,84.0
376.24,93.0
376.3,81.0
376.36,82.0
376.42,83.0
376.49,86.0
376.55,97.0
376.61,86.0
376.68,99.0
376.74,100.0
376.8,87.0
376.87,96.0
376.93,82.0
376.99,83.0
377.05,97.0
377.12,100.0
377.18,82.0
377.24,88.0
377.31,78.0
377.37,97.0
377.43,99.0
377.5,88.0
377.56,100.0
377.62,109.0
377.68,115.0
377.75,112.0
377.81,96.0
377.87,103.0
377.94,86.0
378.0,115.0
378.06,97.0
378.13,99.0
378.19,100.0
378.25,94.0
378.31,98.0
378.38,100.0
378.44,109.0
378.5,104.0
378.57,100.0
378.63,110.0
378.69,88.0
378.76,78.0
378.82,78.0
378.88,87.0
378.94,85.0
379.01,97.0
379.07,93.0
379.13,70.0
379.2,99.0
379.26,79.0
379.32,86.0
379.39,95.0
379.45,92.0
379.51,110.0
379.57,113.0
379.64,126.0
379.7,101.0
379.76,111.0
379.83,126.0
379.89,111.0
379.95,104.0
380.02,96.0
380.08,121.0
380.14,135.0
380.2,93.0
380.27,102.0
380.33,93.0
380.39,90.0
380.46,101.0
380.52,93.0
380.58,119.0
380.65,93.0
380.71,107.0
380.77,104.0
380.83,100.0
380.9,102.0
380.96,96.0
381.02,111.0
381.09,108.0
381.15,93.0
381.21,110.0
381.28,100.0
381.34,111.0
381.4,123.0
381.46,139.0
381.53,106.0
381.59,122.0
381.65,127.0
381.72,133.0
381.78,135.0
381.84,104.0
381.91,110.0
381.97,97.0
382.03,115.0
382.09,111.0
382.16,85.0
382.22,104.0
382.28,107.0
382.35,97.0
382.41,102.0
382.47,120.0
382.54,98.0
382.6,113.0
382.66,94.0
382.72,119.0
382.79,120.0
382.85,104.0
382.91,89.0
382.98,100.0
383.04,110.0
383.1,97.0
383.17,87.0
383.23,92.0
383.29,91.0
383.35,86.0
383.42,98.0
383.48,78.0
383.54,75.0
383.61,55.0
383.67,46.0
383.73,51.0
383.8,49.0
383.86,24.0
383.92,27.0
383.98,32.0
384.05,19.0
384.11,32.0
384.17,29.0
384.24,17.0
384.3,24.0
384.36,17.0
384.43,4.0
384.49,2.0
384.55,-18.0
384.61,-7.0
384.68,5.0
384.74,12.0
384.8,15.0
384.87,1.0
384.93,-7.0
384.99,3.0
385.06,33.0
385.12,25.0
385.18,6.0
385.24,19.0
385.31,14.0
385.37,9.0
385.43,28.0
385.5,42.0
385.56,54.0
385.62,38.0
385.69,57.0
385.75,37.0
385.81,54.0
385.87,70.0
385.94,58.0
386.0,83.0
386.06,80.0
386.13,72.0
386.19,87.0
386.25,61.0
386.32,62.0
386.38,69.0
386.44,55.0
386.5,47.0
386.57,54.0
386.63,61.0
386.69,47.0
386.76,42.0
386.82,58.0
386.88,52.0
386.95,32.0
387.01,46.0
387.07,43.0
387.13,43.0
387.2,30.0
387.26,36.0
387.32,41.0
387.39,38.0
387.45,43.0
387.51,31.0
387.58,53.0
387.64,51.0
387.7,48.0
387.76,49.0
387.83,46.0
387.89,56.0
387.95,84.0
388.02,77.0
388.08,65.0
388.14,55.0
388.21,57.0
388.27,66.0
388.33,33.0
388.39,54.0
388.46,58.0
388.52,47.0
388.58,75.0
388.65,58.0
388.71,51.0
388.77,45.0
388.84,65.0
388.9,63.0
388.96,36.0
389.02,56.0
389.09,69.0
389.15,61.0
389.21,76.0
389.28,40.0
389.34,49.0
389.4,56.0
389.47,77.0
389.53,82.0
389.59,79.0
389.65,70.0
389.72,77.0
389.78,86.0
389.84,69.0
389.91,90.0
389.97,84.0
390.03,79.0
390.1,73.0
390.16,77.0
390.22,90.0
390.28,67.0
390.35,89.0
390.41,110.0
390.47,104.0
390.54,90.0
390.6,95.0
390.66,91.0
390.73,94.0
390.79,98.0
390.85,101.0
390.91,111.0
390.98,109.0
391.04,133.0
391.1,134.0
391.17,123.0
391.23,121.0
391.29,124.0
391.36,131.0
391.42,119.0
391.48,122.0
391.54,127.0
391.61,110.0
391.67,132.0
391.73,122.0
391.8,121.0
391.86,129.0
391.92,139.0
391.99,122.0
392.05,119.0
392.11,142.0
392.17,124.0
392.24,116.0
392.3,97.0
392.36,85.0
392.43,104.0
392.49,102.0
392.55,95.0
392.62,109.0
392.68,91.0
392.74,119.0
392.8,98.0
392.87,116.0
392.93,103.0
392.99,98.0
393.06,101.0
393.12,80.0
393.18,63.0
393.25,58.0
393.31,82.0
393.37,81.0
393.43,65.0
393.5,90.0
393.56,88.0
393.62,91.0
393.69,74.0
393.75,69.0
393.81,79.0
393.88,59.0
393.94,60.0
394.0,64.0
394.06,70.0
394.13,72.0
394.19,92.0
394.25,84.0
394.32,69.0
394.38,82.0
394.44,94.0
394.51,101.0
394.57,70.0
394.63,84.0
394.69,93.0
394.76,80.0
394.82,74.0
394.88,102.0
394.95,85.0
395.01,77.0
395.07,96.0
395.14,93.0
395.2,87.0
395.26,80.0
395.32,80.0
395.39,82.0
395.45,66.0
395.51,68.0
395.58,68.0
395.64,79.0
395.7,79.0
395.77,64.0
395.83,85.0
395.89,112.0
395.95,95.0
396.02,88.0
396.08,98.0
396.14,107.0
396.21,102.0
396.27,90.0
396.33,113.0
396.4,103.0
396.46,81.0
396.52,124.0
396.58,112.0
396.65,112.0
396.71,108.0
396.77,108.0
396.84,110.0
396.9,108.0
396.96,83.0
397.03,97.0
397.09,88.0
397.15,101.0
397.21,117.0
397.28,108.0
397.34,101.0
397.4,80.0
397.47,116.0
397.53,94.0
397.59,111.0
397.66,116.0
397.72,109.0
397.78,102.0
397.84,107.0
397.91,110.0
397.97,121.0
398.03,124.0
398.1,127.0
398.16,127.0
398.22,120.0
398.29,107.0
398.35,116.0
398.41,123.0
398.47,101.0
398.54,107.0
398.6,125.0
398.66,89.0
398.73,89.0
398.79,107.0
398.85,94.0
398.92,112.0
398.98,119.0
399.04,104.0
399.1,96.0
399.17,91.0
399.23,82.0
399.29,94.0
399.36,83.0
399.42,73.0
399.48,79.0
399.55,82.0
399.61,82.0
399.67,78.0
399.73,77.0
399.8,67.0
399.86,76.0
399.92,82.0
399.99,81.0
400.05,78.0
400.11,72.0
400.18,76.0
400.24,95.0
400.3,91.0
400.36,77.0
400.43,72.0
400.49,107.0
400.55,102.0
400.62,91.0
400.68,64.0
400.74,79.0
400.81,73.0
400.87,55.0
400.93,68.0
400.99,57.0
401.06,55.0
401.12,54.0
401.18,58.0
401.25,58.0
401.31,29.0
401.37,52.0
401.44,55.0
401.5,59.0
401.56,42.0
401.62,51.0
401.69,58.0
401.75,56.0
401.81,53.0
401.88,69.0
401.94,60.0
402.0,43.0
402.07,62.0
402.13,36.0
402.19,58.0
402.25,53.0
402.32,67.0
402.38,69.0
402.44,60.0
402.51,71.0
402.57,72.0
402.63,90.0
402.7,59.0
402.76,71.0
402.82,73.0
402.88,71.0
402.95,78.0
403.01,74.0
403.07,80.0
403.14,83.0
403.2,76.0
403.26,58.0
403.33,62.0
403.39,65.0
403.45,64.0
403.51,62.0
403.58,59.0
403.64,40.0
403.7,65.0
403.77,79.0
403.83,63.0
403.89,66.0
403.96,68.0
404.02,79.0
404.08,74.0
404.14,72.0
404.21,72.0
404.27,88.0
404.33,76.0
404.4,63.0
404.46,63.0
404.52,46.0
404.59,58.0
404.65,60.0
404.71,72.0
404.77,73.0
404.84,71.0
404.9,50.0
404.96,70.0
405.03,80.0
405.09,75.0
405.15,67.0
405.22,68.0
405.28,71.0
405.34,67.0
405.4,74.0
405.47,84.0
405.53,71.0
405.59,78.0
405.66,84.0
405.72,98.0
405.78,118.0
405.85,109.0
405.91,104.0
405.97,128.0
406.03,126.0
406.1,114.0
406.16,125.0
406.22,126.0
406.29,128.0
406.35,122.0
406.41,120.0
406.48,106.0
406.54,105.0
406.6,124.0
406.66,99.0
406.73,108.0
406.79,98.0
406.85,105.0
406.92,113.0
406.98,101.0
407.04,91.0
407.11,93.0
407.17,91.0
407.23,76.0
407.29,106.0
407.36,104.0
407.42,80.0
407.48,68.0
407.55,84.0
407.61,60.0
407.67,61.0
407.74,74.0
407.8,76.0
407.86,75.0
407.92,82.0
407.99,67.0
408.05,74.0
408.11,85.0
408.18,87.0
408.24,79.0
408.3,87.0
408.37,85.0
408.43,71.0
408.49,81.0
408.55,98.0
408.62,99.0
408.68,88.0
408.74,95.0
408.81,83.0
408.87,86.0
408.93,96.0
409.0,93.0
409.06,102.0
409.12,87.0
409.18,63.0
409.25,76.0
409.31,56.0
409.37,54.0
409.44,53.0
409.5,50.0
409.56,38.0
409.63,40.0
409.69,40.0
409.75,33.0
409.81,51.0
409.88,45.0
409.94,24.0
410.0,45.0
410.07,28.0
410.13,16.0
410.19,15.0
410.26,21.0
410.32,15.0
410.38,5.0
410.44,-1.0
410.51,4.0
410.57,-6.0
410.63,-6.0
410.7,7.0
410.76,18.0
410.82,8.0
410.89,22.0
410.95,39.0
411.01,34.0
411.07,46.0
411.14,44.0
411.2,54.0
411.26,53.0
411.33,30.0
411.39,28.0
411.45,36.0
411.52,37.0
411.58,12.0
411.64,33.0
411.7,39.0
411.77,53.0
411.83,43.0
411.89,51.0
411.96,57.0
412.02,55.0
412.08,55.0
412.15,67.0
412.21,89.0
412.27,85.0
412.33,80.0
412.4,66.0
412.46,71.0
412.52,72.0
412.59,87.0
412.65,80.0
412.71,80.0
412.78,93.0
412.84,93.0
412.9,100.0
412.96,96.0
413.03,98.0
413.09,91.0
413.15,84.0
413.22,91.0
413.28,99.0
413.34,78.0
413.41,106.0
413.47,71.0
413.53,61.0
413.59,61.0
413.66,52.0
413.72,60.0
413.78,65.0
413.85,59.0
413.91,49.0
413.97,55.0
414.04,45.0
414.1,71.0
414.16,55.0
414.22,52.0
414.29,56.0
414.35,63.0
414.41,79.0
414.48,93.0
414.54,75.0
414.6,96.0
414.67,77.0
414.73,85.0
414.79,102.0
414.85,90.0
414.92,102.0
414.98,113.0
415.04,97.0
415.11,107.0
415.17,84.0
415.23,106.0
415.3,89.0
415.36,72.0
415.42,103.0
415.48,100.0
415.55,101.0
415.61,116.0
415.67,120.0
415.74,119.0
415.8,123.0
415.86,121.0
415.93,99.0
415.99,93.0
416.05,100.0
416.11,107.0
416.18,98.0
416.24,122.0
416.3,107.0
416.37,111.0
416.43,109.0
416.49,120.0
416.56,126.0
416.62,148.0
416.68,115.0
416.74,117.0
416.81,107.0
416.87,116.0
416.93,105.0
417.0,96.0
417.06,115.0
417.12,117.0
417.19,98.0
417.25,75.0
417.31,107.0
417.37,100.0
417.44,94.0
417.5,87.0
417.56,83.0
417.63,84.0
417.69,79.0
417.75,74.0
417.82,79.0
417.88,74.0
417.94,89.0
418.0,73.0
418.07,91.0
418.13,95.0
418.19,98.0
418.26,95.0
418.32,86.0
418.38,109.0
418.45,102.0
418.51,98.0
418.57,110.0
418.63,92.0
418.7,91.0
418.76,78.0
418.82,65.0
418.89,59.0
418.95,77.0
419.01,58.0
419.08,66.0
419.14,61.0
419.2,81.0
419.26,68.0
419.33,86.0
419.39,70.0
419.45,53.0
419.52,75.0
419.58,62.0
419.64,72.0
419.71,74.0
419.77,60.0
419.83,59.0
419.89,89.0
419.96,79.0
420.02,77.0
420.08,64.0
420.15,80.0
420.21,85.0
420.27,82.0
420.34,95.0
420.4,70.0
420.46,86.0
420.52,91.0
420.59,103.0
420.65,126.0
420.71,108.0
420.78,96.0
420.84,114.0
420.9,105.0
420.97,107.0
421.03,115.0
421.09,114.0
421.15,107.0
421.22,104.0
421.28,100.0
421.34,110.0
421.41,119.0
421.47,122.0
421.53,122.0
421.6,115.0
421.66,115.0
421.72,122.0
421.78,114.0
421.85,123.0
421.91,135.0
421.97,107.0
422.04,121.0
422.1,115.0
422.16,105.0
422.23,103.0
422.29,107.0
422.35,108.0
422.41,87.0
422.48,101.0
422.54,105.0
422.6,112.0
422.67,110.0
422.73,113.0
422.79,92.0
422.86,97.0
422.92,102.0
422.98,101.0
423.04,89.0
423.11,100.0
423.17,84.0
423.23,78.0
423.3,81.0
423.36,79.0
423.42,90.0
423.49,85.0
423.55,98.0
423.61,96.0
423.67,84.0
423.74,107.0
423.8,83.0
423.86,71.0
423.93,75.0
423.99,92.0
424.05,103.0
424.12,89.0
424.18,88.0
424.24,92.0
424.3,101.0
424.37,90.0
424.43,79.0
424.49,82.0
424.56,67.0
424.62,83.0
424.68,83.0
424.75,82.0
424.81,71.0
424.87,70.0
424.93,67.0
425.0,58.0
425.06,70.0
425.12,63.0
425.19,56.0
425.25,61.0
425.31,56.0
425.38,52.0
425.44,57.0
425.5,52.0
425.56,57.0
425.63,56.0
425.69,68.0
425.75,69.0
425.82,67.0
425.88,91.0
425.94,75.0
426.01,65.0
426.07,75.0
426.13,68.0
426.19,73.0
426.26,60.0
426.32,61.0
426.38,52.0
426.45,49.0
426.51,58.0
426.57,61.0
426.64,66.0
426.7,75.0
426.76,67.0
426.82,74.0
426.89,74.0
426.95,70.0
427.01,56.0
427.08,69.0
427.14,71.0
427.2,67.0
427.27,66.0
427.33,77.0
427.39,75.0
427.45,92.0
427.52,76.0
427.58,65.0
427.64,56.0
427.71,69.0
427.77,66.0
427.83,66.0
427.9,58.0
427.96,59.0
428.02,69.0
428.08,76.0
428.15,70.0
428.21,66.0
428.27,81.0
428.34,78.0
428.4,79.0
428.46,78.0
428.53,80.0
428.59,71.0
428.65,67.0
428.71,89.0
428.78,74.0
428.84,63.0
428.9,51.0
428.97,53.0
429.03,63.0
429.09,78.0
429.16,77.0
429.22,67.0
429.28,78.0
429.34,74.0
429.41,98.0
429.47,84.0
429.53,76.0
429.6,88.0
429.66,85.0
429.72,101.0
429.79,80.0
429.85,72.0
429.91,86.0
429.97,100.0
430.04,107.0
430.1,91.0
430.16,125.0
430.23,116.0
430.29,125.0
430.35,116.0
430.42,111.0
430.48,120.0
430.54,135.0
430.6,129.0
430.67,133.0
430.73,148.0
430.79,135.0
430.86,132.0
430.92,107.0
430.98,124.0
431.05,129.0
431.11,125.0
431.17,133.0
431.23,141.0
431.3,133.0
431.36,121.0
431.42,125.0
431.49,115.0
431.55,118.0
431.61,150.0
431.68,144.0
431.74,144.0
431.8,147.0
431.86,138.0
431.93,163.0
431.99,129.0
432.05,116.0
432.12,103.0
432.18,108.0
432.24,142.0
432.31,143.0
432.37,136.0
432.43,124.0
432.49,134.0
432.56,116.0
432.62,133.0
432.68,128.0
432.75,124.0
432.81,121.0
432.87,103.0
432.94,129.0
433.0,111.0
433.06,118.0
433.12,110.0
433.19,100.0
433.25,118.0
433.31,105.0
433.38,119.0
433.44,97.0
433.5,95.0
433.57,96.0
433.63,102.0
433.69,115.0
433.75,97.0
433.82,92.0
433.88,97.0
433.94,111.0
434.01,124.0
434.07,111.0
434.13,108.0
434.2,112.0
434.26,102.0
434.32,99.0
434.38,105.0
434.45,85.0
434.51,100.0
434.57,91.0
434.64,96.0
434.7,93.0
434.76,85.0
434.83,77.0
434.89,85.0
434.95,98.0
435.01,82.0
435.08,60.0
435.14,92.0
435.2,82.0
435.27,80.0
435.33,88.0
435.39,90.0
435.46,93.0
435.52,91.0
435.58,98.0
435.64,79.0
435.71,99.0
435.77,62.0
435.83,63.0
435.9,78.0
435.96,73.0
436.02,64.0
436.09,67.0
436.15,82.0
436.21,69.0
436.27,69.0
436.34,60.0
436.4,52.0
436.46,52.0
436.53,64.0
436.59,81.0
436.65,81.0
436.72,90.0
436.78,86.0
436.84,59.0
436.9,67.0
436.97,70.0
437.03,77.0
437.09,96.0
437.16,86.0
437.22,83.0
437.28,86.0
437.35,102.0
437.41,100.0
437.47,89.0
437.53,92.0
437.6,119.0
437.66,126.0
437.72,115.0
437.79,125.0
437.85,118.0
437.91,105.0
437.98,108.0
438.04,118.0
438.1,107.0
438.16,91.0
438.23,93.0
438.29,88.0
438.35,82.0
438.42,112.0
438.48,125.0
438.54,122.0
438.61,130.0
438.67,138.0
438.73,136.0
438.79,129.0
438.86,134.0
438.92,136.0
438.98,142.0
439.05,118.0
439.11,137.0
439.17,144.0
439.24,138.0
439.3,157.0
439.36,156.0
439.42,156.0
439.49,160.0
439.55,178.0
439.61,199.0
439.68,191.0
439.74,184.0
439.8,175.0
439.87,166.0
439.93,167.0
439.99,166.0
440.05,155.0
440.12,160.0
440.18,136.0
440.24,157.0
440.31,153.0
440.37,155.0
440.43,184.0
440.5,173.0
440.56,171.0
440.62,185.0
440.68,166.0
440.75,169.0
440.81,199.0
440.87,207.0
440.94,191.0
441.0,174.0
441.06,202.0
441.13,191.0
441.19,220.0
441.25,229.0
441.31,218.0
441.38,212.0
441.44,217.0
441.5,217.0
441.57,209.0
441.63,206.0
441.69,218.0
441.76,221.0
441.82,219.0
441.88,216.0
441.94,218.0
442.01,201.0
442.07,162.0
442.13,192.0
442.2,185.0
442.26,174.0
442.32,167.0
442.39,171.0
442.45,180.0
442.51,173.0
442.57,153.0
442.64,167.0
442.7,174.0
442.76,173.0
442.83,151.0
442.89,152.0
442.95,157.0
443.02,159.0
443.08,141.0
443.14,135.0
443.2,126.0
443.27,121.0
443.33,121.0
443.39,124.0
443.46,110.0
443.52,101.0
443.58,101.0
443.65,81.0
443.71,89.0
443.77,93.0
443.83,96.0
443.9,108.0
443.96,116.0
444.02,83.0
444.09,83.0
444.15,103.0
444.21,104.0
444.28,109.0
444.34,130.0
444.4,124.0
444.46,111.0
444.53,112.0
444.59,97.0
444.65,107.0
444.72,93.0
444.78,100.0
444.84,94.0
444.91,107.0
444.97,121.0
445.03,107.0
445.09,120.0
445.16,114.0
445.22,149.0
445.28,127.0
445.35,108.0
445.41,118.0
445.47,123.0
445.54,124.0
445.6,140.0
445.66,151.0
445.72,155.0
445.79,115.0
445.85,141.0
445.91,159.0
445.98,162.0
446.04,151.0
446.1,146.0
446.17,143.0
446.23,159.0
446.29,160.0
446.35,160.0
446.42,158.0
446.48,147.0
446.54,140.0
446.61,139.0
446.67,155.0
446.73,165.0
446.8,165.0
446.86,164.0
446.92,158.0
446.98,159.0
447.05,148.0
447.11,124.0
447.17,143.0
447.24,147.0
447.3,168.0
447.36,137.0
447.43,144.0
447.49,162.0
447.55,145.0
447.61,158.0
447.68,167.0
447.74,144.0
447.8,157.0
447.87,155.0
447.93,154.0
447.99,151.0
448.06,147.0
448.12,172.0
448.18,162.0
448.24,144.0
448.31,151.0
448.37,146.0
448.43,154.0
448.5,155.0
448.56,133.0
448.62,127.0
448.69,122.0
448.75,121.0
448.81,148.0
448.87,138.0
448.94,157.0
449.0,149.0
449.06,158.0
449.13,149.0
449.19,135.0
449.25,140.0
449.32,135.0
449.38,131.0
449.44,119.0
449.5,117.0
449.57,127.0
449.63,129.0
449.69,116.0
449.76,128.0
449.82,133.0
449.88,133.0
449.95,104.0
450.01,121.0
450.07,95.0
450.13,101.0
450.2,93.0
450.26,89.0
450.32,95.0
450.39,103.0
450.45,110.0
450.51,91.0
450.58,93.0
450.64,111.0
450.7,118.0
450.76,108.0
450.83,125.0
450.89,114.0
450.95,99.0
451.02,111.0
451.08,85.0
451.14,95.0
451.21,110.0
451.27,97.0
451.33,87.0
451.39,87.0
451.46,80.0
451.52,99.0
451.58,91.0
451.65,78.0
451.71,61.0
451.77,83.0
451.84,74.0
451.9,49.0
451.96,57.0
452.02,78.0
452.09,85.0
452.15,91.0
452.21,73.0
452.28,64.0
452.34,76.0
452.4,66.0
452.47,64.0
452.53,57.0
452.59,54.0
452.65,61.0
452.72,49.0
452.78,53.0
452.84,59.0
452.91,68.0
452.97,63.0
453.03,71.0
453.1,82.0
453.16,56.0
453.22,63.0
453.28,66.0
453.35,70.0
453.41,67.0
453.47,78.0
453.54,74.0
453.6,73.0
453.66,60.0
453.73,78.0
453.79,55.0
453.85,57.0
453.91,66.0
453.98,78.0
454.04,66.0
454.1,82.0
454.17,73.0
454.23,74.0
454.29,94.0
454.36,78.0
454.42,66.0
454.48,68.0
454.54,82.0
454.61,67.0
454.67,74.0
454.73,66.0
454.8,69.0
454.86,86.0
454.92,87.0
454.99,94.0
455.05,100.0
455.11,107.0
455.17,110.0
455.24,94.0
455.3,75.0
455.36,73.0
455.43,85.0
455.49,94.0
455.55,113.0
455.62,114.0
455.68,116.0
455.74,127.0
455.8,128.0
455.87,134.0
455.93,107.0
455.99,114.0
456.06,127.0
456.12,108.0
456.18,100.0
456.25,99.0
456.31,107.0
456.37,101.0
456.43,110.0
456.5,114.0
456.56,121.0
456.62,115.0
456.69,111.0
456.75,111.0
456.81,125.0
456.88,132.0
456.94,129.0
457.0,131.0
457.06,137.0
457.13,135.0
457.19,129.0
457.25,149.0
457.32,132.0
457.38,146.0
457.44,137.0
457.51,111.0
457.57,130.0
457.63,132.0
457.69,152.0
457.76,133.0
457.82,140.0
457.88,156.0
457.95,153.0
458.01,141.0
458.07,140.0
458.14,143.0
458.2,130.0
458.26,141.0
458.32,127.0
458.39,126.0
458.45,111.0
458.51,115.0
458.58,108.0
458.64,105.0
458.7,99.0
458.77,91.0
458.83,69.0
458.89,74.0
458.95,81.0
459.02,73.0
459.08,72.0
459.14,62.0
459.21,71.0
459.27,58.0
459.33,78.0
459.4,51.0
459.46,25.0
459.52,39.0
459.58,64.0
459.65,49.0
459.71,39.0
459.77,74.0
459.84,72.0
459.9,52.0
459.96,73.0
460.03,92.0
460.09,83.0
460.15,60.0
460.21,52.0
460.28,54.0
460.34,75.0
460.4,63.0
460.47,41.0
460.53,55.0
460.59,69.0
460.66,55.0
460.72,64.0
460.78,66.0
460.84,71.0
460.91,64.0
460.97,50.0
461.03,61.0
461.1,71.0
461.16,49.0
461.22,48.0
461.29,60.0
461.35,50.0
461.41,46.0
461.47,53.0
461.54,39.0
461.6,45.0
461.66,63.0
461.73,62.0
461.79,59.0
461.85,47.0
461.92,45.0
461.98,33.0
462.04,46.0
462.1,47.0
462.17,40.0
462.23,64.0
462.29,51.0
462.36,43.0
462.42,48.0
462.48,52.0
462.55,73.0
462.61,83.0
462.67,83.0
462.73,63.0
462.8,60.0
462.86,44.0
462.92,65.0
462.99,78.0
463.05,54.0
463.11,55.0
463.18,53.0
463.24,53.0
463.3,36.0
463.36,34.0
463.43,41.0
463.49,44.0
463.55,34.0
463.62,52.0
463.68,48.0
463.74,51.0
463.81,45.0
463.87,37.0
463.93,69.0
463.99,64.0
464.06,58.0
464.12,68.0
464.18,72.0
464.25,69.0
464.31,81.0
464.37,64.0
464.44,86.0
464.5,104.0
464.56,85.0
464.62,77.0
464.69,75.0
464.75,77.0
464.81,122.0
464.88,97.0
464.94,70.0
465.0,86.0
465.07,86.0
465.13,74.0
465.19,81.0
465.25,74.0
465.32,77.0
465.38,82.0
465.44,92.0
465.51,88.0
465.57,83.0
465.63,88.0
465.7,92.0
465.76,78.0
465.82,90.0
465.88,75.0
465.95,73.0
466.01,97.0
466.07,79.0
466.14,69.0
466.2,60.0
466.26,68.0
466.33,72.0
466.39,63.0
466.45,73.0
466.51,84.0
466.58,72.0
466.64,74.0
466.7,72.0
466.77,83.0
466.83,93.0
466.89,88.0
466.96,93.0
467.02,88.0
467.08,89.0
467.14,89.0
467.21,89.0
467.27,76.0
467.33,69.0
467.4,83.0
467.46,78.0
467.52,83.0
467.59,79.0
467.65,81.0
467.71,88.0
467.77,72.0
467.84,59.0
467.9,48.0
467.96,57.0
468.03,59.0
468.09,56.0
468.15,45.0
468.22,55.0
468.28,65.0
468.34,34.0
468.4,32.0
468.47,34.0
468.53,29.0
468.59,25.0
468.66,28.0
468.72,37.0
468.78,37.0
468.85,28.0
468.91,25.0
468.97,33.0
469.03,49.0
469.1,38.0
469.16,38.0
469.22,49.0
469.29,50.0
469.35,43.0
469.41,32.0
469.48,55.0
469.54,47.0
469.6,39.0
469.66,53.0
469.73,56.0
469.79,43.0
469.85,64.0
469.92,49.0
469.98,63.0
470.04,55.0
470.11,58.0
470.17,70.0
470.23,77.0
470.29,86.0
470.36,67.0
470.42,71.0
470.48,100.0
470.55,99.0
470.61,101.0
470.67,93.0
470.74,106.0
470.8,96.0
470.86,86.0
470.92,107.0
470.99,111.0
471.05,89.0
471.11,93.0
471.18,88.0
471.24,83.0
471.3,96.0
471.37,97.0
471.43,96.0
471.49,105.0
471.55,87.0
471.62,83.0
471.68,91.0
471.74,120.0
471.81,124.0
471.87,96.0
471.93,123.0
472.0,119.0
472.06,119.0
472.12,125.0
472.18,130.0
472.25,135.0
472.31,149.0
472.37,156.0
472.44,166.0
472.5,154.0
472.56,122.0
472.63,121.0
472.69,133.0
472.75,135.0
472.81,162.0
472.88,139.0
472.94,158.0
473.0,127.0
473.07,111.0
473.13,98.0
473.19,87.0
473.26,97.0
473.32,76.0
473.38,70.0
473.44,73.0
473.51,67.0
473.57,75.0
473.63,76.0
473.7,80.0
473.76,86.0
473.82,88.0
473.89,104.0
473.95,85.0
474.01,83.0
474.07,88.0
474.14,88.0
474.2,102.0
474.26,95.0
474.33,89.0
474.39,100.0
474.45,108.0
474.52,103.0
474.58,97.0
474.64,102.0
474.7,107.0
474.77,105.0
474.83,100.0
474.89,111.0
474.96,96.0
475.02,88.0
475.08,105.0
475.15,115.0
475.21,113.0
475.27,96.0
475.33,111.0
475.4,113.0
475.46,104.0
475.52,97.0
475.59,103.0
475.65,86.0
475.71,92.0
475.78,85.0
475.84,78.0
475.9,99.0
475.96,80.0
476.03,81.0
476.09,88.0
476.15,97.0
476.22,100.0
476.28,94.0
476.34,88.0
476.41,81.0
476.47,82.0
476.53,75.0
476.59,89.0
476.66,94.0
476.72,108.0
476.78,131.0
476.85,100.0
476.91,98.0
476.97,109.0
477.04,97.0
477.1,103.0
477.16,86.0
477.22,90.0
477.29,74.0
477.35,69.0
477.41,89.0
477.48,72.0
477.54,97.0
477.6,91.0
477.67,83.0
477.73,68.0
477.79,51.0
477.85,70.0
477.92,75.0
477.98,73.0
478.04,56.0
478.11,62.0
478.17,62.0
478.23,82.0
478.3,80.0
478.36,82.0
478.42,100.0
478.48,103.0
478.55,112.0
478.61,121.0
478.67,122.0
478.74,119.0
478.8,124.0
478.86,106.0
478.93,98.0
478.99,102.0
479.05,107.0
479.11,113.0
479.18,114.0
479.24,102.0
479.3,103.0
479.37,107.0
479.43,119.0
479.49,125.0
479.56,125.0
479.62,129.0
479.68,126.0
479.74,133.0
479.81,113.0
479.87,117.0
479.93,129.0
480.0,133.0
480.06,122.0
480.12,132.0
480.19,144.0
480.25,117.0
480.31,132.0
480.37,118.0
480.44,123.0
480.5,138.0
480.56,141.0
480.63,156.0
480.69,145.0
480.75,157.0
480.82,168.0
480.88,167.0
480.94,166.0
481.0,169.0
481.07,181.0
481.13,179.0
481.19,177.0
481.26,188.0
481.32,185.0
481.38,184.0
481.45,162.0
481.51,189.0
481.57,194.0
481.63,180.0
481.7,194.0
481.76,154.0
481.82,147.0
481.89,155.0
481.95,154.0
482.01,161.0
482.08,146.0
482.14,143.0
482.2,144.0
482.26,147.0
482.33,140.0
482.39,147.0
482.45,149.0
482.52,139.0
482.58,123.0
482.64,129.0
482.71,129.0
482.77,116.0
482.83,117.0
482.89,100.0
482.96,83.0
483.02,86.0
483.08,99.0
483.15,91.0
483.21,70.0
483.27,74.0
483.34,93.0
483.4,86.0
483.46,72.0
483.52,86.0
483.59,82.0
483.65,68.0
483.71,70.0
483.78,68.0
483.84,66.0
483.9,77.0
483.97,77.0
484.03,68.0
484.09,77.0
484.15,63.0
484.22,56.0
484.28,54.0
484.34,70.0
484.41,56.0
484.47,47.0
484.53,36.0
484.6,40.0
484.66,42.0
484.72,18.0
484.78,38.0
484.85,45.0
484.91,26.0
484.97,38.0
485.04,35.0
485.1,27.0
485.16,45.0
485.23,52.0
485.29,43.0
485.35,32.0
485.41,26.0
485.48,34.0
485.54,35.0
485.6,23.0
485.67,34.0
485.73,41.0
485.79,37.0
485.86,24.0
485.92,10.0
485.98,13.0
486.04,8.0
486.11,26.0
486.17,29.0
486.23,16.0
486.3,29.0
486.36,50.0
486.42,41.0
486.49,59.0
486.55,71.0
486.61,53.0
486.67,66.0
486.74,75.0
486.8,48.0
486.86,78.0
486.93,79.0
486.99,74.0
487.05,101.0
487.12,93.0
487.18,115.0
487.24,73.0
487.3,92.0
487.37,96.0
487.43,84.0
487.49,90.0
487.56,110.0
487.62,117.0
487.68,89.0
487.75,88.0
487.81,92.0
487.87,118.0
487.93,111.0
488.0,96.0
488.06,93.0
488.12,91.0
488.19,108.0
488.25,94.0
488.31,116.0
488.38,110.0
488.44,106.0
488.5,130.0
488.56,139.0
488.63,147.0
488.69,127.0
488.75,119.0
488.82,147.0
488.88,136.0
488.94,162.0
489.01,133.0
489.07,132.0
489.13,145.0
489.19,148.0
489.26,173.0
489.32,188.0
489.38,180.0
489.45,159.0
489.51,162.0
489.57,159.0
489.64,175.0
489.7,170.0
489.76,155.0
489.82,138.0
489.89,163.0
489.95,141.0
490.01,143.0
490.08,152.0
490.14,157.0
490.2,140.0
490.27,140.0
490.33,147.0
490.39,162.0
490.45,132.0
490.52,114.0
490.58,120.0
490.64,156.0
490.71,155.0
490.77,147.0
490.83,166.0
490.9,165.0
490.96,178.0
491.02,165.0
491.08,177.0
491.15,169.0
491.21,149.0
491.27,160.0
491.34,177.0
491.4,149.0
491.46,158.0
491.53,148.0
491.59,148.0
491.65,162.0
491.71,151.0
491.78,154.0
491.84,143.0
491.9,155.0
491.97,152.0
492.03,140.0
492.09,149.0
492.16,137.0
492.22,133.0
492.28,140.0
492.34,107.0
492.41,109.0
492.47,104.0
492.53,107.0
492.6,112.0
492.66,113.0
492.72,110.0
492.79,108.0
492.85,122.0
492.91,118.0
492.97,96.0
493.04,98.0
493.1,93.0
493.16,101.0
493.23,88.0
493.29,72.0
493.35,85.0
493.42,87.0
493.48,91.0
493.54,77.0
493.6,64.0
493.67,74.0
493.73,71.0
493.79,55.0
493.86,63.0
493.92,70.0
493.98,78.0
494.05,64.0
494.11,55.0
494.17,66.0
494.23,75.0
494.3,64.0
494.36,51.0
494.42,80.0
494.49,69.0
494.55,65.0
494.61,74.0
494.68,92.0
494.74,87.0
494.8,73.0
494.86,55.0
494.93,58.0
494.99,38.0
495.05,30.0
495.12,50.0
495.18,42.0
495.24,56.0
495.31,78.0
495.37,64.0
495.43,61.0
495.49,72.0
495.56,73.0
495.62,88.0
495.68,68.0
495.75,71.0
495.81,85.0
495.87,81.0
495.94,83.0
496.0,74.0
496.06,82.0
496.12,107.0
496.19,107.0
496.25,81.0
496.31,78.0
496.38,79.0
496.44,91.0
496.5,92.0
496.57,102.0
496.63,79.0
496.69,111.0
496.75,82.0
496.82,82.0
496.88,88.0
496.94,86.0
497.01,85.0
497.07,92.0
497.13,81.0
497.2,87.0
497.26,108.0
497.32,102.0
497.38,102.0
497.45,100.0
497.51,92.0
497.57,103.0
497.64,91.0
497.7,100.0
497.76,91.0
497.83,85.0
497.89,96.0
497.95,93.0
498.01,97.0
498.08,105.0
498.14,104.0
498.2,100.0
498.27,83.0
498.33,98.0
498.39,94.0
498.46,87.0
498.52,92.0
498.58,107.0
498.64,96.0
498.71,96.0
498.77,94.0
498.83,71.0
498.9,70.0
498.96,66.0
499.02,61.0
499.09,73.0
499.15,86.0
499.21,64.0
499.27,73.0
499.34,76.0
499.4,72.0
499.46,78.0
499.53,78.0
499.59,52.0
499.65,29.0
499.72,37.0
499.78,45.0
499.84,32.0
499.9,25.0
499.97,42.0
500.03,39.0
500.09,49.0
500.16,30.0
500.22,30.0
500.28,34.0
500.35,31.0
500.41,33.0
500.47,30.0
500.53,34.0
500.6,43.0
500.66,27.0
500.72,14.0
500.79,23.0
500.85,39.0
500.91,7.0
500.98,17.0
501.04,44.0
501.1,66.0
501.16,26.0
501.23,39.0
501.29,42.0
501.35,40.0
501.42,18.0
501.48,15.0
501.54,18.0
501.61,6.0
501.67,0.0
501.73,4.0
501.79,9.0
501.86,-6.0
501.92,8.0
501.98,-7.0
502.05,-21.0
502.11,-26.0
502.17,-19.0
502.24,-7.0
502.3,-8.0
502.36,3.0
502.42,-8.0
502.49,-14.0
502.55,5.0
502.61,25.0
502.68,10.0
502.74,8.0
502.8,0.0
502.87,-11.0
502.93,-6.0
502.99,-13.0
503.05,-22.0
503.12,-7.0
503.18,-12.0
503.24,9.0
503.31,6.0
503.37,13.0
503.43,-2.0
503.5,13.0
503.56,23.0
503.62,26.0
503.68,38.0
503.75,29.0
503.81,21.0
503.87,49.0
503.94,51.0
504.0,53.0
504.06,59.0
504.13,59.0
504.19,32.0
504.25,38.0
504.31,49.0
504.38,59.0
504.44,59.0
504.5,54.0
504.57,69.0
504.63,59.0
504.69,56.0
504.76,66.0
504.82,76.0
504.88,71.0
504.94,85.0
505.01,86.0
505.07,100.0
505.13,105.0
505.2,100.0
505.26,98.0
505.32,95.0
505.39,104.0
505.45,111.0
505.51,104.0
505.57,108.0
505.64,98.0
505.7,112.0
505.76,126.0
505.83,118.0
505.89,110.0
505.95,112.0
506.02,133.0
506.08,118.0
506.14,111.0
506.2,121.0
506.27,110.0
506.33,125.0
506.39,146.0
506.46,127.0
506.52,107.0
506.58,96.0
506.65,89.0
506.71,96.0
506.77,104.0
506.83,102.0
506.9,109.0
506.96,115.0
507.02,113.0
507.09,92.0
507.15,100.0
507.21,106.0
507.28,110.0
507.34,115.0
507.4,117.0
507.46,115.0
507.53,106.0
507.59,106.0
507.65,113.0
507.72,95.0
507.78,93.0
507.84,119.0
507.91,127.0
507.97,133.0
508.03,131.0
508.09,117.0
508.16,127.0
508.22,140.0
508.28,140.0
508.35,133.0
508.41,152.0
508.47,157.0
508.54,144.0
508.6,141.0
508.66,152.0
508.72,151.0
508.79,129.0
508.85,125.0
508.91,129.0
508.98,130.0
509.04,112.0
509.1,114.0
509.17,121.0
509.23,117.0
509.29,101.0
509.35,99.0
509.42,89.0
509.48,89.0
509.54,92.0
509.61,86.0
509.67,109.0
509.73,104.0
509.8,111.0
509.86,110.0
509.92,106.0
509.98,110.0
510.05,114.0
510.11,118.0
510.17,104.0
510.24,114.0
510.3,92.0
510.36,111.0
510.43,115.0
510.49,90.0
510.55,100.0
510.61,92.0
510.68,90.0
510.74,104.0
510.8,107.0
510.87,111.0
510.93,93.0
510.99,93.0
511.06,107.0
511.12,111.0
511.18,133.0
511.24,112.0
511.31,122.0
511.37,109.0
511.43,141.0
511.5,134.0
511.56,103.0
511.62,130.0
511.69,126.0
511.75,126.0
511.81,136.0
511.87,138.0
511.94,134.0
512.0,128.0
512.06,141.0
512.13,145.0
512.19,133.0
512.25,146.0
512.32,128.0
512.38,122.0
512.44,137.0
512.5,142.0
512.57,128.0
512.63,131.0
512.69,129.0
512.76,139.0
512.82,152.0
512.88,155.0
512.95,153.0
513.01,163.0
513.07,173.0
513.13,154.0
513.2,185.0
513.26,197.0
513.32,188.0
513.39,178.0
513.45,194.0
513.51,193.0
513.58,184.0
513.64,202.0
513.7,190.0
513.76,187.0
513.83,173.0
513.89,196.0
513.95,192.0
514.02,180.0
514.08,184.0
514.14,173.0
514.21,169.0
514.27,185.0
514.33,169.0
514.39,163.0
514.46,152.0
514.52,148.0
514.58,169.0
514.65,159.0
514.71,145.0
514.77,152.0
514.84,175.0
514.9,162.0
514.96,134.0
515.02,143.0
515.09,135.0
515.15,163.0
515.21,150.0
515.28,151.0
515.34,132.0
515.4,131.0
515.47,147.0
515.53,139.0
515.59,140.0
515.65,127.0
515.72,133.0
515.78,131.0
515.84,138.0
515.91,127.0
515.97,123.0
516.03,135.0
516.1,139.0
516.16,137.0
516.22,147.0
516.28,122.0
516.35,122.0
516.41,109.0
516.47,107.0
516.54,103.0
516.6,106.0
516.66,91.0
516.73,71.0
516.79,84.0
516.85,93.0
516.91,96.0
516.98,91.0
517.04,113.0
517.1,102.0
517.17,104.0
517.23,116.0
517.29,110.0
517.36,111.0
517.42,84.0
517.48,86.0
517.54,92.0
517.61,62.0
517.67,71.0
517.73,60.0
517.8,60.0
517.86,61.0
517.92,79.0
517.99,80.0
518.05,67.0
518.11,62.0
518.17,39.0
518.24,66.0
518.3,57.0
518.36,45.0
518.43,63.0
518.49,68.0
518.55,52.0
518.62,51.0
518.68,63.0
518.74,63.0
518.8,67.0
518.87,47.0
518.93,43.0
518.99,34.0
519.06,42.0
519.12,40.0
519.18,28.0
519.25,24.0
519.31,29.0
519.37,30.0
519.43,13.0
519.5,27.0
519.56,19.0
519.62,27.0
519.69,34.0
519.75,39.0
519.81,39.0
519.88,31.0
519.94,40.0
520.0,20.0
520.06,49.0
520.13,51.0
520.19,36.0
520.25,46.0
520.32,49.0
520.38,81.0
520.44,54.0
520.51,60.0
520.57,77.0
520.63,84.0
520.69,82.0
520.76,98.0
520.82,101.0
520.88,82.0
520.95,96.0
521.01,85.0
521.07,84.0
521.14,71.0
521.2,60.0
521.26,76.0
521.32,90.0
521.39,98.0
521.45,79.0
521.51,86.0
521.58,86.0
521.64,85.0
521.7,82.0
521.77,91.0
521.83,81.0
521.89,107.0
521.95,122.0
522.02,132.0
522.08,122.0
522.14,127.0
522.21,128.0
522.27,117.0
522.33,108.0
522.4,117.0
522.46,133.0
522.52,125.0
522.58,133.0
522.65,138.0
522.71,133.0
522.77,131.0
522.84,124.0
522.9,124.0
522.96,128.0
523.03,126.0
523.09,122.0
523.15,105.0
523.21,115.0
523.28,118.0
523.34,115.0
523.4,110.0
523.47,111.0
523.53,120.0
523.59,121.0
523.66,123.0
523.72,107.0
523.78,114.0
523.84,95.0
523.91,71.0
523.97,96.0
524.03,92.0
524.1,95.0
524.16,94.0
524.22,120.0
524.29,102.0
524.35,77.0
524.41,99.0
524.47,123.0
524.54,97.0
524.6,90.0
524.66,85.0
524.73,94.0
524.79,90.0
524.85,97.0
524.92,100.0
524.98,79.0
525.04,78.0
525.1,72.0
525.17,73.0
525.23,85.0
525.29,89.0
525.36,92.0
525.42,78.0
525.48,68.0
525.55,68.0
525.61,40.0
525.67,47.0
525.73,35.0
525.8,56.0
525.86,45.0
525.92,42.0
525.99,33.0
526.05,38.0
526.11,38.0
526.18,23.0
526.24,32.0
526.3,31.0
526.36,19.0
526.43,26.0
526.49,16.0
526.55,27.0
526.62,10.0
526.68,16.0
526.74,11.0
526.81,17.0
526.87,11.0
526.93,-5.0
526.99,10.0
527.06,11.0
527.12,10.0
527.18,-2.0
527.25,-1.0
527.31,2.0
527.37,-20.0
527.44,-13.0
527.5,6.0
527.56,0.0
527.62,12.0
527.69,8.0
527.75,6.0
527.81,-6.0
527.88,5.0
527.94,9.0
528.0,0.0
528.07,-9.0
528.13,15.0
528.19,18.0
528.25,0.0
528.32,6.0
528.38,-2.0
528.44,17.0
528.51,8.0
528.57,2.0
528.63,-8.0
528.7,5.0
528.76,0.0
528.82,-10.0
528.88,6.0
528.95,17.0
529.01,20.0
529.07,19.0
529.14,12.0
529.2,4.0
529.26,19.0
529.33,15.0
529.39,26.0
529.45,10.0
529.51,12.0
529.58,31.0
529.64,48.0
529.7,62.0
529.77,38.0
529.83,43.0
529.89,71.0
529.96,70.0
530.02,74.0
530.08,93.0
530.14,93.0
530.21,109.0
530.27,97.0
530.33,88.0
530.4,86.0
530.46,99.0
530.52,122.0
530.59,100.0
530.65,92.0
530.71,101.0
530.77,100.0
530.84,112.0
530.9,84.0
530.96,98.0
531.03,100.0
531.09,104.0
531.15,100.0
531.22,105.0
531.28,109.0
531.34,109.0
531.4,86.0
531.47,125.0
531.53,108.0
531.59,114.0
531.66,120.0
531.72,124.0
531.78,112.0
531.85,94.0
531.91,108.0
531.97,114.0
532.03,119.0
532.1,122.0
532.16,119.0
532.22,114.0
532.29,97.0
532.35,97.0
532.41,94.0
532.48,105.0
532.54,75.0
532.6,76.0
532.66,75.0
532.73,67.0
532.79,79.0
532.85,70.0
532.92,64.0
532.98,75.0
533.04,62.0
533.11,57.0
533.17,61.0
533.23,82.0
533.29,79.0
533.36,75.0
533.42,68.0
533.48,56.0
533.55,69.0
533.61,40.0
533.67,50.0
533.74,59.0
533.8,61.0
533.86,75.0
533.92,65.0
533.99,54.0
534.05,54.0
534.11,37.0
534.18,63.0
534.24,45.0
534.3,53.0
534.37,60.0
534.43,59.0
534.49,86.0
534.55,81.0
534.62,81.0
534.68,81.0
534.74,73.0
534.81,76.0
534.87,64.0
534.93,67.0
535.0,45.0
535.06,53.0
535.12,71.0
535.18,77.0
535.25,57.0
535.31,71.0
535.37,78.0
535.44,75.0
535.5,80.0
535.56,54.0
535.63,73.0
535.69,66.0
535.75,71.0
535.81,57.0
535.88,51.0
535.94,61.0
536.0,73.0
536.07,88.0
536.13,92.0
536.19,93.0
536.26,90.0
536.32,109.0
536.38,90.0
536.44,89.0
536.51,100.0
536.57,86.0
536.63,108.0
536.7,86.0
536.76,99.0
536.82,88.0
536.89,102.0
536.95,112.0
537.01,112.0
537.07,120.0
537.14,123.0
537.2,115.0
537.26,114.0
537.33,131.0
537.39,155.0
537.45,134.0
537.52,123.0
537.58,120.0
537.64,125.0
537.7,139.0
537.77,141.0
537.83,141.0
537.89,116.0
537.96,117.0
538.02,134.0
538.08,144.0
538.15,131.0
538.21,133.0
538.27,145.0
538.33,145.0
538.4,158.0
538.46,169.0
538.52,164.0
538.59,174.0
538.65,195.0
538.71,200.0
538.78,226.0
538.84,222.0
538.9,213.0
538.96,192.0
539.03,186.0
539.09,200.0
539.15,198.0
539.22,202.0
539.28,217.0
539.34,212.0
539.41,196.0
539.47,213.0
539.53,199.0
539.59,189.0
539.66,207.0
539.72,192.0
539.78,185.0
539.85,187.0
539.91,178.0
539.97,179.0
540.04,192.0
540.1,194.0
540.16,183.0
540.22,192.0
540.29,205.0
540.35,189.0
540.41,166.0
540.48,186.0
540.54,192.0
540.6,196.0
540.67,179.0
540.73,210.0
540.79,189.0
540.85,198.0
540.92,212.0
540.98,194.0
541.04,204.0
541.11,210.0
541.17,196.0
541.23,200.0
541.3,184.0
541.36,204.0
541.42,210.0
541.48,196.0
541.55,216.0
541.61,209.0
541.67,218.0
541.74,229.0
541.8,230.0
541.86,198.0
541.93,202.0
541.99,211.0
542.05,207.0
542.11,198.0
542.18,190.0
542.24,189.0
542.3,210.0
542.37,207.0
542.43,209.0
542.49,205.0
542.56,196.0
542.62,201.0
542.68,168.0
542.74,167.0
542.81,147.0
542.87,161.0
542.93,144.0
543.0,128.0
543.06,135.0
543.12,131.0
543.19,111.0
543.25,136.0
543.31,122.0
543.37,127.0
543.44,117.0
543.5,117.0
543.56,103.0
543.63,97.0
543.69,111.0
543.75,98.0
543.82,101.0
543.88,96.0
543.94,98.0
544.0,96.0
544.07,107.0
544.13,115.0
544.19,79.0
544.26,90.0
544.32,102.0
544.38,101.0
544.45,87.0
544.51,95.0
544.57,109.0
544.63,113.0
544.7,90.0
544.76,103.0
544.82,87.0
544.89,95.0
544.95,106.0
545.01,115.0
545.08,106.0
545.14,95.0
545.2,113.0
545.26,109.0
545.33,96.0
545.39,100.0
545.45,104.0
545.52,101.0
545.58,131.0
545.64,107.0
545.71,114.0
545.77,130.0
545.83,119.0
545.89,125.0
545.96,144.0
546.02,131.0
546.08,128.0
546.15,124.0
546.21,137.0
546.27,166.0
546.34,149.0
546.4,164.0
546.46,152.0
546.52,144.0
546.59,173.0
546.65,168.0
546.71,193.0
546.78,184.0
546.84,185.0
546.9,169.0
546.97,189.0
547.03,171.0
547.09,152.0
547.15,167.0
547.22,136.0
547.28,114.0
547.34,140.0
547.41,133.0
547.47,145.0
547.53,133.0
547.6,119.0
547.66,126.0
547.72,137.0
547.78,147.0
547.85,135.0
547.91,117.0
547.97,112.0
548.04,123.0
548.1,139.0
548.16,143.0
548.23,125.0
548.29,95.0
548.35,123.0
548.41,128.0
548.48,107.0
548.54,107.0
548.6,117.0
548.67,105.0
548.73,84.0
548.79,70.0
548.86,89.0
548.92,74.0
548.98,73.0
549.04,63.0
549.11,74.0
549.17,67.0
549.23,75.0
549.3,90.0
549.36,104.0
549.42,102.0
549.49,78.0
549.55,60.0
549.61,79.0
549.67,62.0
549.74,57.0
549.8,69.0
549.86,86.0
549.93,75.0
549.99,57.0
550.05,65.0
550.12,60.0
550.18,49.0
550.24,63.0
550.3,60.0
550.37,26.0
550.43,41.0
550.49,40.0
550.56,57.0
550.62,32.0
550.68,48.0
550.75,24.0
550.81,50.0
550.87,37.0
550.93,33.0
551.0,43.0
551.06,34.0
551.12,40.0
551.19,48.0
551.25,49.0
551.31,49.0
551.38,68.0
551.44,57.0
551.5,50.0
551.56,31.0
551.63,47.0
551.69,38.0
551.75,31.0
551.82,32.0
551.88,31.0
551.94,5.0
552.01,2.0
552.07,8.0
552.13,-12.0
552.19,-10.0
552.26,-7.0
552.32,10.0
552.38,-22.0
552.45,-20.0
552.51,-8.0
552.57,4.0
552.64,-6.0
552.7,-3.0
552.76,3.0
552.82,-19.0
552.89,17.0
552.95,-4.0
553.01,-2.0
553.08,8.0
553.14,26.0
553.2,6.0
553.27,-23.0
553.33,-2.0
553.39,16.0
553.45,6.0
553.52,-6.0
553.58,-17.0
553.64,-20.0
553.71,9.0
553.77,-8.0
553.83,5.0
553.9,1.0
553.96,5.0
554.02,1.0
554.08,9.0
554.15,9.0
554.21,1.0
554.27,-9.0
554.34,12.0
554.4,26.0
554.46,10.0
554.53,25.0
554.59,21.0
554.65,27.0
554.71,9.0
554.78,15.0
554.84,15.0
554.9,10.0
554.97,15.0
555.03,36.0
555.09,45.0
555.16,48.0
555.22,60.0
555.28,52.0
555.34,55.0
555.41,47.0
555.47,61.0
555.53,66.0
555.6,48.0
555.66,64.0
555.72,72.0
555.79,56.0
555.85,59.0
555.91,81.0
555.97,53.0
556.04,66.0
556.1,90.0
556.16,95.0
556.23,99.0
556.29,108.0
556.35,94.0
556.42,81.0
556.48,87.0
556.54,104.0
556.6,94.0
556.67,111.0
556.73,97.0
556.79,91.0
556.86,91.0
556.92,80.0
556.98,78.0
557.05,96.0
557.11,104.0
557.17,105.0
557.23,96.0
557.3,100.0
557.36,99.0
557.42,97.0
557.49,86.0
557.55,60.0
557.61,91.0
557.68,106.0
557.74,101.0
557.8,103.0
557.86,101.0
557.93,128.0
557.99,129.0
558.05,122.0
558.12,126.0
558.18,138.0
558.24,128.0
558.31,111.0
558.37,115.0
558.43,119.0
558.49,115.0
558.56,129.0
558.62,113.0
558.68,112.0
558.75,115.0
558.81,94.0
558.87,107.0
558.94,111.0
559.0,95.0
559.06,89.0
559.12,85.0
559.19,80.0
559.25,76.0
559.31,69.0
559.38,88.0
559.44,82.0
559.5,83.0
559.57,84.0
559.63,90.0
559.69,75.0
559.75,71.0
559.82,67.0
559.88,73.0
559.94,62.0
560.01,49.0
560.07,50.0
560.13,56.0
560.2,71.0
560.26,67.0
560.32,72.0
560.38,65.0
560.45,56.0
560.51,51.0
560.57,50.0
560.64,51.0
560.7,75.0
560.76,65.0
560.83,67.0
560.89,72.0
560.95,85.0
561.01,89.0
561.08,95.0
561.14,96.0
561.2,79.0
561.27,79.0
561.33,69.0
561.39,83.0
561.46,96.0
561.52,74.0
561.58,85.0
561.64,85.0
561.71,95.0
561.77,87.0
561.83,95.0
561.9,103.0
561.96,111.0
562.02,93.0
562.09,83.0
562.15,85.0
562.21,73.0
562.27,78.0
562.34,103.0
562.4,111.0
562.46,103.0
562.53,122.0
562.59,103.0
562.65,109.0
562.72,116.0
562.78,127.0
562.84,134.0
562.9,133.0
562.97,130.0
563.03,119.0
563.09,141.0
563.16,133.0
563.22,149.0
563.28,151.0
563.35,154.0
563.41,154.0
563.47,147.0
563.53,163.0
563.6,172.0
563.66,167.0
563.72,158.0
563.79,156.0
563.85,167.0
563.91,167.0
563.98,170.0
564.04,167.0
564.1,151.0
564.16,173.0
564.23,169.0
564.29,168.0
564.35,167.0
564.42,182.0
564.48,180.0
564.54,193.0
564.61,192.0
564.67,213.0
564.73,209.0
564.79,212.0
564.86,206.0
564.92,197.0
564.98,182.0
565.05,199.0
565.11,196.0
565.17,206.0
565.24,187.0
565.3,174.0
565.36,201.0
565.42,184.0
565.49,187.0
565.55,180.0
565.61,142.0
565.68,141.0
565.74,144.0
565.8,129.0
565.87,137.0
565.93,128.0
565.99,126.0
566.05,126.0
566.12,120.0
566.18,133.0
566.24,119.0
566.31,151.0
566.37,150.0
566.43,125.0
566.5,110.0
566.56,126.0
566.62,120.0
566.68,110.0
566.75,90.0
566.81,102.0
566.87,105.0
566.94,105.0
567.0,120.0
567.06,115.0
567.13,128.0
567.19,112.0
567.25,93.0
567.31,102.0
567.38,109.0
567.44,99.0
567.5,95.0
567.57,94.0
567.63,79.0
567.69,73.0
567.76,86.0
567.82,69.0
567.88,77.0
567.94,85.0
568.01,75.0
568.07,74.0
568.13,77.0
568.2,76.0
568.26,78.0
568.32,53.0
568.39,50.0
568.45,52.0
568.51,26.0
568.57,28.0
568.64,33.0
568.7,28.0
568.76,34.0
568.83,25.0
568.89,22.0
568.95,17.0
569.02,-10.0
569.08,10.0
569.14,53.0
569.2,48.0
569.27,39.0
569.33,31.0
569.39,48.0
569.46,39.0
569.52,48.0
569.58,30.0
569.65,25.0
569.71,39.0
569.77,25.0
569.83,31.0
569.9,32.0
569.96,22.0
570.02,6.0
570.09,32.0
570.15,19.0
570.21,25.0
570.28,28.0
570.34,5.0
570.4,1.0
570.46,3.0
570.53,14.0
570.59,20.0
570.65,22.0
570.72,29.0
570.78,29.0
570.84,34.0
570.91,39.0
570.97,51.0
571.03,69.0
571.09,66.0
571.16,77.0
571.22,66.0
571.28,87.0
571.35,82.0
571.41,86.0
571.47,104.0
571.54,86.0
571.6,88.0
571.66,62.0
571.72,91.0
571.79,92.0
571.85,101.0
571.91,108.0
571.98,114.0
572.04,122.0
572.1,140.0
572.17,150.0
572.23,157.0
572.29,151.0
572.35,150.0
572.42,131.0
572.48,144.0
572.54,144.0
572.61,149.0
572.67,136.0
572.73,145.0
572.8,152.0
572.86,155.0
572.92,165.0
572.98,158.0
573.05,175.0
573.11,173.0
573.17,172.0
573.24,161.0
573.3,171.0
573.36,167.0
573.43,155.0
573.49,170.0
573.55,186.0
573.61,153.0
573.68,170.0
573.74,170.0
573.8,182.0
573.87,183.0
573.93,187.0
573.99,176.0
574.06,182.0
574.12,195.0
574.18,179.0
574.24,154.0
574.31,178.0
574.37,174.0
574.43,206.0
574.5,203.0
574.56,185.0
574.62,159.0
574.69,178.0
574.75,187.0
574.81,178.0
574.87,176.0
574.94,169.0
575.0,189.0
575.06,182.0
575.13,179.0
575.19,176.0
575.25,186.0
575.32,191.0
575.38,204.0
575.44,202.0
575.5,197.0
575.57,193.0
575.63,162.0
575.69,149.0
575.76,161.0
575.82,151.0
575.88,177.0
575.95,176.0
576.01,175.0
576.07,168.0
576.13,163.0
576.2,166.0
576.26,158.0
576.32,177.0
576.39,166.0
576.45,171.0
576.51,167.0
576.58,160.0
576.64,172.0
576.7,172.0
576.76,172.0
576.83,161.0
576.89,171.0
576.95,157.0
577.02,151.0
577.08,130.0
577.14,149.0
577.21,153.0
577.27,154.0
577.33,163.0
577.39,160.0
577.46,147.0
577.52,134.0
577.58,144.0
577.65,119.0
577.71,122.0
577.77,110.0
577.84,106.0
577.9,118.0
577.96,119.0
578.02,105.0
578.09,113.0
578.15,111.0
578.21,128.0
578.28,123.0
578.34,114.0
578.4,99.0
578.47,77.0
578.53,92.0
578.59,77.0
578.65,83.0
578.72,95.0
578.78,102.0
578.84,86.0
578.91,76.0
578.97,66.0
579.03,60.0
579.1,70.0
579.16,81.0
579.22,63.0
579.28,58.0
579.35,72.0
579.41,87.0
579.47,73.0
579.54,93.0
579.6,110.0
579.66,93.0
579.73,97.0
579.79,92.0
579.85,121.0
579.91,114.0
579.98,86.0
580.04,114.0
580.1,135.0
580.17,145.0
580.23,133.0
580.29,141.0
580.36,135.0
580.42,117.0
580.48,136.0
580.54,114.0
580.61,116.0
580.67,121.0
580.73,148.0
580.8,132.0
580.86,127.0
580.92,130.0
580.99,141.0
581.05,143.0
581.11,177.0
581.17,196.0
581.24,172.0
581.3,182.0
581.36,156.0
581.43,150.0
581.49,149.0
581.55,135.0
581.62,146.0
581.68,132.0
581.74,133.0
581.8,138.0
581.87,133.0
581.93,156.0
581.99,145.0
582.06,125.0
582.12,144.0
582.18,143.0
582.25,143.0
582.31,141.0
582.37,157.0
582.43,154.0
582.5,145.0
582.56,162.0
582.62,169.0
582.69,177.0
582.75,154.0
582.81,171.0
582.88,151.0
582.94,161.0
583.0,150.0
583.06,148.0
583.13,152.0
583.19,130.0
583.25,113.0
583.32,114.0
583.38,108.0
583.44,97.0
583.51,99.0
583.57,114.0
583.63,94.0
583.69,81.0
583.76,80.0
583.82,91.0
583.88,94.0
583.95,96.0
584.01,98.0
584.07,118.0
584.14,111.0
584.2,97.0
584.26,107.0
584.32,112.0
584.39,98.0
584.45,86.0
584.51,64.0
584.58,75.0
584.64,63.0
584.7,71.0
584.77,99.0
584.83,93.0
584.89,76.0
584.95,83.0
585.02,90.0
585.08,84.0
585.14,113.0
585.21,99.0
585.27,86.0
585.33,81.0
585.4,83.0
585.46,96.0
585.52,105.0
585.58,105.0
585.65,102.0
585.71,77.0
585.77,83.0
585.84,86.0
585.9,82.0
585.96,89.0
586.03,95.0
586.09,114.0
586.15,107.0
586.21,111.0
586.28,108.0
586.34,116.0
586.4,125.0
586.47,117.0
586.53,132.0
586.59,137.0
586.66,142.0
586.72,138.0
586.78,130.0
586.84,115.0
586.91,119.0
586.97,110.0
587.03,81.0
587.1,105.0
587.16,113.0
587.22,121.0
587.29,117.0
587.35,119.0
587.41,129.0
587.47,135.0
587.54,89.0
587.6,88.0
587.66,97.0
587.73,110.0
587.79,103.0
587.85,89.0
587.92,96.0
587.98,92.0
588.04,91.0
588.1,88.0
588.17,94.0
588.23,99.0
588.29,96.0
588.36,78.0
588.42,86.0
588.48,89.0
588.55,71.0
588.61,71.0
588.67,76.0
588.73,80.0
588.8,72.0
588.86,78.0
588.92,82.0
588.99,100.0
589.05,90.0
589.11,107.0
589.18,91.0
589.24,126.0
589.3,133.0
589.36,122.0
589.43,111.0
589.49,117.0
589.55,145.0
589.62,165.0
589.68,139.0
589.74,139.0
589.81,124.0
589.87,135.0
589.93,137.0
589.99,136.0
590.06,145.0
590.12,127.0
590.18,123.0
590.25,119.0
590.31,140.0
590.37,138.0
590.44,138.0
590.5,128.0
590.56,128.0
590.62,132.0
590.69,140.0
590.75,109.0
590.81,122.0
590.88,119.0
590.94,122.0
591.0,125.0
591.07,124.0
591.13,124.0
591.19,125.0
591.25,138.0
591.32,157.0
591.38,130.0
591.44,157.0
591.51,155.0
591.57,162.0
591.63,153.0
591.7,154.0
591.76,141.0
591.82,136.0
591.88,147.0
591.95,147.0
592.01,144.0
592.07,134.0
592.14,130.0
592.2,119.0
592.26,111.0
592.33,140.0
592.39,114.0
592.45,101.0
592.51,99.0
592.58,88.0
592.64,70.0
592.7,56.0
592.77,49.0
592.83,63.0
592.89,41.0
592.96,66.0
593.02,82.0
593.08,58.0
593.14,77.0
593.21,75.0
593.27,44.0
593.33,55.0
593.4,60.0
593.46,64.0
593.52,55.0
593.59,56.0
593.65,72.0
593.71,77.0
593.77,76.0
593.84,79.0
593.9,90.0
593.96,94.0
594.03,86.0
594.09,97.0
594.15,69.0
594.22,75.0
594.28,81.0
594.34,62.0
594.4,74.0
594.47,58.0
594.53,55.0
594.59,61.0
594.66,58.0
594.72,71.0
594.78,80.0
594.85,74.0
594.91,62.0
594.97,66.0
595.03,65.0
595.1,84.0
595.16,99.0
595.22,84.0
595.29,75.0
595.35,78.0
595.41,77.0
595.48,86.0
595.54,74.0
595.6,67.0
595.66,69.0
595.73,78.0
595.79,75.0
595.85,74.0
595.92,106.0
595.98,95.0
596.04,97.0
596.11,75.0
596.17,91.0
596.23,103.0
596.29,93.0
596.36,86.0
596.42,111.0
596.48,127.0
596.55,110.0
596.61,116.0
596.67,95.0
596.74,119.0
596.8,122.0
596.86,128.0
596.92,141.0
596.99,137.0
597.05,135.0
597.11,140.0
597.18,128.0
597.24,128.0
597.3,136.0
597.37,143.0
597.43,144.0
597.49,157.0
597.55,173.0
597.62,144.0
597.68,143.0
597.74,143.0
597.81,139.0
597.87,140.0
597.93,143.0
598.0,143.0
598.06,156.0
598.12,154.0
598.18,162.0
598.25,160.0
598.31,149.0
598.37,130.0
598.44,133.0
598.5,143.0
598.56,135.0
598.63,124.0
598.69,125.0
598.75,140.0
598.81,144.0
598.88,142.0
598.94,146.0
599.0,151.0
599.07,144.0
599.13,150.0
599.19,149.0
599.26,147.0
599.32,155.0
599.38,165.0
599.44,168.0
599.51,176.0
599.57,182.0
599.63,185.0
599.7,169.0
599.76,148.0
599.82,158.0
599.89,174.0
599.95,169.0
600.01,167.0
600.07,161.0
600.14,152.0
600.2,158.0
600.26,167.0
600.33,163.0
600.39,138.0
600.45,144.0
600.52,150.0
600.58,147.0
600.64,136.0
600.7,157.0
600.77,156.0
600.83,135.0
600.89,158.0
600.96,155.0
601.02,138.0
601.08,129.0
601.15,145.0
601.21,142.0
601.27,126.0
601.33,137.0
601.4,142.0
601.46,148.0
601.52,140.0
601.59,150.0
601.65,132.0
601.71,129.0
601.78,126.0
601.84,121.0
601.9,128.0
601.96,139.0
602.03,110.0
602.09,110.0
602.15,99.0
602.22,113.0
602.28,125.0
602.34,97.0
602.41,107.0
602.47,102.0
602.53,129.0
602.59,133.0
602.66,139.0
602.72,132.0
602.78,128.0
602.85,144.0
602.91,123.0
602.97,104.0
603.04,126.0
603.1,119.0
603.16,106.0
603.22,104.0
603.29,101.0
603.35,94.0
603.41,78.0
603.48,76.0
603.54,80.0
603.6,76.0
603.67,64.0
603.73,73.0
603.79,97.0
603.85,80.0
603.92,78.0
603.98,76.0
604.04,90.0
604.11,78.0
604.17,83.0
604.23,78.0
604.3,70.0
604.36,72.0
604.42,41.0
604.48,29.0
604.55,54.0
604.61,66.0
604.67,61.0
604.74,59.0
604.8,74.0
604.86,103.0
604.93,88.0
604.99,72.0
605.05,80.0
605.11,91.0
605.18,95.0
605.24,102.0
605.3,102.0
605.37,99.0
605.43,102.0
605.49,118.0
605.56,123.0
605.62,121.0
605.68,119.0
605.74,133.0
605.81,119.0
605.87,116.0
605.93,110.0
606.0,96.0
606.06,103.0
606.12,92.0
606.19,116.0
606.25,112.0
606.31,122.0
606.37,104.0
606.44,111.0
606.5,105.0
606.56,102.0
606.63,107.0
606.69,88.0
606.75,88.0
606.82,80.0
606.88,104.0
606.94,114.0
607.0,115.0
607.07,126.0
607.13,106.0
607.19,94.0
607.26,100.0
607.32,87.0
607.38,85.0
607.45,95.0
607.51,104.0
607.57,89.0
607.63,87.0
607.7,127.0
607.76,111.0
607.82,92.0
607.89,91.0
607.95,81.0
608.01,92.0
608.08,94.0
608.14,99.0
608.2,99.0
608.26,88.0
608.33,97.0
608.39,97.0
608.45,110.0
608.52,109.0
608.58,82.0
608.64,90.0
608.71,60.0
608.77,74.0
608.83,80.0
608.89,88.0
608.96,85.0
609.02,84.0
609.08,70.0
609.15,73.0
609.21,65.0
609.27,81.0
609.34,55.0
609.4,50.0
609.46,92.0
609.52,87.0
609.59,73.0
609.65,65.0
609.71,72.0
609.78,75.0
609.84,59.0
609.9,58.0
609.97,56.0
610.03,55.0
610.09,61.0
610.15,58.0
610.22,44.0
610.28,34.0
610.34,44.0
610.41,44.0
610.47,46.0
610.53,34.0
610.6,37.0
610.66,41.0
610.72,31.0
610.78,15.0
610.85,30.0
610.91,22.0
610.97,28.0
611.04,39.0
611.1,16.0
611.16,-11.0
611.23,17.0
611.29,-3.0
611.35,-8.0
611.41,-9.0
611.48,23.0
611.54,18.0
611.6,4.0
611.67,21.0
611.73,21.0
611.79,29.0
611.86,42.0
611.92,45.0
611.98,46.0
612.04,32.0
612.11,43.0
612.17,45.0
612.23,72.0
612.3,49.0
612.36,52.0
612.42,30.0
612.49,31.0
612.55,38.0
612.61,19.0
612.67,32.0
612.74,38.0
612.8,42.0
612.86,53.0
612.93,48.0
612.99,49.0
613.05,39.0
613.12,45.0
613.18,56.0
613.24,65.0
613.3,73.0
613.37,65.0
613.43,79.0
613.49,87.0
613.56,58.0
613.62,59.0
613.68,73.0
613.75,79.0
613.81,87.0
613.87,100.0
613.93,88.0
614.0,93.0
614.06,90.0
614.12,101.0
614.19,92.0
614.25,88.0
614.31,79.0
614.38,97.0
614.44,100.0
614.5,81.0
614.56,87.0
614.63,88.0
614.69,90.0
614.75,100.0
614.82,101.0
614.88,81.0
614.94,84.0
615.01,91.0
615.07,83.0
615.13,70.0
615.19,70.0
615.26,106.0
615.32,86.0
615.38,95.0
615.45,83.0
615.51,96.0
615.57,101.0
615.64,119.0
615.7,96.0
615.76,84.0
615.82,106.0
615.89,103.0
615.95,106.0
616.01,128.0
616.08,126.0
616.14,120.0
616.2,140.0
616.27,128.0
616.33,134.0
616.39,144.0
616.45,142.0
616.52,145.0
616.58,130.0
616.64,115.0
616.71,136.0
616.77,133.0
616.83,104.0
616.9,114.0
616.96,125.0
617.02,129.0
617.08,155.0
617.15,143.0
617.21,133.0
617.27,142.0
617.34,146.0
617.4,155.0
617.46,149.0
617.53,162.0
617.59,149.0
617.65,142.0
617.71,131.0
617.78,143.0
617.84,147.0
617.9,115.0
617.97,126.0
618.03,139.0
618.09,137.0
618.16,136.0
618.22,151.0
618.28,123.0
618.34,115.0
618.41,128.0
618.47,126.0
618.53,115.0
618.6,101.0
618.66,96.0
618.72,88.0
618.79,84.0
618.85,95.0
618.91,82.0
618.97,83.0
619.04,89.0
619.1,99.0
619.16,102.0
619.23,92.0
619.29,80.0
619.35,63.0
619.42,68.0
619.48,82.0
619.54,68.0
619.6,72.0
619.67,81.0
619.73,85.0
619.79,54.0
619.86,67.0
619.92,68.0
619.98,46.0
620.05,64.0
620.11,77.0
620.17,82.0
620.23,87.0
620.3,68.0
620.36,78.0
620.42,94.0
620.49,64.0
620.55,78.0
620.61,85.0
620.68,85.0
620.74,81.0
620.8,92.0
620.86,102.0
620.93,85.0
620.99,84.0
621.05,75.0
621.12,96.0
621.18,78.0
621.24,84.0
621.31,70.0
621.37,59.0
621.43,56.0
621.49,72.0
621.56,71.0
621.62,75.0
621.68,101.0
621.75,89.0
621.81,97.0
621.87,100.0
621.94,92.0
622.0,96.0
622.06,114.0
622.12,109.0
622.19,117.0
622.25,114.0
622.31,117.0
622.38,108.0
622.44,95.0
622.5,103.0
622.57,128.0
622.63,117.0
622.69,124.0
622.75,103.0
622.82,111.0
622.88,106.0
622.94,95.0
623.01,117.0
623.07,115.0
623.13,114.0
623.2,127.0
623.26,124.0
623.32,121.0
623.38,122.0
623.45,101.0
623.51,120.0
623.57,116.0
623.64,104.0
623.7,107.0
623.76,111.0
623.83,107.0
623.89,98.0
623.95,115.0
624.01,98.0
624.08,126.0
624.14,101.0
624.2,91.0
624.27,112.0
624.33,93.0
624.39,103.0
624.46,123.0
624.52,95.0
624.58,86.0
624.64,92.0
624.71,76.0
624.77,106.0
624.83,81.0
624.9,80.0
624.96,86.0
625.02,107.0
625.09,111.0
625.15,96.0
625.21,89.0
625.27,94.0
625.34,96.0
625.4,90.0
625.46,91.0
625.53,93.0
625.59,93.0
625.65,89.0
625.72,108.0
625.78,100.0
625.84,93.0
625.9,109.0
625.97,121.0
626.03,112.0
626.09,92.0
626.16,102.0
626.22,102.0
626.28,103.0
626.35,100.0
626.41,126.0
626.47,122.0
626.53,109.0
626.6,96.0
626.66,91.0
626.72,110.0
626.79,105.0
626.85,89.0
626.91,97.0
626.98,88.0
627.04,93.0
627.1,84.0
627.16,109.0
627.23,114.0
627.29,112.0
627.35,112.0
627.42,99.0
627.48,90.0
627.54,101.0
627.61,89.0
627.67,95.0
627.73,108.0
627.79,84.0
627.86,65.0
627.92,87.0
627.98,84.0
628.05,78.0
628.11,61.0
628.17,49.0
628.24,71.0
628.3,56.0
628.36,59.0
628.42,64.0
628.49,80.0
628.55,73.0
628.61,73.0
628.68,85.0
628.74,86.0
628.8,84.0
628.87,89.0
628.93,87.0
628.99,75.0
629.05,85.0
629.12,98.0
629.18,80.0
629.24,66.0
629.31,80.0
629.37,68.0
629.43,106.0
629.5,80.0
629.56,84.0
629.62,96.0
629.68,104.0
629.75,104.0
629.81,78.0
629.87,81.0
629.94,103.0
630.0,93.0
630.06,103.0
630.13,90.0
630.19,101.0
630.25,113.0
630.31,103.0
630.38,118.0
630.44,120.0
630.5,112.0
630.57,114.0
630.63,100.0
630.69,119.0
630.76,134.0
630.82,126.0
630.88,123.0
630.94,137.0
631.01,117.0
631.07,128.0
631.13,121.0
631.2,114.0
631.26,120.0
631.32,138.0
631.39,150.0
631.45,126.0
631.51,156.0
631.57,154.0
631.64,158.0
631.7,159.0
631.76,138.0
631.83,129.0
631.89,107.0
631.95,109.0
632.02,96.0
632.08,95.0
632.14,111.0
632.2,107.0
632.27,102.0
632.33,121.0
632.39,88.0
632.46,89.0
632.52,96.0
632.58,105.0
632.65,101.0
632.71,94.0
632.77,102.0
632.83,76.0
632.9,72.0
632.96,45.0
633.02,93.0
633.09,82.0
633.15,71.0
633.21,79.0
633.28,69.0
633.34,67.0
633.4,60.0
633.46,63.0
633.53,62.0
633.59,63.0
633.65,56.0
633.72,77.0
633.78,57.0
633.84,52.0
633.91,57.0
633.97,54.0
634.03,19.0
634.09,34.0
634.16,42.0
634.22,31.0
634.28,42.0
634.35,38.0
634.41,43.0
634.47,65.0
634.54,58.0
634.6,53.0
634.66,50.0
634.72,66.0
634.79,49.0
634.85,48.0
634.91,62.0
634.98,65.0
635.04,75.0
635.1,74.0
635.17,89.0
635.23,79.0
635.29,82.0
635.35,100.0
635.42,89.0
635.48,102.0
635.54,119.0
635.61,92.0
635.67,90.0
635.73,86.0
635.8,94.0
635.86,76.0
635.92,52.0
635.98,79.0
636.05,80.0
636.11,89.0
636.17,100.0
636.24,83.0
636.3,97.0
636.36,91.0
636.43,119.0
636.49,123.0
636.55,124.0
636.61,135.0
636.68,114.0
636.74,106.0
636.8,119.0
636.87,114.0
636.93,106.0
636.99,119.0
637.06,102.0
637.12,122.0
637.18,117.0
637.24,104.0
637.31,125.0
637.37,128.0
637.43,114.0
637.5,101.0
637.56,108.0
637.62,104.0
637.69,105.0
637.75,104.0
637.81,112.0
637.87,115.0
637.94,111.0
638.0,115.0
638.06,109.0
638.13,126.0
638.19,106.0
638.25,95.0
638.32,118.0
638.38,121.0
638.44,125.0
638.5,125.0
638.57,121.0
638.63,137.0
638.69,139.0
638.76,156.0
638.82,159.0
638.88,187.0
638.95,182.0
639.01,197.0
639.07,209.0
639.13,206.0
639.2,200.0
639.26,216.0
639.32,203.0
639.39,201.0
639.45,203.0
639.51,214.0
639.58,214.0
639.64,214.0
639.7,208.0
639.76,218.0
639.83,258.0
639.89,250.0
639.95,243.0
640.02,256.0
640.08,269.0
640.14,262.0
640.21,262.0
640.27,262.0
640.33,301.0
640.39,297.0
640.46,287.0
640.52,276.0
640.58,280.0
640.65,291.0
640.71,309.0
640.77,297.0
640.84,295.0
640.9,276.0
640.96,266.0
641.02,258.0
641.09,268.0
641.15,270.0
641.21,261.0
641.28,295.0
641.34,291.0
641.4,290.0
641.47,265.0
641.53,268.0
641.59,263.0
641.65,262.0
641.72,274.0
641.78,263.0
641.84,273.0
641.91,275.0
641.97,276.0
642.03,285.0
642.1,305.0
642.16,304.0
642.22,291.0
642.28,296.0
642.35,276.0
642.41,271.0
642.47,273.0
642.54,273.0
642.6,276.0
642.66,251.0
642.73,238.0
642.79,240.0
642.85,223.0
642.91,226.0
642.98,227.0
643.04,229.0
643.1,224.0
643.17,236.0
643.23,212.0
643.29,227.0
643.36,238.0
643.42,211.0
643.48,212.0
643.54,215.0
643.61,196.0
643.67,202.0
643.73,192.0
643.8,189.0
643.86,185.0
643.92,157.0
643.99,155.0
644.05,164.0
644.11,160.0
644.17,174.0
644.24,152.0
644.3,152.0
644.36,136.0
644.43,141.0
644.49,141.0
644.55,115.0
644.62,137.0
644.68,143.0
644.74,139.0
644.8,127.0
644.87,114.0
644.93,103.0
644.99,84.0
645.06,88.0
645.12,81.0
645.18,71.0
645.25,68.0
645.31,34.0
645.37,39.0
645.43,59.0
645.5,49.0
645.56,38.0
645.62,38.0
645.69,48.0
645.75,41.0
645.81,57.0
645.88,46.0
645.94,40.0
646.0,64.0
646.06,40.0
646.13,39.0
646.19,42.0
646.25,34.0
646.32,45.0
646.38,48.0
646.44,60.0
646.51,27.0
646.57,32.0
646.63,32.0
646.69,32.0
646.76,31.0
646.82,47.0
646.88,34.0
646.95,26.0
647.01,19.0
647.07,27.0
647.14,6.0
647.2,41.0
647.26,50.0
647.32,31.0
647.39,50.0
647.45,30.0
647.51,57.0
647.58,28.0
647.64,19.0
647.7,33.0
647.77,48.0
647.83,28.0
647.89,23.0
647.95,20.0
648.02,15.0
648.08,47.0
648.14,56.0
648.21,8.0
648.27,36.0
648.33,60.0
648.4,46.0
648.46,60.0
648.52,82.0
648.58,78.0
648.65,78.0
648.71,107.0
648.77,91.0
648.84,96.0
648.9,98.0
648.96,107.0
649.03,119.0
649.09,93.0
649.15,119.0
649.21,112.0
649.28,125.0
649.34,117.0
649.4,130.0
649.47,131.0
649.53,133.0
649.59,147.0
649.66,148.0
649.72,154.0
649.78,160.0
649.84,135.0
649.91,142.0
649.97,158.0
650.03,162.0
650.1,173.0
650.16,166.0
650.22,173.0
650.29,173.0
650.35,173.0
650.41,174.0
650.47,166.0
650.54,187.0
650.6,173.0
650.66,166.0
650.73,167.0
650.79,159.0
650.85,200.0
650.92,175.0
650.98,189.0
651.04,205.0
651.1,202.0
651.17,203.0
651.23,221.0
651.29,227.0
651.36,228.0
651.42,236.0
651.48,247.0
651.55,243.0
651.61,250.0
651.67,237.0
651.73,227.0
651.8,251.0
651.86,240.0
651.92,222.0
651.99,233.0
652.05,219.0
652.11,221.0
652.18,237.0
652.24,241.0
652.3,224.0
652.36,210.0
652.43,207.0
652.49,219.0
652.55,225.0
652.62,240.0
652.68,218.0
652.74,236.0
652.81,227.0
652.87,235.0
652.93,230.0
652.99,235.0
653.06,237.0
653.12,215.0
653.18,232.0
653.25,214.0
653.31,206.0
653.37,219.0
653.44,195.0
653.5,178.0
653.56,187.0
653.62,192.0
653.69,198.0
653.75,172.0
653.81,166.0
653.88,166.0
653.94,148.0
654.0,138.0
654.07,128.0
654.13,133.0
654.19,150.0
654.25,147.0
654.32,126.0
654.38,123.0
654.44,119.0
654.51,137.0
654.57,126.0
654.63,115.0
654.7,104.0
654.76,109.0
654.82,102.0
654.88,92.0
654.95,84.0
655.01,80.0
655.07,71.0
655.14,63.0
655.2,55.0
655.26,45.0
655.33,41.0
655.39,33.0
655.45,31.0
655.51,30.0
655.58,26.0
655.64,25.0
655.7,10.0
655.77,6.0
655.83,13.0
655.89,13.0
655.96,0.0
656.02,21.0
656.08,17.0
656.14,18.0
656.21,25.0
656.27,8.0
656.33,2.0
656.4,-15.0
656.46,-15.0
656.52,12.0
656.59,7.0
656.65,-11.0
656.71,14.0
656.77,6.0
656.84,23.0
656.9,21.0
656.96,17.0
657.03,10.0
657.09,-8.0
657.15,-20.0
657.22,-4.0
657.28,-28.0
657.34,-19.0
657.4,18.0
657.47,7.0
657.53,-13.0
657.59,-9.0
657.66,-14.0
657.72,-17.0
657.78,-9.0
657.85,12.0
657.91,-7.0
657.97,-5.0
658.03,3.0
658.1,-4.0
658.16,-3.0
658.22,6.0
658.29,8.0
658.35,-3.0
658.41,-7.0
658.48,2.0
658.54,3.0
658.6,10.0
658.66,-7.0
658.73,1.0
658.79,4.0
658.85,-3.0
658.92,-10.0
658.98,-6.0
659.04,1.0
659.11,-18.0
659.17,-25.0
659.23,-19.0
659.29,-23.0
659.36,-15.0
659.42,-16.0
659.48,1.0
659.55,14.0
659.61,5.0
659.67,13.0
659.74,0.0
659.8,37.0
659.86,37.0
659.92,21.0
659.99,33.0
660.05,35.0
660.11,16.0
660.18,17.0
660.24,18.0
660.3,29.0
660.37,42.0
660.43,55.0
660.49,73.0
660.55,66.0
660.62,49.0
660.68,47.0
660.74,65.0
660.81,62.0
660.87,56.0
660.93,67.0
661.0,83.0
661.06,55.0
661.12,67.0
661.18,81.0
661.25,86.0
661.31,77.0
661.37,81.0
661.44,125.0
661.5,124.0
661.56,109.0
661.63,91.0
661.69,73.0
661.75,85.0
661.81,92.0
661.88,86.0
661.94,88.0
662.0,116.0
662.07,105.0
662.13,103.0
662.19,104.0
662.26,106.0
662.32,93.0
662.38,82.0
662.44,83.0
662.51,88.0
662.57,110.0
662.63,108.0
662.7,111.0
662.76,131.0
662.82,104.0
662.89,116.0
662.95,119.0
663.01,128.0
663.07,122.0
663.14,127.0
663.2,117.0
663.26,125.0
663.33,108.0
663.39,123.0
663.45,121.0
663.52,122.0
663.58,138.0
663.64,154.0
663.7,162.0
663.77,159.0
663.83,138.0
663.89,145.0
663.96,138.0
664.02,133.0
664.08,114.0
664.15,125.0
664.21,124.0
664.27,133.0
664.33,125.0
664.4,129.0
664.46,149.0
664.52,156.0
664.59,162.0
664.65,143.0
664.71,171.0
664.78,187.0
664.84,164.0
664.9,155.0
664.96,161.0
665.03,190.0
665.09,173.0
665.15,192.0
665.22,203.0
665.28,199.0
665.34,179.0
665.41,191.0
665.47,178.0
665.53,173.0
665.59,167.0
665.66,166.0
665.72,161.0
665.78,185.0
665.85,178.0
665.91,193.0
665.97,171.0
666.04,171.0
666.1,175.0
666.16,173.0
666.22,191.0
666.29,160.0
666.35,158.0
666.41,164.0
666.48,143.0
666.54,156.0
666.6,169.0
666.67,171.0
666.73,177.0
666.79,172.0
666.85,172.0
666.92,147.0
666.98,152.0
667.04,154.0
667.11,159.0
667.17,157.0
667.23,142.0
667.3,142.0
667.36,132.0
667.42,126.0
667.48,146.0
667.55,144.0
667.61,144.0
667.67,155.0
667.74,147.0
667.8,139.0
667.86,161.0
667.93,163.0
667.99,154.0
668.05,144.0
668.11,144.0
668.18,126.0
668.24,125.0
668.3,125.0
668.37,110.0
668.43,105.0
668.49,114.0
668.56,87.0
668.62,80.0
668.68,95.0
668.74,87.0
668.81,79.0
668.87,99.0
668.93,98.0
669.0,80.0
669.06,77.0
669.12,92.0
669.19,83.0
669.25,72.0
669.31,93.0
669.37,53.0
669.44,64.0
669.5,70.0
669.56,66.0
669.63,49.0
669.69,75.0
669.75,69.0
669.82,71.0
669.88,48.0
669.94,49.0
670.0,41.0
670.07,52.0
670.13,70.0
670.19,32.0
670.26,-3.0
670.32,26.0
670.38,26.0
670.45,14.0
670.51,25.0
670.57,33.0
670.63,45.0
670.7,36.0
670.76,28.0
670.82,24.0
670.89,29.0
670.95,51.0
671.01,28.0
671.08,32.0
671.14,32.0
671.2,24.0
671.26,13.0
671.33,10.0
671.39,4.0
671.45,9.0
671.52,19.0
671.58,25.0
671.64,11.0
671.71,40.0
671.77,24.0
671.83,33.0
671.89,36.0
671.96,26.0
672.02,63.0
672.08,51.0
672.15,75.0
672.21,62.0
672.27,39.0
672.34,43.0
672.4,31.0
672.46,36.0
672.52,45.0
672.59,36.0
672.65,48.0
672.71,34.0
672.78,50.0
672.84,62.0
672.9,80.0
672.97,86.0
673.03,70.0
673.09,84.0
673.15,83.0
673.22,74.0
673.28,77.0
673.34,102.0
673.41,118.0
673.47,106.0
673.53,99.0
673.6,103.0
673.66,109.0
673.72,108.0
673.78,137.0
673.85,128.0
673.91,125.0
673.97,129.0
674.04,120.0
674.1,130.0
674.16,121.0
674.23,119.0
674.29,127.0
674.35,123.0
674.41,124.0
674.48,122.0
674.54,113.0
674.6,114.0
674.67,123.0
674.73,127.0
674.79,123.0
674.86,153.0
674.92,159.0
674.98,160.0
675.04,163.0
675.11,159.0
675.17,185.0
675.23,181.0
675.3,210.0
675.36,213.0
675.42,226.0
675.49,238.0
675.55,235.0
675.61,238.0
675.67,238.0
675.74,234.0
675.8,236.0
675.86,228.0
675.93,235.0
675.99,238.0
676.05,224.0
676.12,241.0
676.18,238.0
676.24,234.0
676.3,251.0
676.37,253.0
676.43,230.0
676.49,218.0
676.56,219.0
676.62,229.0
676.68,235.0
676.75,230.0
676.81,236.0
676.87,245.0
676.93,226.0
677.0,237.0
677.06,227.0
677.12,210.0
677.19,245.0
677.25,233.0
677.31,223.0
677.38,221.0
677.44,229.0
677.5,240.0
677.56,221.0
677.63,222.0
677.69,233.0
677.75,233.0
677.82,225.0
677.88,201.0
677.94,196.0
678.01,217.0
678.07,205.0
678.13,185.0
678.19,203.0
678.26,196.0
678.32,168.0
678.38,161.0
678.45,154.0
678.51,134.0
678.57,146.0
678.64,143.0
678.7,131.0
678.76,129.0
678.82,105.0
678.89,119.0
678.95,120.0
679.01,114.0
679.08,114.0
679.14,100.0
679.2,102.0
679.27,81.0
679.33,92.0
679.39,108.0
679.45,85.0
679.52,91.0
679.58,94.0
679.64,88.0
679.71,99.0
679.77,113.0
679.83,106.0
679.9,129.0
679.96,149.0
680.02,142.0
680.08,150.0
680.15,131.0
680.21,134.0
680.27,139.0
680.34,122.0
680.4,125.0
680.46,112.0
680.53,127.0
680.59,115.0
680.65,99.0
680.71,111.0
680.78,103.0
680.84,115.0
680.9,100.0
680.97,102.0
681.03,101.0
681.09,113.0
681.16,117.0
681.22,124.0
681.28,130.0
681.34,139.0
681.41,150.0
681.47,126.0
681.53,120.0
681.6,134.0
681.66,120.0
681.72,122.0
681.79,100.0
681.85,102.0
681.91,94.0
681.97,97.0
682.04,95.0
682.1,90.0
682.16,106.0
682.23,89.0
682.29,91.0
682.35,78.0
682.42,95.0
682.48,127.0
682.54,106.0
682.6,108.0
682.67,127.0
682.73,118.0
682.79,100.0
682.86,103.0
682.92,109.0
682.98,91.0
683.05,84.0
683.11,88.0
683.17,78.0
683.23,92.0
683.3,72.0
683.36,79.0
683.42,104.0
683.49,102.0
683.55,86.0
683.61,73.0
683.68,85.0
683.74,88.0
683.8,87.0
683.86,77.0
683.93,88.0
683.99,98.0
684.05,99.0
684.12,99.0
684.18,117.0
684.24,119.0
684.31,128.0
684.37,128.0
684.43,133.0
684.49,156.0
684.56,137.0
684.62,139.0
684.68,141.0
684.75,137.0
684.81,133.0
684.87,150.0
684.94,147.0
685.0,158.0
685.06,159.0
685.12,168.0
685.19,161.0
685.25,162.0
685.31,147.0
685.38,142.0
685.44,126.0
685.5,108.0
685.57,119.0
685.63,113.0
685.69,99.0
685.75,92.0
685.82,103.0
685.88,86.0
685.94,86.0
686.01,89.0
686.07,90.0
686.13,84.0
686.2,95.0
686.26,84.0
686.32,89.0
686.38,119.0
686.45,106.0
686.51,88.0
686.57,100.0
686.64,110.0
686.7,76.0
686.76,77.0
686.83,77.0
686.89,88.0
686.95,77.0
687.01,88.0
687.08,102.0
687.14,77.0
687.2,80.0
687.27,75.0
687.33,52.0
687.39,43.0
687.46,58.0
687.52,46.0
687.58,46.0
687.64,54.0
687.71,45.0
687.77,46.0
687.83,36.0
687.9,27.0
687.96,29.0
688.02,47.0
688.09,48.0
688.15,50.0
688.21,70.0
688.27,55.0
688.34,43.0
688.4,47.0
688.46,47.0
688.53,69.0
688.59,56.0
688.65,55.0
688.72,45.0
688.78,56.0
688.84,69.0
688.9,62.0
688.97,78.0
689.03,83.0
689.09,81.0
689.16,85.0
689.22,117.0
689.28,106.0
689.35,94.0
689.41,127.0
689.47,109.0
689.53,105.0
689.6,93.0
689.66,113.0
689.72,105.0
689.79,120.0
689.85,113.0
689.91,95.0
689.98,100.0
690.04,89.0
690.1,102.0
690.16,105.0
690.23,100.0
690.29,121.0
690.35,125.0
690.42,116.0
690.48,112.0
690.54,126.0
690.61,132.0
690.67,117.0
690.73,117.0
690.79,119.0
690.86,128.0
690.92,121.0
690.98,143.0
691.05,114.0
691.11,117.0
691.17,117.0
691.24,157.0
691.3,136.0
691.36,120.0
691.42,149.0
691.49,136.0
691.55,160.0
691.61,139.0
691.68,147.0
691.74,153.0
691.8,158.0
691.87,183.0
691.93,156.0
691.99,161.0
692.05,173.0
692.12,165.0
692.18,141.0
692.24,163.0
692.31,173.0
692.37,172.0
692.43,174.0
692.5,176.0
692.56,176.0
692.62,152.0
692.68,159.0
692.75,143.0
692.81,159.0
692.87,162.0
692.94,144.0
693.0,144.0
693.06,152.0
693.13,130.0
693.19,142.0
693.25,134.0
693.31,156.0
693.38,149.0
693.44,139.0
693.5,157.0
693.57,159.0
693.63,165.0
693.69,181.0
693.76,180.0
693.82,180.0
693.88,162.0
693.94,164.0
694.01,133.0
694.07,124.0
694.13,120.0
694.2,109.0
694.26,120.0
694.32,106.0
694.39,102.0
694.45,126.0
694.51,142.0
694.57,125.0
694.64,119.0
694.7,119.0
694.76,102.0
694.83,113.0
694.89,127.0
694.95,113.0
695.02,123.0
695.08,124.0
695.14,119.0
695.2,135.0
695.27,135.0
695.33,133.0
695.39,126.0
695.46,137.0
695.52,133.0
695.58,135.0
695.65,152.0
695.71,141.0
695.77,108.0
695.83,97.0
695.9,136.0
695.96,135.0
696.02,134.0
696.09,147.0
696.15,112.0
696.21,118.0
696.28,120.0
696.34,112.0
696.4,118.0
696.46,117.0
696.53,125.0
696.59,127.0
696.65,119.0
696.72,132.0
696.78,109.0
696.84,124.0
696.91,133.0
696.97,126.0
697.03,128.0
697.09,133.0
697.16,121.0
697.22,140.0
697.28,132.0
697.35,137.0
697.41,121.0
697.47,146.0
697.54,145.0
697.6,137.0
697.66,149.0
697.72,160.0
697.79,155.0
697.85,161.0
697.91,175.0
697.98,154.0
698.04,138.0
698.1,154.0
698.17,148.0
698.23,132.0
698.29,120.0
698.35,163.0
698.42,139.0
698.48,119.0
698.54,138.0
698.61,126.0
698.67,138.0
698.73,141.0
698.8,161.0
698.86,165.0
698.92,148.0
698.98,145.0
699.05,141.0
699.11,148.0
699.17,158.0
699.24,135.0
699.3,149.0
699.36,161.0
699.43,160.0
699.49,166.0
699.55,166.0
699.61,135.0
699.68,157.0
699.74,142.0
699.8,147.0
699.87,137.0
699.93,157.0
699.99,139.0
700.06,142.0
700.12,158.0
700.18,160.0
700.24,150.0
700.31,150.0
700.37,161.0
700.43,157.0
700.5,146.0
700.56,155.0
700.62,165.0
700.69,166.0
700.75,176.0
700.81,172.0
700.87,197.0
700.94,187.0
701.0,168.0
701.06,157.0
701.13,164.0
701.19,173.0
701.25,170.0
701.32,176.0
701.38,173.0
701.44,174.0
701.5,165.0
701.57,164.0
701.63,171.0
701.69,150.0
701.76,149.0
701.82,157.0
701.88,143.0
701.95,147.0
702.01,153.0
702.07,145.0
702.13,149.0
702.2,144.0
702.26,147.0
702.32,155.0
702.39,133.0
702.45,125.0
702.51,134.0
702.58,150.0
702.64,131.0
702.7,150.0
702.76,149.0
702.83,149.0
702.89,138.0
702.95,134.0
703.02,152.0
703.08,118.0
703.14,112.0
703.21,105.0
703.27,109.0
703.33,94.0
703.39,102.0
703.46,95.0
703.52,81.0
703.58,103.0
703.65,91.0
703.71,127.0
703.77,100.0
703.84,102.0
703.9,103.0
703.96,74.0
704.02,80.0
704.09,80.0
704.15,81.0
704.21,75.0
704.28,81.0
704.34,76.0
704.4,80.0
704.47,98.0
704.53,98.0
704.59,91.0
704.65,88.0
704.72,91.0
704.78,98.0
704.84,94.0
704.91,102.0
704.97,82.0
705.03,60.0
705.1,76.0
705.16,85.0
705.22,86.0
705.28,90.0
705.35,88.0
705.41,69.0
705.47,86.0
705.54,86.0
705.6,80.0
705.66,61.0
705.73,72.0
705.79,53.0
705.85,61.0
705.91,69.0
705.98,67.0
706.04,73.0
706.1,70.0
706.17,73.0
706.23,62.0
706.29,75.0
706.36,61.0
706.42,62.0
706.48,83.0
706.54,100.0
706.61,101.0
706.67,117.0
706.73,112.0
706.8,106.0
706.86,117.0
706.92,125.0
706.99,124.0
707.05,117.0
707.11,111.0
707.17,113.0
707.24,103.0
707.3,108.0
707.36,118.0
707.43,133.0
707.49,96.0
707.55,106.0
707.62,116.0
707.68,118.0
707.74,124.0
707.8,142.0
707.87,137.0
707.93,122.0
707.99,129.0
708.06,142.0
708.12,131.0
708.18,130.0
708.25,122.0
708.31,129.0
708.37,130.0
708.43,129.0
708.5,125.0
708.56,128.0
708.62,140.0
708.69,142.0
708.75,150.0
708.81,152.0
708.88,146.0
708.94,132.0
709.0,134.0
709.06,130.0
709.13,115.0
709.19,123.0
709.25,118.0
709.32,123.0
709.38,119.0
709.44,128.0
709.51,122.0
709.57,143.0
709.63,140.0
709.69,128.0
709.76,130.0
709.82,132.0
709.88,117.0
709.95,128.0
710.01,147.0
710.07,130.0
710.14,119.0
710.2,110.0
710.26,118.0
710.32,121.0
710.39,113.0
710.45,127.0
710.51,136.0
710.58,132.0
710.64,117.0
710.7,115.0
710.77,128.0
710.83,121.0
710.89,137.0
710.95,124.0
711.02,120.0
711.08,126.0
711.14,117.0
711.21,109.0
711.27,77.0
711.33,103.0
711.4,117.0
711.46,102.0
711.52,95.0
711.58,79.0
711.65,78.0
711.71,76.0
711.77,66.0
711.84,59.0
711.9,67.0
711.96,79.0
712.03,61.0
712.09,53.0
712.15,59.0
712.21,49.0
712.28,43.0
712.34,61.0
712.4,64.0
712.47,49.0
712.53,40.0
712.59,25.0
712.66,18.0
712.72,15.0
712.78,15.0
712.84,23.0
712.91,34.0
712.97,34.0
713.03,51.0
713.1,31.0
713.16,44.0
713.22,26.0
713.29,20.0
713.35,23.0
713.41,24.0
713.47,18.0
713.54,39.0
713.6,36.0
713.66,33.0
713.73,17.0
713.79,23.0
713.85,40.0
713.92,33.0
713.98,27.0
714.04,33.0
714.1,51.0
714.17,45.0
714.23,51.0
714.29,52.0
714.36,38.0
714.42,52.0
714.48,48.0
714.55,64.0
714.61,23.0
714.67,15.0
714.73,38.0
714.8,59.0
714.86,60.0
714.92,54.0
714.99,38.0
715.05,60.0
715.11,57.0
715.18,44.0
715.24,49.0
715.3,48.0
715.36,40.0
715.43,49.0
715.49,52.0
715.55,62.0
715.62,65.0
715.68,60.0
715.74,73.0
715.81,106.0
715.87,105.0
715.93,83.0
715.99,100.0
716.06,93.0
716.12,73.0
716.18,103.0
716.25,95.0
716.31,95.0
716.37,92.0
716.44,91.0
716.5,76.0
716.56,67.0
716.62,90.0
716.69,73.0
716.75,50.0
716.81,61.0
716.88,58.0
716.94,72.0
717.0,79.0
717.07,62.0
717.13,79.0
717.19,85.0
717.25,75.0
717.32,70.0
717.38,80.0
717.44,91.0
717.51,82.0
717.57,95.0
717.63,86.0
717.7,100.0
717.76,96.0
717.82,96.0
717.88,91.0
717.95,91.0
718.01,84.0
718.07,89.0
718.14,101.0
718.2,106.0
718.26,120.0
718.33,120.0
718.39,105.0
718.45,111.0
718.51,110.0
718.58,120.0
718.64,119.0
718.7,108.0
718.77,121.0
718.83,128.0
718.89,115.0
718.96,114.0
719.02,113.0
719.08,112.0
719.14,108.0
719.21,120.0
719.27,110.0
719.33,130.0
719.4,121.0
719.46,117.0
719.52,128.0
719.59,108.0
719.65,113.0
719.71,122.0
719.77,132.0
719.84,118.0
719.9,146.0
719.96,135.0
720.03,150.0
720.09,132.0
720.15,123.0
720.22,117.0
720.28,113.0
720.34,135.0
720.4,105.0
720.47,107.0
720.53,119.0
720.59,119.0
720.66,124.0
720.72,103.0
720.78,108.0
720.85,86.0
720.91,100.0
720.97,103.0
721.03,99.0
721.1,91.0
721.16,62.0
721.22,61.0
721.29,51.0
721.35,45.0
721.41,67.0
721.48,55.0
721.54,48.0
721.6,40.0
721.66,23.0
721.73,36.0
721.79,28.0
721.85,40.0
721.92,30.0
721.98,29.0
722.04,23.0
722.11,12.0
722.17,45.0
722.23,34.0
722.29,21.0
722.36,18.0
722.42,43.0
722.48,39.0
722.55,38.0
722.61,29.0
722.67,47.0
722.74,59.0
722.8,51.0
722.86,48.0
722.92,43.0
722.99,47.0
723.05,36.0
723.11,28.0
723.18,31.0
723.24,37.0
723.3,25.0
723.37,44.0
723.43,25.0
723.49,-11.0
723.55,24.0
723.62,65.0
723.68,22.0
723.74,16.0
723.81,17.0
723.87,6.0
723.93,15.0
724.0,12.0
724.06,8.0
724.12,20.0
724.18,15.0
724.25,10.0
724.31,23.0
724.37,34.0
724.44,31.0
724.5,32.0
724.56,20.0
724.63,24.0
724.69,46.0
724.75,50.0
724.81,60.0
724.88,76.0
724.94,67.0
725.0,81.0
725.07,86.0
725.13,86.0
725.19,64.0
725.26,67.0
725.32,58.0
725.38,56.0
725.44,67.0
725.51,84.0
725.57,86.0
725.63,104.0
725.7,124.0
725.76,140.0
725.82,131.0
725.89,129.0
725.95,144.0
726.01,163.0
726.07,164.0
726.14,132.0
726.2,157.0
726.26,153.0
726.33,134.0
726.39,178.0
726.45,177.0
726.52,179.0
726.58,160.0
726.64,164.0
726.7,175.0
726.77,201.0
726.83,193.0
726.89,172.0
726.96,194.0
727.02,208.0
727.08,192.0
727.15,174.0
727.21,175.0
727.27,171.0
727.33,161.0
727.4,174.0
727.46,195.0
727.52,183.0
727.59,178.0
727.65,153.0
727.71,177.0
727.78,152.0
727.84,181.0
727.9,177.0
727.96,176.0
728.03,182.0
728.09,202.0
728.15,213.0
728.22,206.0
728.28,177.0
728.34,168.0
728.41,197.0
728.47,182.0
728.53,178.0
728.59,171.0
728.66,178.0
728.72,171.0
728.78,161.0
728.85,169.0
728.91,166.0
728.97,163.0
729.04,160.0
729.1,148.0
729.16,160.0
729.22,151.0
729.29,147.0
729.35,145.0
729.41,141.0
729.48,140.0
729.54,123.0
729.6,106.0
729.67,124.0
729.73,122.0
729.79,145.0
729.85,156.0
729.92,128.0
729.98,133.0
730.04,149.0
730.11,149.0
730.17,125.0
730.23,131.0
730.3,122.0
730.36,146.0
730.42,149.0
730.48,128.0
730.55,137.0
730.61,151.0
730.67,149.0
730.74,136.0
730.8,146.0
730.86,164.0
730.93,160.0
730.99,183.0
731.05,189.0
731.11,207.0
731.18,200.0
731.24,212.0
731.3,195.0
731.37,168.0
731.43,196.0
731.49,189.0
731.56,190.0
731.62,196.0
731.68,177.0
731.74,177.0
731.81,183.0
731.87,190.0
731.93,186.0
732.0,179.0
732.06,170.0
732.12,168.0
732.19,189.0
732.25,179.0
732.31,154.0
732.37,153.0
732.44,128.0
732.5,117.0
732.56,130.0
732.63,130.0
732.69,112.0
732.75,112.0
732.82,104.0
732.88,100.0
732.94,109.0
733.0,135.0
733.07,148.0
733.13,146.0
733.19,136.0
733.26,126.0
733.32,144.0
733.38,112.0
733.45,125.0
733.51,95.0
733.57,89.0
733.63,96.0
733.7,64.0
733.76,65.0
733.82,54.0
733.89,45.0
733.95,28.0
734.01,62.0
734.08,84.0
734.14,81.0
734.2,65.0
734.26,77.0
734.33,65.0
734.39,69.0
734.45,79.0
734.52,63.0
734.58,83.0
734.64,98.0
734.71,83.0
734.77,85.0
734.83,63.0
734.89,84.0
734.96,95.0
735.02,123.0
735.08,108.0
735.15,112.0
735.21,124.0
735.27,101.0
735.34,100.0
735.4,118.0
735.46,106.0
735.52,97.0
735.59,101.0
735.65,87.0
735.71,83.0
735.78,72.0
735.84,101.0
735.9,114.0
735.97,103.0
736.03,106.0
736.09,103.0
736.15,94.0
736.22,116.0
736.28,108.0
736.34,92.0
736.41,97.0
736.47,65.0
736.53,59.0
736.6,62.0
736.66,50.0
736.72,48.0
736.78,72.0
736.85,56.0
736.91,50.0
736.97,53.0
737.04,46.0
737.1,53.0
737.16,65.0
737.23,50.0
737.29,54.0
737.35,51.0
737.41,64.0
737.48,73.0
737.54,64.0
737.6,78.0
737.67,62.0
737.73,79.0
737.79,84.0
737.86,68.0
737.92,83.0
737.98,65.0
738.04,56.0
738.11,70.0
738.17,62.0
738.23,61.0
738.3,65.0
738.36,60.0
738.42,60.0
738.49,65.0
738.55,62.0
738.61,61.0
738.67,62.0
738.74,70.0
738.8,71.0
738.86,62.0
738.93,66.0
738.99,59.0
739.05,71.0
739.12,64.0
739.18,57.0
739.24,73.0
739.3,76.0
739.37,59.0
739.43,65.0
739.49,76.0
739.56,54.0
739.62,69.0
739.68,72.0
739.75,58.0
739.81,70.0
739.87,68.0
739.93,75.0
740.0,72.0
740.06,78.0
740.12,87.0
740.19,105.0
740.25,116.0
740.31,96.0
740.38,110.0
740.44,114.0
740.5,124.0
740.56,106.0
740.63,108.0
740.69,127.0
740.75,113.0
740.82,130.0
740.88,106.0
740.94,114.0
741.01,135.0
741.07,142.0
741.13,136.0
741.19,129.0
741.26,129.0
741.32,131.0
741.38,142.0
741.45,175.0
741.51,168.0
741.57,158.0
741.64,166.0
741.7,177.0
741.76,197.0
741.82,193.0
741.89,179.0
741.95,179.0
742.01,183.0
742.08,204.0
742.14,193.0
742.2,204.0
742.27,201.0
742.33,179.0
742.39,196.0
742.45,192.0
742.52,168.0
742.58,180.0
742.64,185.0
742.71,178.0
742.77,179.0
742.83,170.0
742.9,182.0
742.96,194.0
743.02,157.0
743.08,157.0
743.15,160.0
743.21,183.0
743.27,133.0
743.34,123.0
743.4,143.0
743.46,142.0
743.53,167.0
743.59,152.0
743.65,171.0
743.71,169.0
743.78,171.0
743.84,187.0
743.9,197.0
743.97,182.0
744.03,175.0
744.09,179.0
744.16,162.0
744.22,142.0
744.28,165.0
744.34,153.0
744.41,140.0
744.47,126.0
744.53,125.0
744.6,122.0
744.66,125.0
744.72,108.0
744.79,108.0
744.85,118.0
744.91,102.0
744.97,125.0
745.04,98.0
745.1,118.0
745.16,130.0
745.23,122.0
745.29,107.0
745.35,88.0
745.42,85.0
745.48,96.0
745.54,109.0
745.6,112.0
745.67,117.0
745.73,108.0
745.79,108.0
745.86,114.0
745.92,117.0
745.98,113.0
746.05,108.0
746.11,113.0
746.17,106.0
746.23,87.0
746.3,92.0
746.36,108.0
746.42,108.0
746.49,117.0
746.55,89.0
746.61,92.0
746.68,110.0
746.74,103.0
746.8,95.0
746.86,83.0
746.93,81.0
746.99,91.0
747.05,71.0
747.12,54.0
747.18,49.0
747.24,58.0
747.31,75.0
747.37,66.0
747.43,80.0
747.49,66.0
747.56,69.0
747.62,77.0
747.68,97.0
747.75,99.0
747.81,105.0
747.87,88.0
747.94,76.0
748.0,64.0
748.06,85.0
748.12,78.0
748.19,89.0
748.25,73.0
748.31,76.0
748.38,83.0
748.44,85.0
748.5,93.0
748.57,97.0
748.63,83.0
748.69,73.0
748.75,76.0
748.82,69.0
748.88,61.0
748.94,52.0
749.01,57.0
749.07,64.0
749.13,71.0
749.2,65.0
749.26,71.0
749.32,94.0
749.38,84.0
749.45,75.0
749.51,81.0
749.57,88.0
749.64,83.0
749.7,73.0
749.76,65.0
749.83,77.0
749.89,62.0
749.95,59.0
750.01,61.0
750.08,56.0
750.14,51.0
750.2,71.0
750.27,56.0
750.33,50.0
750.39,51.0
750.46,54.0
750.52,54.0
750.58,76.0
750.64,55.0
750.71,67.0
750.77,68.0
750.83,64.0
750.9,87.0
750.96,87.0
751.02,104.0
751.09,93.0
751.15,87.0
751.21,109.0
751.27,107.0
751.34,87.0
751.4,111.0
751.46,102.0
751.53,85.0
751.59,93.0
751.65,124.0
751.72,107.0
751.78,107.0
751.84,109.0
751.9,101.0
751.97,115.0
752.03,136.0
752.09,112.0
752.16,138.0
752.22,148.0
752.28,150.0
752.35,150.0
752.41,131.0
752.47,145.0
752.53,122.0
752.6,131.0
752.66,131.0
752.72,134.0
752.79,141.0
752.85,149.0
752.91,156.0
752.98,173.0
753.04,174.0
753.1,183.0
753.16,174.0
753.23,183.0
753.29,157.0
753.35,170.0
753.42,169.0
753.48,182.0
753.54,160.0
753.61,164.0
753.67,158.0
753.73,159.0
753.79,169.0
753.86,151.0
753.92,161.0
753.98,161.0
754.05,160.0
754.11,164.0
754.17,194.0
754.24,177.0
754.3,171.0
754.36,176.0
754.42,162.0
754.49,167.0
754.55,164.0
754.61,147.0
754.68,125.0
754.74,112.0
754.8,123.0
754.87,112.0
754.93,108.0
754.99,103.0
755.05,115.0
755.12,117.0
755.18,122.0
755.24,138.0
755.31,137.0
755.37,153.0
755.43,155.0
755.5,155.0
755.56,152.0
755.62,153.0
755.68,164.0
755.75,153.0
755.81,165.0
755.87,155.0
755.94,161.0
756.0,171.0
756.06,179.0
756.13,164.0
756.19,155.0
756.25,148.0
756.31,151.0
756.38,153.0
756.44,155.0
756.5,158.0
756.57,165.0
756.63,175.0
756.69,146.0
756.76,157.0
756.82,164.0
756.88,160.0
756.94,158.0
757.01,153.0
757.07,128.0
757.13,138.0
757.2,147.0
757.26,127.0
757.32,128.0
757.39,124.0
757.45,136.0
757.51,135.0
757.57,148.0
757.64,157.0
757.7,156.0
757.76,155.0
757.83,145.0
757.89,142.0
757.95,131.0
758.02,154.0
758.08,124.0
758.14,105.0
758.2,116.0
758.27,120.0
758.33,125.0
758.39,116.0
758.46,102.0
758.52,101.0
758.58,111.0
758.65,121.0
758.71,111.0
758.77,104.0
758.83,101.0
758.9,82.0
758.96,80.0
759.02,87.0
759.09,80.0
759.15,70.0
759.21,70.0
759.28,69.0
759.34,77.0
759.4,75.0
759.46,86.0
759.53,95.0
759.59,97.0
759.65,98.0
759.72,106.0
759.78,108.0
759.84,109.0
759.91,105.0
759.97,121.0
760.03,117.0
760.09,120.0
760.16,123.0
760.22,112.0
760.28,106.0
760.35,101.0
760.41,99.0
760.47,114.0
760.54,120.0
760.6,129.0
760.66,122.0
760.72,120.0
760.79,127.0
760.85,116.0
760.91,107.0
760.98,115.0
761.04,118.0
761.1,98.0
761.17,99.0
761.23,97.0
761.29,78.0
761.35,105.0
761.42,101.0
761.48,96.0
761.54,94.0
761.61,101.0
761.67,97.0
761.73,105.0
761.8,111.0
761.86,133.0
761.92,124.0
761.98,116.0
762.05,119.0
762.11,117.0
762.17,101.0
762.24,109.0
762.3,111.0
762.36,99.0
762.43,98.0
762.49,109.0
762.55,101.0
762.61,102.0
762.68,118.0
762.74,97.0
762.8,81.0
762.87,77.0
762.93,64.0
762.99,106.0
763.06,90.0
763.12,70.0
763.18,97.0
763.24,89.0
763.31,107.0
763.37,112.0
763.43,109.0
763.5,120.0
763.56,117.0
763.62,127.0
763.69,109.0
763.75,131.0
763.81,127.0
763.87,138.0
763.94,127.0
764.0,153.0
764.06,160.0
764.13,155.0
764.19,161.0
764.25,150.0
764.32,141.0
764.38,155.0
764.44,164.0
764.5,167.0
764.57,168.0
764.63,171.0
764.69,164.0
764.76,149.0
764.82,150.0
764.88,175.0
764.95,158.0
765.01,161.0
765.07,165.0
765.13,173.0
765.2,168.0
765.26,167.0
765.32,143.0
765.39,142.0
765.45,155.0
765.51,156.0
765.58,168.0
765.64,157.0
765.7,157.0
765.76,156.0
765.83,155.0
765.89,164.0
765.95,160.0
766.02,182.0
766.08,175.0
766.14,155.0
766.21,168.0
766.27,157.0
766.33,157.0
766.39,157.0
766.46,164.0
766.52,134.0
766.58,153.0
766.65,145.0
766.71,159.0
766.77,170.0
766.84,177.0
766.9,181.0
766.96,167.0
767.02,171.0
767.09,175.0
767.15,171.0
767.21,153.0
767.28,157.0
767.34,171.0
767.4,170.0
767.47,159.0
767.53,134.0
767.59,145.0
767.65,119.0
767.72,102.0
767.78,118.0
767.84,120.0
767.91,105.0
767.97,128.0
768.03,121.0
768.1,132.0
768.16,116.0
768.22,103.0
768.28,116.0
768.35,106.0
768.41,94.0
768.47,100.0
768.54,110.0
768.6,113.0
768.66,120.0
768.73,111.0
768.79,122.0
768.85,134.0
768.91,115.0
768.98,100.0
769.04,91.0
769.1,105.0
769.17,127.0
769.23,101.0
769.29,103.0
769.36,109.0
769.42,65.0
769.48,68.0
769.54,69.0
769.61,101.0
769.67,86.0
769.73,84.0
769.8,101.0
769.86,85.0
769.92,64.0
769.99,85.0
770.05,90.0
770.11,48.0
770.17,53.0
770.24,56.0
770.3,68.0
770.36,47.0
770.43,50.0
770.49,52.0
770.55,57.0
770.62,55.0
770.68,59.0
770.74,60.0
770.8,53.0
770.87,67.0
770.93,68.0
770.99,43.0
771.06,40.0
771.12,46.0
771.18,38.0
771.25,49.0
771.31,35.0
771.37,33.0
771.43,39.0
771.5,17.0
771.56,31.0
771.62,13.0
771.69,19.0
771.75,15.0
771.81,9.0
771.88,14.0
771.94,10.0
772.0,6.0
772.06,19.0
772.13,8.0
772.19,14.0
772.25,28.0
772.32,-10.0
772.38,7.0
772.44,25.0
772.51,22.0
772.57,4.0
772.63,31.0
772.69,7.0
772.76,6.0
772.82,7.0
772.88,35.0
772.95,40.0
773.01,26.0
773.07,26.0
773.14,42.0
773.2,20.0
773.26,31.0
773.32,32.0
773.39,44.0
773.45,44.0
773.51,52.0
773.58,51.0
773.64,37.0
773.7,45.0
773.77,38.0
773.83,41.0
773.89,39.0
773.95,67.0
774.02,83.0
774.08,72.0
774.14,100.0
774.21,85.0
774.27,90.0
774.33,70.0
774.4,72.0
774.46,92.0
774.52,83.0
774.58,61.0
774.65,100.0
774.71,100.0
774.77,103.0
774.84,110.0
774.9,114.0
774.96,106.0
775.03,76.0
775.09,89.0
775.15,68.0
775.21,92.0
775.28,98.0
775.34,97.0
775.4,104.0
775.47,101.0
775.53,99.0
775.59,111.0
775.66,109.0
775.72,118.0
775.78,131.0
775.84,121.0
775.91,132.0
775.97,126.0
776.03,139.0
776.1,139.0
776.16,145.0
776.22,145.0
776.29,150.0
776.35,158.0
776.41,162.0
776.47,171.0
776.54,164.0
776.6,172.0
776.66,188.0
776.73,184.0
776.79,202.0
776.85,209.0
776.92,194.0
776.98,208.0
777.04,191.0
777.1,189.0
777.17,155.0
777.23,150.0
777.29,175.0
777.36,161.0
777.42,144.0
777.48,160.0
777.55,166.0
777.61,178.0
777.67,190.0
777.73,183.0
777.8,181.0
777.86,190.0
777.92,213.0
777.99,196.0
778.05,197.0
778.11,192.0
778.18,180.0
778.24,171.0
778.3,174.0
778.36,171.0
778.43,197.0
778.49,182.0
778.55,184.0
778.62,175.0
778.68,170.0
778.74,152.0
778.81,173.0
778.87,167.0
778.93,158.0
778.99,172.0
779.06,172.0
779.12,207.0
779.18,189.0
779.25,158.0
779.31,160.0
779.37,145.0
779.44,141.0
779.5,108.0
779.56,104.0
779.62,113.0
779.69,116.0
779.75,119.0
779.81,127.0
779.88,106.0
779.94,124.0
780.0,136.0
780.07,144.0
780.13,153.0
780.19,151.0
780.25,133.0
780.32,136.0
780.38,134.0
780.44,126.0
780.51,124.0
780.57,125.0
780.63,136.0
780.7,120.0
780.76,100.0
780.82,119.0
780.88,138.0
780.95,138.0
781.01,144.0
781.07,127.0
781.14,153.0
781.2,147.0
781.26,150.0
781.33,155.0
781.39,135.0
781.45,166.0
781.51,151.0
781.58,146.0
781.64,138.0
781.7,146.0
781.77,167.0
781.83,151.0
781.89,147.0
781.96,151.0
782.02,153.0
782.08,131.0
782.14,151.0
782.21,141.0
782.27,147.0
782.33,155.0
782.4,162.0
782.46,152.0
782.52,124.0
782.59,130.0
782.65,144.0
782.71,149.0
782.77,134.0
782.84,128.0
782.9,122.0
782.96,126.0
783.03,128.0
783.09,120.0
783.15,90.0
783.22,112.0
783.28,109.0
783.34,87.0
783.4,78.0
783.47,60.0
783.53,71.0
783.59,67.0
783.66,80.0
783.72,78.0
783.78,71.0
783.85,64.0
783.91,78.0
783.97,97.0
784.03,82.0
784.1,78.0
784.16,96.0
784.22,86.0
784.29,108.0
784.35,109.0
784.41,105.0
784.48,89.0
784.54,72.0
784.6,82.0
784.66,70.0
784.73,86.0
784.79,87.0
784.85,75.0
784.92,67.0
784.98,87.0
785.04,107.0
785.11,89.0
785.17,102.0
785.23,97.0
785.29,97.0
785.36,117.0
785.42,101.0
785.48,117.0
785.55,118.0
785.61,115.0
785.67,97.0
785.74,121.0
785.8,123.0
785.86,104.0
785.92,104.0
785.99,122.0
786.05,120.0
786.11,108.0
786.18,120.0
786.24,101.0
786.3,106.0
786.37,115.0
786.43,112.0
786.49,96.0
786.55,97.0
786.62,103.0
786.68,97.0
786.74,93.0
786.81,116.0
786.87,109.0
786.93,115.0
787.0,123.0
787.06,108.0
787.12,112.0
787.18,132.0
787.25,117.0
787.31,98.0
787.37,104.0
787.44,115.0
787.5,122.0
787.56,130.0
787.63,121.0
787.69,148.0
787.75,133.0
787.81,112.0
787.88,128.0
787.94,100.0
788.0,107.0
788.07,117.0
788.13,94.0
788.19,83.0
788.26,73.0
788.32,109.0
788.38,101.0
788.44,86.0
788.51,104.0
788.57,114.0
788.63,97.0
788.7,107.0
788.76,105.0
788.82,105.0
788.89,113.0
788.95,92.0
789.01,73.0
789.07,101.0
789.14,84.0
789.2,98.0
789.26,103.0
789.33,110.0
789.39,109.0
789.45,83.0
789.52,96.0
789.58,117.0
789.64,114.0
789.7,113.0
789.77,134.0
789.83,136.0
789.89,126.0
789.96,128.0
790.02,152.0
790.08,158.0
790.15,149.0
790.21,152.0
790.27,119.0
790.33,134.0
790.4,162.0
790.46,138.0
790.52,145.0
790.59,142.0
790.65,159.0
790.71,151.0
790.78,144.0
790.84,145.0
790.9,128.0
790.96,149.0
791.03,143.0
791.09,134.0
791.15,141.0
791.22,147.0
791.28,135.0
791.34,126.0
791.41,141.0
791.47,147.0
791.53,139.0
791.59,147.0
791.66,159.0
791.72,155.0
791.78,167.0
791.85,153.0
791.91,144.0
791.97,147.0
792.04,149.0
792.1,149.0
792.16,152.0
792.22,148.0
792.29,158.0
792.35,144.0
792.41,159.0
792.48,159.0
792.54,154.0
792.6,174.0
792.67,163.0
792.73,169.0
792.79,182.0
792.85,170.0
792.92,156.0
792.98,126.0
793.04,146.0
793.11,160.0
793.17,157.0
793.23,161.0
793.3,146.0
793.36,140.0
793.42,126.0
793.48,133.0
793.55,152.0
793.61,126.0
793.67,141.0
793.74,144.0
793.8,158.0
793.86,159.0
793.93,139.0
793.99,137.0
794.05,131.0
794.11,117.0
794.18,113.0
794.24,134.0
794.3,116.0
794.37,84.0
794.43,83.0
794.49,77.0
794.56,82.0
794.62,106.0
794.68,75.0
794.74,80.0
794.81,101.0
794.87,101.0
794.93,94.0
795.0,94.0
795.06,95.0
795.12,69.0
795.19,71.0
795.25,69.0
795.31,68.0
795.37,54.0
795.44,52.0
795.5,56.0
795.56,73.0
795.63,62.0
795.69,48.0
795.75,52.0
795.82,75.0
795.88,42.0
795.94,28.0
796.0,52.0
796.07,52.0
796.13,54.0
796.19,35.0
796.26,35.0
796.32,53.0
796.38,42.0
796.45,29.0
796.51,37.0
796.57,18.0
796.63,31.0
796.7,38.0
796.76,3.0
796.82,17.0
796.89,6.0
796.95,16.0
797.01,24.0
797.08,18.0
797.14,19.0
797.2,17.0
797.26,30.0
797.33,24.0
797.39,22.0
797.45,37.0
797.52,18.0
797.58,21.0
797.64,13.0
797.71,24.0
797.77,18.0
797.83,17.0
797.89,29.0
797.96,13.0
798.02,42.0
798.08,35.0
798.15,29.0
798.21,37.0
798.27,30.0
798.34,36.0
798.4,29.0
798.46,49.0
798.52,42.0
798.59,45.0
798.65,41.0
798.71,35.0
798.78,50.0
798.84,61.0
798.9,53.0
798.97,51.0
799.03,61.0
799.09,81.0
799.15,73.0
799.22,79.0
799.28,76.0
799.34,69.0
799.41,53.0
799.47,57.0
799.53,53.0
799.6,42.0
799.66,49.0
799.72,53.0
799.78,53.0
799.85,57.0
799.91,42.0
799.97,69.0
800.04,95.0
800.1,103.0
800.16,92.0
800.23,101.0
800.29,114.0
800.35,107.0
800.41,103.0
800.48,108.0
800.54,119.0
800.6,112.0
800.67,113.0
800.73,115.0
800.79,123.0
800.86,118.0
800.92,138.0
800.98,155.0
801.04,133.0
801.11,132.0
801.17,165.0
801.23,159.0
801.3,156.0
801.36,163.0
801.42,157.0
801.49,160.0
801.55,150.0
801.61,147.0
801.67,168.0
801.74,168.0
801.8,172.0
801.86,177.0
801.93,162.0
801.99,182.0
802.05,164.0
802.12,158.0
802.18,177.0
802.24,162.0
802.3,164.0
802.37,170.0
802.43,174.0
802.49,183.0
802.56,169.0
802.62,145.0
802.68,161.0
802.75,186.0
802.81,189.0
802.87,174.0
802.93,182.0
803.0,198.0
803.06,213.0
803.12,200.0
803.19,178.0
803.25,175.0
803.31,191.0
803.38,182.0
803.44,205.0
803.5,185.0
803.56,180.0
803.63,185.0
803.69,185.0
803.75,181.0
803.82,167.0
803.88,172.0
803.94,168.0
804.01,181.0
804.07,171.0
804.13,167.0
804.19,167.0
804.26,163.0
804.32,153.0
804.38,149.0
804.45,148.0
804.51,137.0
804.57,142.0
804.64,168.0
804.7,117.0
804.76,103.0
804.82,109.0
804.89,115.0
804.95,119.0
805.01,126.0
805.08,105.0
805.14,100.0
805.2,109.0
805.27,99.0
805.33,106.0
805.39,84.0
805.45,97.0
805.52,86.0
805.58,84.0
805.64,87.0
805.71,101.0
805.77,112.0
805.83,91.0
805.9,98.0
805.96,111.0
806.02,116.0
806.08,115.0
806.15,110.0
806.21,126.0
806.27,143.0
806.34,125.0
806.4,118.0
806.46,105.0
806.53,105.0
806.59,135.0
806.65,137.0
806.71,115.0
806.78,122.0
806.84,128.0
806.9,137.0
806.97,149.0
807.03,139.0
807.09,121.0
807.16,89.0
807.22,83.0
807.28,86.0
807.34,91.0
807.41,100.0
807.47,94.0
807.53,95.0
807.6,88.0
807.66,99.0
807.72,98.0
807.79,98.0
807.85,92.0
807.91,101.0
807.97,92.0
808.04,86.0
808.1,99.0
808.16,102.0
808.23,83.0
808.29,81.0
808.35,70.0
808.42,70.0
808.48,65.0
808.54,71.0
808.6,57.0
808.67,67.0
808.73,45.0
808.79,43.0
808.86,54.0
808.92,58.0
808.98,62.0
809.05,67.0
809.11,83.0
809.17,74.0
809.23,81.0
809.3,80.0
809.36,67.0
809.42,96.0
809.49,87.0
809.55,94.0
809.61,82.0
809.68,52.0
809.74,55.0
809.8,71.0
809.86,75.0
809.93,70.0
809.99,81.0
810.05,85.0
810.12,97.0
810.18,82.0
810.24,100.0
810.31,121.0
810.37,116.0
810.43,115.0
810.49,123.0
810.56,134.0
810.62,130.0
810.68,150.0
810.75,139.0
810.81,126.0
810.87,144.0
810.94,157.0
811.0,160.0
811.06,135.0
811.12,127.0
811.19,133.0
811.25,123.0
811.31,116.0
811.38,111.0
811.44,123.0
811.5,130.0
811.57,122.0
811.63,107.0
811.69,99.0
811.75,120.0
811.82,108.0
811.88,128.0
811.94,126.0
812.01,122.0
812.07,133.0
812.13,109.0
812.2,121.0
812.26,123.0
812.32,122.0
812.38,121.0
812.45,119.0
812.51,129.0
812.57,119.0
812.64,147.0
812.7,146.0
812.76,152.0
812.83,141.0
812.89,120.0
812.95,140.0
813.01,149.0
813.08,157.0
813.14,156.0
813.2,134.0
813.27,131.0
813.33,128.0
813.39,137.0
813.46,130.0
813.52,128.0
813.58,149.0
813.64,145.0
813.71,148.0
813.77,125.0
813.83,133.0
813.9,122.0
813.96,141.0
814.02,134.0
814.09,122.0
814.15,141.0
814.21,117.0
814.27,144.0
814.34,139.0
814.4,145.0
814.46,151.0
814.53,166.0
814.59,158.0
814.65,154.0
814.72,163.0
814.78,164.0
814.84,156.0
814.9,162.0
814.97,188.0
815.03,178.0
815.09,172.0
815.16,177.0
815.22,168.0
815.28,182.0
815.35,182.0
815.41,205.0
815.47,194.0
815.53,186.0
815.6,200.0
815.66,208.0
815.72,189.0
815.79,203.0
815.85,209.0
815.91,201.0
815.98,193.0
816.04,193.0
816.1,202.0
816.16,230.0
816.23,217.0
816.29,223.0
816.35,230.0
816.42,240.0
816.48,235.0
816.54,243.0
816.61,249.0
816.67,247.0
816.73,229.0
816.79,225.0
816.86,222.0
816.92,215.0
816.98,250.0
817.05,226.0
817.11,240.0
817.17,235.0
817.24,212.0
817.3,230.0
817.36,209.0
817.42,204.0
817.49,212.0
817.55,210.0
817.61,204.0
817.68,207.0
817.74,186.0
817.8,205.0
817.87,197.0
817.93,189.0
817.99,200.0
818.05,192.0
818.12,188.0
818.18,185.0
818.24,164.0
818.31,188.0
818.37,189.0
818.43,182.0
818.5,179.0
818.56,167.0
818.62,171.0
818.68,163.0
818.75,153.0
818.81,145.0
818.87,135.0
818.94,144.0
819.0,133.0
819.06,138.0
819.13,127.0
819.19,126.0
819.25,133.0
819.31,101.0
819.38,97.0
819.44,92.0
819.5,81.0
819.57,76.0
819.63,54.0
819.69,68.0
819.76,79.0
819.82,67.0
819.88,66.0
819.94,69.0
820.01,60.0
820.07,58.0
820.13,70.0
820.2,76.0
820.26,74.0
820.32,64.0
820.39,52.0
820.45,67.0
820.51,86.0
820.57,78.0
820.64,53.0
820.7,56.0
820.76,65.0
820.83,57.0
820.89,54.0
820.95,66.0
821.02,48.0
821.08,26.0
821.14,34.0
821.2,24.0
821.27,44.0
821.33,32.0
821.39,9.0
821.46,24.0
821.52,20.0
821.58,31.0
821.65,31.0
821.71,13.0
821.77,5.0
821.83,3.0
821.9,-15.0
821.96,-8.0
822.02,-3.0
822.09,-8.0
822.15,-13.0
822.21,-17.0
822.28,1.0
822.34,-17.0
822.4,-23.0
822.46,-20.0
822.53,-24.0
822.59,-18.0
822.65,-29.0
822.72,-14.0
822.78,-10.0
822.84,-7.0
822.91,-18.0
822.97,-2.0
823.03,-14.0
823.09,14.0
823.16,1.0
823.22,-16.0
823.28,27.0
823.35,2.0
823.41,4.0
823.47,15.0
823.54,7.0
823.6,6.0
823.66,13.0
823.72,25.0
823.79,14.0
823.85,19.0
823.91,17.0
823.98,28.0
824.04,34.0
824.1,28.0
824.17,23.0
824.23,18.0
824.29,2.0
824.35,18.0
824.42,29.0
824.48,36.0
824.54,33.0
824.61,26.0
824.67,33.0
824.73,40.0
824.8,40.0
824.86,48.0
824.92,63.0
824.98,82.0
825.05,70.0
825.11,81.0
825.17,92.0
825.24,96.0
825.3,99.0
825.36,111.0
825.43,104.0
825.49,93.0
825.55,114.0
825.61,118.0
825.68,128.0
825.74,135.0
825.8,137.0
825.87,139.0
825.93,136.0
825.99,133.0
826.06,153.0
826.12,141.0
826.18,141.0
826.24,141.0
826.31,153.0
826.37,162.0
826.43,160.0
826.5,184.0
826.56,151.0
826.62,182.0
826.69,183.0
826.75,189.0
826.81,210.0
826.87,200.0
826.94,209.0
827.0,217.0
827.06,196.0
827.13,209.0
827.19,197.0
827.25,214.0
827.32,213.0
827.38,197.0
827.44,203.0
827.5,204.0
827.57,192.0
827.63,204.0
827.69,200.0
827.76,204.0
827.82,211.0
827.88,197.0
827.95,193.0
828.01,209.0
828.07,217.0
828.13,190.0
828.2,191.0
828.26,205.0
828.32,197.0
828.39,196.0
828.45,191.0
828.51,188.0
828.58,187.0
828.64,176.0
828.7,184.0
828.76,169.0
828.83,189.0
828.89,181.0
828.95,185.0
829.02,180.0
829.08,188.0
829.14,195.0
829.21,198.0
829.27,183.0
829.33,190.0
829.39,188.0
829.46,191.0
829.52,179.0
829.58,180.0
829.65,185.0
829.71,191.0
829.77,200.0
829.84,202.0
829.9,202.0
829.96,185.0
830.02,193.0
830.09,183.0
830.15,166.0
830.21,150.0
830.28,181.0
830.34,160.0
830.4,141.0
830.47,143.0
830.53,148.0
830.59,135.0
830.65,142.0
830.72,153.0
830.78,151.0
830.84,139.0
830.91,140.0
830.97,149.0
831.03,170.0
831.1,163.0
831.16,140.0
831.22,169.0
831.28,169.0
831.35,163.0
831.41,174.0
831.47,151.0
831.54,181.0
831.6,175.0
831.66,197.0
831.73,200.0
831.79,178.0
831.85,171.0
831.91,175.0
831.98,183.0
832.04,184.0
832.1,199.0
832.17,206.0
832.23,178.0
832.29,179.0
832.36,188.0
832.42,186.0
832.48,188.0
832.54,186.0
832.61,173.0
832.67,151.0
832.73,168.0
832.8,191.0
832.86,184.0
832.92,154.0
832.99,138.0
833.05,138.0
833.11,136.0
833.17,125.0
833.24,119.0
833.3,103.0
833.36,105.0
833.43,117.0
833.49,121.0
833.55,124.0
833.62,107.0
833.68,132.0
833.74,131.0
833.8,151.0
833.87,147.0
833.93,143.0
833.99,135.0
834.06,146.0
834.12,158.0
834.18,143.0
834.25,161.0
834.31,143.0
834.37,136.0
834.43,140.0
834.5,136.0
834.56,130.0
834.62,118.0
834.69,118.0
834.75,135.0
834.81,131.0
834.88,137.0
834.94,138.0
835.0,151.0
835.06,160.0
835.13,150.0
835.19,174.0
835.25,149.0
835.32,172.0
835.38,194.0
835.44,191.0
835.51,171.0
835.57,159.0
835.63,158.0
835.69,150.0
835.76,143.0
835.82,136.0
835.88,150.0
835.95,160.0
836.01,154.0
836.07,172.0
836.14,169.0
836.2,147.0
836.26,174.0
836.32,169.0
836.39,171.0
836.45,168.0
836.51,168.0
836.58,172.0
836.64,151.0
836.7,169.0
836.77,180.0
836.83,170.0
836.89,179.0
836.95,164.0
837.02,141.0
837.08,168.0
837.14,169.0
837.21,173.0
837.27,162.0
837.33,147.0
837.4,182.0
837.46,177.0
837.52,158.0
837.58,168.0
837.65,151.0
837.71,151.0
837.77,158.0
837.84,154.0
837.9,141.0
837.96,173.0
838.03,165.0
838.09,179.0
838.15,165.0
838.21,177.0
838.28,166.0
838.34,174.0
838.4,162.0
838.47,139.0
838.53,137.0
838.59,121.0
838.66,136.0
838.72,135.0
838.78,127.0
838.84,139.0
838.91,134.0
838.97,146.0
839.03,139.0
839.1,133.0
839.16,127.0
839.22,139.0
839.29,143.0
839.35,167.0
839.41,139.0
839.47,146.0
839.54,149.0
839.6,141.0
839.66,148.0
839.73,116.0
839.79,138.0
839.85,152.0
839.92,146.0
839.98,157.0
840.04,150.0
840.1,152.0
840.17,157.0
840.23,164.0
840.29,161.0
840.36,161.0
840.42,142.0
840.48,125.0
840.55,135.0
840.61,149.0
840.67,141.0
840.73,136.0
840.8,140.0
840.86,143.0
840.92,132.0
840.99,119.0
841.05,131.0
841.11,127.0
841.18,180.0
841.24,171.0
841.3,143.0
841.36,152.0
841.43,157.0
841.49,150.0
841.55,149.0
841.62,152.0
841.68,154.0
841.74,136.0
841.81,150.0
841.87,136.0
841.93,133.0
841.99,145.0
842.06,124.0
842.12,110.0
842.18,130.0
842.25,129.0
842.31,122.0
842.37,132.0
842.44,123.0
842.5,140.0
842.56,131.0
842.62,143.0
842.69,139.0
842.75,153.0
842.81,139.0
842.88,149.0
842.94,157.0
843.0,146.0
843.07,151.0
843.13,137.0
843.19,141.0
843.25,136.0
843.32,118.0
843.38,110.0
843.44,125.0
843.51,120.0
843.57,108.0
843.63,115.0
843.7,118.0
843.76,129.0
843.82,128.0
843.88,122.0
843.95,125.0
844.01,116.0
844.07,101.0
844.14,110.0
844.2,78.0
844.26,56.0
844.33,61.0
844.39,80.0
844.45,73.0
844.51,56.0
844.58,68.0
844.64,61.0
844.7,66.0
844.77,60.0
844.83,63.0
844.89,65.0
844.96,53.0
845.02,66.0
845.08,50.0
845.14,66.0
845.21,67.0
845.27,73.0
845.33,69.0
845.4,66.0
845.46,50.0
845.52,53.0
845.59,62.0
845.65,84.0
845.71,69.0
845.77,62.0
845.84,74.0
845.9,72.0
845.96,73.0
846.03,44.0
846.09,41.0
846.15,40.0
846.22,36.0
846.28,14.0
846.34,17.0
846.4,31.0
846.47,21.0
846.53,38.0
846.59,11.0
846.66,11.0
846.72,4.0
846.78,5.0
846.85,9.0
846.91,32.0
846.97,53.0
847.03,22.0
847.1,20.0
847.16,26.0
847.22,45.0
847.29,33.0
847.35,59.0
847.41,41.0
847.48,34.0
847.54,50.0
847.6,30.0
847.66,58.0
847.73,45.0
847.79,46.0
847.85,65.0
847.92,56.0
847.98,66.0
848.04,64.0
848.11,61.0
848.17,59.0
848.23,53.0
848.29,65.0
848.36,77.0
848.42,64.0
848.48,47.0
848.55,47.0
848.61,35.0
848.67,52.0
848.74,72.0
848.8,85.0
848.86,73.0
848.92,42.0
848.99,73.0
849.05,67.0
849.11,65.0
849.18,80.0
849.24,69.0
849.3,66.0
849.37,76.0
849.43,91.0
849.49,76.0
849.55,58.0
849.62,70.0
849.68,69.0
849.74,70.0
849.81,92.0
849.87,103.0
849.93,93.0
850.0,101.0
850.06,97.0
850.12,96.0
850.18,99.0
850.25,108.0
850.31,125.0
850.37,112.0
850.44,118.0
850.5,108.0
850.56,100.0
850.63,117.0
850.69,101.0
850.75,103.0
850.81,121.0
850.88,108.0
850.94,99.0
851.0,122.0
851.07,132.0
851.13,118.0
851.19,122.0
851.26,125.0
851.32,123.0
851.38,118.0
851.44,116.0
851.51,111.0
851.57,110.0
851.63,122.0
851.7,131.0
851.76,140.0
851.82,136.0
851.89,158.0
851.95,129.0
852.01,128.0
852.07,141.0
852.14,150.0
852.2,146.0
852.26,147.0
852.33,146.0
852.39,141.0
852.45,154.0
852.52,155.0
852.58,147.0
852.64,143.0
852.7,143.0
852.77,116.0
852.83,111.0
852.89,119.0
852.96,132.0
853.02,121.0
853.08,133.0
853.15,149.0
853.21,136.0
853.27,110.0
853.33,121.0
853.4,121.0
853.46,110.0
853.52,104.0
853.59,110.0
853.65,140.0
853.71,132.0
853.78,114.0
853.84,136.0
853.9,130.0
853.96,133.0
854.03,106.0
854.09,121.0
854.15,108.0
854.22,122.0
854.28,110.0
854.34,103.0
854.41,98.0
854.47,116.0
854.53,108.0
854.59,83.0
854.66,69.0
854.72,91.0
854.78,93.0
854.85,69.0
854.91,82.0
854.97,80.0
855.04,75.0
855.1,70.0
855.16,63.0
855.22,66.0
855.29,62.0
855.35,85.0
855.41,73.0
855.48,52.0
855.54,51.0
855.6,55.0
855.67,55.0
855.73,66.0
855.79,45.0
855.85,45.0
855.92,41.0
855.98,26.0
856.04,-7.0
856.11,11.0
856.17,28.0
856.23,38.0
856.3,45.0
856.36,27.0
856.42,54.0
856.48,34.0
856.55,33.0
856.61,29.0
856.67,30.0
856.74,38.0
856.8,50.0
856.86,32.0
856.93,50.0
856.99,65.0
857.05,52.0
857.11,53.0
857.18,68.0
857.24,57.0
857.3,48.0
857.37,51.0
857.43,48.0
857.49,54.0
857.56,52.0
857.62,58.0
857.68,51.0
857.74,61.0
857.81,53.0
857.87,64.0
857.93,60.0
858.0,63.0
858.06,81.0
858.12,78.0
858.19,81.0
858.25,84.0
858.31,69.0
858.37,86.0
858.44,89.0
858.5,101.0
858.56,76.0
858.63,88.0
858.69,70.0
858.75,86.0
858.82,92.0
858.88,94.0
858.94,110.0
859.0,119.0
859.07,117.0
859.13,116.0
859.19,111.0
859.26,104.0
859.32,94.0
859.38,95.0
859.45,100.0
859.51,124.0
859.57,109.0
859.63,113.0
859.7,123.0
859.76,128.0
859.82,140.0
859.89,144.0
859.95,139.0
860.01,145.0
860.08,149.0
860.14,145.0
860.2,150.0
860.26,137.0
860.33,130.0
860.39,144.0
860.45,124.0
860.52,155.0
860.58,164.0
860.64,140.0
860.71,159.0
860.77,146.0
860.83,183.0
860.89,178.0
860.96,186.0
861.02,174.0
861.08,177.0
861.15,203.0
861.21,216.0
861.27,200.0
861.34,195.0
861.4,215.0
861.46,182.0
861.52,183.0
861.59,201.0
861.65,219.0
861.71,216.0
861.78,207.0
861.84,208.0
861.9,206.0
861.97,193.0
862.03,205.0
862.09,208.0
862.15,212.0
862.22,201.0
862.28,209.0
862.34,222.0
862.41,228.0
862.47,237.0
862.53,224.0
862.6,215.0
862.66,220.0
862.72,215.0
862.78,238.0
862.85,234.0
862.91,228.0
862.97,239.0
863.04,220.0
863.1,216.0
863.16,219.0
863.23,211.0
863.29,216.0
863.35,208.0
863.41,198.0
863.48,208.0
863.54,215.0
863.6,187.0
863.67,192.0
863.73,197.0
863.79,187.0
863.86,178.0
863.92,158.0
863.98,169.0
864.04,162.0
864.11,163.0
864.17,161.0
864.23,182.0
864.3,164.0
864.36,190.0
864.42,184.0
864.49,172.0
864.55,168.0
864.61,153.0
864.67,175.0
864.74,177.0
864.8,193.0
864.86,193.0
864.93,193.0
864.99,204.0
865.05,204.0
865.12,212.0
865.18,215.0
865.24,194.0
865.3,183.0
865.37,178.0
865.43,183.0
865.49,180.0
865.56,190.0
865.62,185.0
865.68,177.0
865.75,185.0
865.81,180.0
865.87,174.0
865.93,168.0
866.0,169.0
866.06,183.0
866.12,176.0
866.19,171.0
866.25,163.0
866.31,169.0
866.38,146.0
866.44,150.0
866.5,157.0
866.56,158.0
866.63,145.0
866.69,141.0
866.75,152.0
866.82,149.0
866.88,132.0
866.94,139.0
867.01,135.0
867.07,128.0
867.13,127.0
867.19,138.0
867.26,149.0
867.32,134.0
867.38,124.0
867.45,127.0
867.51,115.0
867.57,110.0
867.64,113.0
867.7,118.0
867.76,124.0
867.82,67.0
867.89,71.0
867.95,99.0
868.01,84.0
868.08,102.0
868.14,90.0
868.2,96.0
868.27,93.0
868.33,88.0
868.39,94.0
868.45,95.0
868.52,80.0
868.58,95.0
868.64,87.0
868.71,91.0
868.77,90.0
868.83,78.0
868.9,91.0
868.96,91.0
869.02,105.0
869.08,94.0
869.15,86.0
869.21,76.0
869.27,68.0
869.34,80.0
869.4,75.0
869.46,91.0
869.53,94.0
869.59,75.0
869.65,84.0
869.71,95.0
869.78,97.0
869.84,81.0
869.9,84.0
869.97,67.0
870.03,64.0
870.09,66.0
870.16,63.0
870.22,59.0
870.28,69.0
870.34,58.0
870.41,61.0
870.47,89.0
870.53,62.0
870.6,80.0
870.66,76.0
870.72,59.0
870.79,75.0
870.85,76.0
870.91,84.0
870.97,73.0
871.04,105.0
871.1,83.0
871.16,63.0
871.23,80.0
871.29,70.0
871.35,55.0
871.42,39.0
871.48,42.0
871.54,56.0
871.6,67.0
871.67,63.0
871.73,62.0
871.79,57.0
871.86,64.0
871.92,73.0
871.98,59.0
872.05,46.0
872.11,58.0
872.17,47.0
872.23,55.0
872.3,55.0
872.36,47.0
872.42,50.0
872.49,29.0
872.55,40.0
872.61,34.0
872.68,37.0
872.74,56.0
872.8,52.0
872.86,56.0
872.93,59.0
872.99,45.0
873.05,61.0
873.12,70.0
873.18,58.0
873.24,58.0
873.31,40.0
873.37,59.0
873.43,65.0
873.49,71.0
873.56,84.0
873.62,65.0
873.68,50.0
873.75,78.0
873.81,61.0
873.87,58.0
873.94,84.0
874.0,88.0
874.06,88.0
874.12,80.0
874.19,101.0
874.25,98.0
874.31,86.0
874.38,78.0
874.44,67.0
874.5,73.0
874.57,75.0
874.63,58.0
874.69,50.0
874.75,55.0
874.82,69.0
874.88,52.0
874.94,43.0
875.01,65.0
875.07,99.0
875.13,76.0
875.2,76.0
875.26,62.0
875.32,56.0
875.38,64.0
875.45,73.0
875.51,97.0
875.57,87.0
875.64,99.0
875.7,89.0
875.76,83.0
875.83,89.0
875.89,100.0
875.95,97.0
876.01,88.0
876.08,85.0
876.14,97.0
876.2,106.0
876.27,113.0
876.33,122.0
876.39,121.0
876.46,123.0
876.52,136.0
876.58,109.0
876.64,135.0
876.71,134.0
876.77,116.0
876.83,97.0
876.9,99.0
876.96,118.0
877.02,105.0
877.09,101.0
877.15,116.0
877.21,123.0
877.27,128.0
877.34,135.0
877.4,133.0
877.46,111.0
877.53,108.0
877.59,135.0
877.65,116.0
877.72,118.0
877.78,121.0
877.84,117.0
877.9,87.0
877.97,99.0
878.03,120.0
878.09,99.0
878.16,117.0
878.22,104.0
878.28,119.0
878.35,105.0
878.41,104.0
878.47,97.0
878.53,112.0
878.6,108.0
878.66,118.0
878.72,132.0
878.79,113.0
878.85,118.0
878.91,95.0
878.98,100.0
879.04,102.0
879.1,117.0
879.16,110.0
879.23,101.0
879.29,96.0
879.35,105.0
879.42,94.0
879.48,92.0
879.54,91.0
879.61,87.0
879.67,94.0
879.73,105.0
879.79,105.0
879.86,106.0
879.92,119.0
879.98,110.0
880.05,98.0
880.11,82.0
880.17,87.0
880.24,84.0
880.3,84.0
880.36,85.0
880.42,78.0
880.49,92.0
880.55,108.0
880.61,90.0
880.68,108.0
880.74,99.0
880.8,86.0
880.87,66.0
880.93,81.0
880.99,89.0
881.05,81.0
881.12,89.0
881.18,84.0
881.24,96.0
881.31,91.0
881.37,93.0
881.43,87.0
881.5,80.0
881.56,97.0
881.62,95.0
881.68,86.0
881.75,91.0
881.81,99.0
881.87,94.0
881.94,102.0
882.0,119.0
882.06,119.0
882.13,116.0
882.19,116.0
882.25,127.0
882.31,109.0
882.38,101.0
882.44,111.0
882.5,129.0
882.57,114.0
882.63,140.0
882.69,141.0
882.76,122.0
882.82,136.0
882.88,117.0
882.94,126.0
883.01,129.0
883.07,146.0
883.13,136.0
883.2,130.0
883.26,115.0
883.32,110.0
883.39,124.0
883.45,120.0
883.51,115.0
883.57,106.0
883.64,104.0
883.7,98.0
883.76,108.0
883.83,102.0
883.89,92.0
883.95,94.0
884.02,94.0
884.08,88.0
884.14,87.0
884.2,94.0
884.27,97.0
884.33,87.0
884.39,100.0
884.46,126.0
884.52,128.0
884.58,110.0
884.65,124.0
884.71,106.0
884.77,110.0
884.83,117.0
884.9,120.0
884.96,124.0
885.02,133.0
885.09,136.0
885.15,124.0
885.21,152.0
885.28,161.0
885.34,145.0
885.4,150.0
885.46,122.0
885.53,138.0
885.59,143.0
885.65,143.0
885.72,164.0
885.78,150.0
885.84,172.0
885.91,168.0
885.97,180.0
886.03,177.0
886.09,175.0
886.16,172.0
886.22,150.0
886.28,160.0
886.35,166.0
886.41,154.0
886.47,160.0
886.54,158.0
886.6,143.0
886.66,141.0
886.72,152.0
886.79,149.0
886.85,129.0
886.91,156.0
886.98,187.0
887.04,171.0
887.1,169.0
887.17,193.0
887.23,166.0
887.29,168.0
887.35,191.0
887.42,199.0
887.48,209.0
887.54,189.0
887.61,192.0
887.67,206.0
887.73,209.0
887.8,206.0
887.86,179.0
887.92,183.0
887.98,172.0
888.05,155.0
888.11,181.0
888.17,166.0
888.24,162.0
888.3,174.0
888.36,180.0
888.43,172.0
888.49,168.0
888.55,166.0
888.61,167.0
888.68,150.0
888.74,147.0
888.8,154.0
888.87,143.0
888.93,152.0
888.99,153.0
889.06,150.0
889.12,136.0
889.18,143.0
889.24,142.0
889.31,122.0
889.37,138.0
889.43,129.0
889.5,143.0
889.56,150.0
889.62,163.0
889.69,176.0
889.75,143.0
889.81,139.0
889.87,142.0
889.94,143.0
890.0,139.0
890.06,123.0
890.13,143.0
890.19,170.0
890.25,175.0
890.32,167.0
890.38,157.0
890.44,161.0
890.5,164.0
890.57,168.0
890.63,171.0
890.69,170.0
890.76,149.0
890.82,147.0
890.88,142.0
890.95,173.0
891.01,146.0
891.07,141.0
891.13,150.0
891.2,139.0
891.26,155.0
891.32,175.0
891.39,150.0
891.45,173.0
891.51,180.0
891.58,184.0
891.64,159.0
891.7,172.0
891.76,189.0
891.83,182.0
891.89,172.0
891.95,187.0
892.02,218.0
892.08,172.0
892.14,184.0
892.21,187.0
892.27,184.0
892.33,194.0
892.39,185.0
892.46,161.0
892.52,175.0
892.58,187.0
892.65,159.0
892.71,151.0
892.77,166.0
892.84,171.0
892.9,150.0
892.96,157.0
893.02,168.0
893.09,154.0
893.15,150.0
893.21,152.0
893.28,156.0
893.34,138.0
893.4,144.0
893.47,147.0
893.53,161.0
893.59,161.0
893.65,165.0
893.72,141.0
893.78,148.0
893.84,161.0
893.91,154.0
893.97,151.0
894.03,144.0
894.1,144.0
894.16,161.0
894.22,152.0
894.28,147.0
894.35,149.0
894.41,154.0
894.47,144.0
894.54,133.0
894.6,142.0
894.66,157.0
894.73,163.0
894.79,148.0
894.85,153.0
894.91,165.0
894.98,135.0
895.04,132.0
895.1,145.0
895.17,148.0
895.23,139.0
895.29,149.0
895.36,160.0
895.42,152.0
895.48,158.0
895.54,147.0
895.61,125.0
895.67,125.0
895.73,136.0
895.8,139.0
895.86,120.0
895.92,131.0
895.99,136.0
896.05,136.0
896.11,119.0
896.17,132.0
896.24,155.0
896.3,130.0
896.36,117.0
896.43,116.0
896.49,117.0
896.55,113.0
896.62,122.0
896.68,113.0
896.74,120.0
896.8,108.0
896.87,100.0
896.93,110.0
896.99,107.0
897.06,108.0
897.12,116.0
897.18,113.0
897.25,120.0
897.31,125.0
897.37,119.0
897.43,105.0
897.5,94.0
897.56,112.0
897.62,89.0
897.69,103.0
897.75,92.0
897.81,91.0
897.88,100.0
897.94,113.0
898.0,128.0
898.06,97.0
898.13,121.0
898.19,138.0
898.25,140.0
898.32,150.0
898.38,160.0
898.44,153.0
898.51,158.0
898.57,182.0
898.63,160.0
898.69,177.0
898.76,180.0
898.82,174.0
898.88,152.0
898.95,176.0
899.01,176.0
899.07,181.0
899.14,157.0
899.2,168.0
899.26,172.0
899.32,157.0
899.39,168.0
899.45,164.0
899.51,151.0
899.58,148.0
899.64,138.0
899.7,145.0
899.77,135.0
899.83,126.0
899.89,125.0
899.95,129.0
900.02,125.0
900.08,139.0
900.14,135.0
900.21,138.0
900.27,124.0
900.33,120.0
900.4,134.0
900.46,109.0
900.52,125.0
900.58,128.0
900.65,120.0
900.71,133.0
900.77,141.0
900.84,150.0
900.9,123.0
900.96,137.0
901.03,140.0
901.09,127.0
901.15,137.0
901.21,145.0
901.28,124.0
901.34,143.0
901.4,150.0
901.47,140.0
901.53,130.0
901.59,118.0
901.66,163.0
901.72,147.0
901.78,142.0
901.84,142.0
901.91,164.0
901.97,168.0
902.03,158.0
902.1,168.0
902.16,172.0
902.22,183.0
902.29,164.0
902.35,170.0
902.41,136.0
902.47,166.0
902.54,166.0
902.6,146.0
902.66,155.0
902.73,155.0
902.79,177.0
902.85,150.0
902.92,151.0
902.98,128.0
903.04,144.0
903.1,171.0
903.17,124.0
903.23,135.0
903.29,131.0
903.36,122.0
903.42,138.0
903.48,120.0
903.55,139.0
903.61,143.0
903.67,143.0
903.73,157.0
903.8,145.0
903.86,150.0
903.92,137.0
903.99,139.0
904.05,130.0
904.11,130.0
904.18,123.0
904.24,146.0
904.3,154.0
904.36,159.0
904.43,141.0
904.49,142.0
904.55,148.0
904.62,151.0
904.68,120.0
904.74,115.0
904.81,106.0
904.87,108.0
904.93,120.0
904.99,114.0
905.06,106.0
905.12,88.0
905.18,103.0
905.25,80.0
905.31,64.0
905.37,81.0
905.44,67.0
905.5,36.0
905.56,46.0
905.62,41.0
905.69,30.0
905.75,44.0
905.81,51.0
905.88,46.0
905.94,41.0
906.0,50.0
906.07,40.0
906.13,36.0
906.19,56.0
906.25,53.0
906.32,40.0
906.38,26.0
906.44,28.0
906.51,22.0
906.57,26.0
906.63,23.0
906.7,33.0
906.76,28.0
906.82,48.0
906.88,66.0
906.95,52.0
907.01,15.0
907.07,34.0
907.14,31.0
907.2,64.0
907.26,62.0
907.33,58.0
907.39,40.0
907.45,36.0
907.51,58.0
907.58,38.0
907.64,44.0
907.7,29.0
907.77,30.0
907.83,21.0
907.89,29.0
907.96,51.0
908.02,58.0
908.08,49.0
908.14,42.0
908.21,48.0
908.27,55.0
908.33,59.0
908.4,59.0
908.46,56.0
908.52,35.0
908.59,44.0
908.65,58.0
908.71,63.0
908.77,47.0
908.84,62.0
908.9,47.0
908.96,46.0
909.03,62.0
909.09,62.0
909.15,56.0
909.22,63.0
909.28,80.0
909.34,91.0
909.4,100.0
909.47,105.0
909.53,95.0
909.59,74.0
909.66,84.0
909.72,84.0
909.78,81.0
909.85,73.0
909.91,72.0
909.97,81.0
910.03,78.0
910.1,90.0
910.16,112.0
910.22,95.0
910.29,106.0
910.35,119.0
910.41,103.0
910.48,106.0
910.54,117.0
910.6,99.0
910.66,97.0
910.73,101.0
910.79,104.0
910.85,95.0
910.92,125.0
910.98,126.0
911.04,97.0
911.11,121.0
911.17,115.0
911.23,112.0
911.29,106.0
911.36,120.0
911.42,131.0
911.48,122.0
911.55,141.0
911.61,153.0
911.67,131.0
911.74,117.0
911.8,136.0
911.86,117.0
911.92,113.0
911.99,99.0
912.05,88.0
912.11,106.0
912.18,110.0
912.24,124.0
912.3,116.0
912.37,114.0
912.43,118.0
912.49,127.0
912.55,136.0
912.62,145.0
912.68,154.0
912.74,130.0
912.81,130.0
912.87,143.0
912.93,131.0
913.0,135.0
913.06,119.0
913.12,125.0
913.18,151.0
913.25,146.0
913.31,139.0
913.37,149.0
913.44,114.0
913.5,103.0
913.56,113.0
913.63,136.0
913.69,154.0
913.75,146.0
913.81,142.0
913.88,144.0
913.94,150.0
914.0,121.0
914.07,120.0
914.13,131.0
914.19,132.0
914.26,105.0
914.32,114.0
914.38,120.0
914.44,113.0
914.51,105.0
914.57,111.0
914.63,111.0
914.7,109.0
914.76,95.0
914.82,105.0
914.89,125.0
914.95,138.0
915.01,121.0
915.07,140.0
915.14,134.0
915.2,171.0
915.26,145.0
915.33,134.0
915.39,139.0
915.45,141.0
915.52,136.0
915.58,135.0
915.64,131.0
915.7,139.0
915.77,156.0
915.83,161.0
915.89,177.0
915.96,180.0
916.02,171.0
916.08,153.0
916.15,155.0
916.21,161.0
916.27,169.0
916.33,161.0
916.4,145.0
916.46,137.0
916.52,158.0
916.59,166.0
916.65,147.0
916.71,179.0
916.78,192.0
916.84,209.0
916.9,200.0
916.96,183.0
917.03,185.0
917.09,182.0
917.15,198.0
917.22,200.0
917.28,201.0
917.34,193.0
917.41,177.0
917.47,186.0
917.53,182.0
917.59,178.0
917.66,187.0
917.72,195.0
917.78,183.0
917.85,183.0
917.91,171.0
917.97,157.0
918.04,163.0
918.1,163.0
918.16,167.0
918.22,167.0
918.29,160.0
918.35,191.0
918.41,158.0
918.48,146.0
918.54,154.0
918.6,144.0
918.67,126.0
918.73,104.0
918.79,141.0
918.85,138.0
918.92,135.0
918.98,141.0
919.04,148.0
919.11,150.0
919.17,137.0
919.23,145.0
919.3,143.0
919.36,152.0
919.42,155.0
919.48,153.0
919.55,133.0
919.61,131.0
919.67,156.0
919.74,120.0
919.8,140.0
919.86,137.0
919.93,116.0
919.99,118.0
920.05,116.0
920.11,102.0
920.18,107.0
920.24,109.0
920.3,118.0
920.37,113.0
920.43,104.0
920.49,107.0
920.56,120.0
920.62,116.0
920.68,124.0
920.74,136.0
920.81,125.0
920.87,132.0
920.93,131.0
921.0,136.0
921.06,117.0
921.12,119.0
921.19,125.0
921.25,114.0
921.31,121.0
921.37,126.0
921.44,116.0
921.5,127.0
921.56,123.0
921.63,115.0
921.69,97.0
921.75,84.0
921.82,102.0
921.88,103.0
921.94,94.0
922.0,75.0
922.07,73.0
922.13,65.0
922.19,67.0
922.26,73.0
922.32,95.0
922.38,69.0
922.45,55.0
922.51,73.0
922.57,96.0
922.63,92.0
922.7,72.0
922.76,56.0
922.82,66.0
922.89,62.0
922.95,55.0
923.01,52.0
923.08,56.0
923.14,64.0
923.2,75.0
923.26,57.0
923.33,74.0
923.39,69.0
923.45,60.0
923.52,74.0
923.58,63.0
923.64,70.0
923.71,74.0
923.77,73.0
923.83,52.0
923.89,76.0
923.96,64.0
924.02,61.0
924.08,72.0
924.15,60.0
924.21,68.0
924.27,43.0
924.34,56.0
924.4,58.0
924.46,53.0
924.52,78.0
924.59,69.0
924.65,67.0
924.71,76.0
924.78,76.0
924.84,77.0
924.9,96.0
924.97,80.0
925.03,102.0
925.09,79.0
925.15,79.0
925.22,94.0
925.28,103.0
925.34,73.0
925.41,102.0
925.47,110.0
925.53,123.0
925.6,122.0
925.66,109.0
925.72,122.0
925.78,114.0
925.85,121.0
925.91,113.0
925.97,141.0
926.04,121.0
926.1,121.0
926.16,117.0
926.23,117.0
926.29,119.0
926.35,124.0
926.41,132.0
926.48,108.0
926.54,118.0
926.6,128.0
926.67,124.0
926.73,122.0
926.79,133.0
926.86,109.0
926.92,128.0
926.98,146.0
927.04,136.0
927.11,134.0
927.17,116.0
927.23,117.0
927.3,132.0
927.36,116.0
927.42,108.0
927.49,99.0
927.55,118.0
927.61,108.0
927.67,102.0
927.74,115.0
927.8,125.0
927.86,139.0
927.93,117.0
927.99,122.0
928.05,110.0
928.12,107.0
928.18,105.0
928.24,95.0
928.3,132.0
928.37,121.0
928.43,117.0
928.49,131.0
928.56,115.0
928.62,115.0
928.68,113.0
928.75,132.0
928.81,145.0
928.87,105.0
928.93,111.0
929.0,119.0
929.06,121.0
929.12,104.0
929.19,127.0
929.25,124.0
929.31,102.0
929.38,92.0
929.44,90.0
929.5,115.0
929.56,106.0
929.63,104.0
929.69,108.0
929.75,109.0
929.82,103.0
929.88,94.0
929.94,98.0
930.01,85.0
930.07,93.0
930.13,89.0
930.19,77.0
930.26,85.0
930.32,70.0
930.38,99.0
930.45,68.0
930.51,64.0
930.57,76.0
930.64,50.0
930.7,73.0
930.76,56.0
930.82,40.0
930.89,34.0
930.95,65.0
931.01,69.0
931.08,69.0
931.14,65.0
931.2,58.0
931.27,43.0
931.33,29.0
931.39,59.0
931.45,64.0
931.52,56.0
931.58,54.0
931.64,80.0
931.71,68.0
931.77,55.0
931.83,81.0
931.9,85.0
931.96,56.0
932.02,81.0
932.08,89.0
932.15,77.0
932.21,97.0
932.27,101.0
932.34,110.0
932.4,120.0
932.46,109.0
932.53,112.0
932.59,113.0
932.65,88.0
932.71,109.0
932.78,109.0
932.84,111.0
932.9,103.0
932.97,99.0
933.03,119.0
933.09,99.0
933.16,111.0
933.22,99.0
933.28,106.0
933.34,121.0
933.41,109.0
933.47,101.0
933.53,121.0
933.6,126.0
933.66,122.0
933.72,110.0
933.79,103.0
933.85,98.0
933.91,73.0
933.97,92.0
934.04,82.0
934.1,77.0
934.16,69.0
934.23,78.0
934.29,67.0
934.35,75.0
934.42,76.0
934.48,62.0
934.54,76.0
934.6,75.0
934.67,67.0
934.73,58.0
934.79,62.0
934.86,50.0
934.92,54.0
934.98,50.0
935.05,54.0
935.11,54.0
935.17,49.0
935.23,42.0
935.3,39.0
935.36,65.0
935.42,51.0
935.49,42.0
935.55,91.0
935.61,95.0
935.68,93.0
935.74,97.0
935.8,98.0
935.86,120.0
935.93,100.0
935.99,109.0
936.05,95.0
936.12,97.0
936.18,127.0
936.24,109.0
936.31,102.0
936.37,110.0
936.43,102.0
936.49,109.0
936.56,124.0
936.62,103.0
936.68,109.0
936.75,129.0
936.81,131.0
936.87,138.0
936.94,132.0
937.0,112.0
937.06,123.0
937.12,119.0
937.19,104.0
937.25,120.0
937.31,120.0
937.38,125.0
937.44,110.0
937.5,134.0
937.57,137.0
937.63,135.0
937.69,131.0
937.75,141.0
937.82,132.0
937.88,144.0
937.94,148.0
938.01,132.0
938.07,124.0
938.13,137.0
938.2,135.0
938.26,124.0
938.32,157.0
938.38,145.0
938.45,133.0
938.51,114.0
938.57,125.0
938.64,132.0
938.7,116.0
938.76,98.0
938.83,102.0
938.89,94.0
938.95,106.0
939.01,125.0
939.08,115.0
939.14,98.0
939.2,99.0
939.27,105.0
939.33,98.0
939.39,111.0
939.46,110.0
939.52,89.0
939.58,119.0
939.64,102.0
939.71,97.0
939.77,103.0
939.83,109.0
939.9,100.0
939.96,89.0
940.02,108.0
940.09,113.0
940.15,120.0
940.21,119.0
940.27,120.0
940.34,102.0
940.4,110.0
940.46,129.0
940.53,135.0
940.59,124.0
940.65,123.0
940.72,130.0
940.78,102.0
940.84,89.0
940.9,76.0
940.97,97.0
941.03,124.0
941.09,106.0
941.16,106.0
941.22,117.0
941.28,118.0
941.35,107.0
941.41,106.0
941.47,125.0
941.53,136.0
941.6,141.0
941.66,126.0
941.72,101.0
941.79,124.0
941.85,131.0
941.91,128.0
941.98,138.0
942.04,151.0
942.1,161.0
942.16,152.0
942.23,160.0
942.29,164.0
942.35,156.0
942.42,150.0
942.48,169.0
942.54,172.0
942.61,194.0
942.67,188.0
942.73,168.0
942.79,184.0
942.86,180.0
942.92,175.0
942.98,176.0
943.05,174.0
943.11,177.0
943.17,161.0
943.24,174.0
943.3,172.0
943.36,160.0
943.42,166.0
943.49,161.0
943.55,162.0
943.61,160.0
943.68,163.0
943.74,154.0
943.8,137.0
943.87,128.0
943.93,157.0
943.99,149.0
944.05,150.0
944.12,151.0
944.18,160.0
944.24,151.0
944.31,138.0
944.37,140.0
944.43,141.0
944.5,154.0
944.56,152.0
944.62,171.0
944.68,159.0
944.75,141.0
944.81,153.0
944.87,130.0
944.94,125.0
945.0,149.0
945.06,139.0
945.13,114.0
945.19,125.0
945.25,129.0
945.31,113.0
945.38,113.0
945.44,120.0
945.5,136.0
945.57,149.0
945.63,134.0
945.69,143.0
945.76,132.0
945.82,117.0
945.88,126.0
945.94,131.0
946.01,135.0
946.07,128.0
946.13,127.0
946.2,109.0
946.26,113.0
946.32,101.0
946.39,114.0
946.45,125.0
946.51,108.0
946.57,131.0
946.64,128.0
946.7,121.0
946.76,146.0
946.83,154.0
946.89,152.0
946.95,155.0
947.02,138.0
947.08,134.0
947.14,152.0
947.2,121.0
947.27,125.0
947.33,131.0
947.39,141.0
947.46,131.0
947.52,106.0
947.58,117.0
947.65,84.0
947.71,99.0
947.77,96.0
947.83,84.0
947.9,91.0
947.96,91.0
948.02,78.0
948.09,65.0
948.15,81.0
948.21,73.0
948.28,71.0
948.34,88.0
948.4,95.0
948.46,87.0
948.53,101.0
948.59,97.0
948.65,100.0
948.72,105.0
948.78,96.0
948.84,121.0
948.91,95.0
948.97,99.0
949.03,111.0
949.09,104.0
949.16,118.0
949.22,117.0
949.28,99.0
949.35,111.0
949.41,122.0
949.47,114.0
949.54,104.0
949.6,122.0
949.66,129.0
949.72,119.0
949.79,107.0
949.85,99.0
949.91,116.0
949.98,124.0
950.04,129.0
950.1,110.0
950.17,124.0
950.23,129.0
950.29,121.0
950.35,113.0
950.42,105.0
950.48,102.0
950.54,107.0
950.61,132.0
950.67,117.0
950.73,121.0
950.8,137.0
950.86,161.0
950.92,161.0
950.98,128.0
951.05,128.0
951.11,143.0
951.17,152.0
951.24,136.0
951.3,117.0
951.36,151.0
951.43,159.0
951.49,143.0
951.55,128.0
951.61,130.0
951.68,135.0
951.74,128.0
951.8,114.0
951.87,116.0
951.93,108.0
951.99,94.0
952.06,117.0
952.12,100.0
952.18,111.0
952.24,111.0
952.31,106.0
952.37,114.0
952.43,134.0
952.5,112.0
952.56,108.0
952.62,99.0
952.69,112.0
952.75,86.0
952.81,102.0
952.87,100.0
952.94,91.0
953.0,106.0
953.06,109.0
953.13,81.0
953.19,98.0
953.25,127.0
953.32,103.0
953.38,102.0
953.44,131.0
953.5,119.0
953.57,94.0
953.63,98.0
953.69,124.0
953.76,100.0
953.82,112.0
953.88,108.0
953.95,117.0
954.01,126.0
954.07,138.0
954.13,118.0
954.2,94.0
954.26,109.0
954.32,120.0
954.39,153.0
954.45,151.0
954.51,109.0
954.58,118.0
954.64,114.0
954.7,131.0
954.76,105.0
954.83,121.0
954.89,120.0
954.95,106.0
955.02,110.0
955.08,80.0
955.14,95.0
955.21,78.0
955.27,86.0
955.33,72.0
955.39,85.0
955.46,86.0
955.52,87.0
955.58,94.0
955.65,73.0
955.71,70.0
955.77,53.0
955.84,51.0
955.9,58.0
955.96,37.0
956.02,53.0
956.09,44.0
956.15,54.0
956.21,44.0
956.28,45.0
956.34,32.0
956.4,17.0
956.47,21.0
956.53,28.0
956.59,18.0
956.65,13.0
956.72,51.0
956.78,31.0
956.84,33.0
956.91,67.0
956.97,40.0
957.03,24.0
957.1,22.0
957.16,31.0
957.22,37.0
957.28,40.0
957.35,36.0
957.41,34.0
957.47,19.0
957.54,19.0
957.6,33.0
957.66,31.0
957.73,38.0
957.79,40.0
957.85,45.0
957.91,43.0
957.98,46.0
958.04,42.0
958.1,37.0
958.17,51.0
958.23,41.0
958.29,53.0
958.36,48.0
958.42,36.0
958.48,36.0
958.54,33.0
958.61,18.0
958.67,23.0
958.73,12.0
958.8,33.0
958.86,32.0
958.92,21.0
958.99,45.0
959.05,48.0
959.11,47.0
959.17,44.0
959.24,48.0
959.3,57.0
959.36,53.0
959.43,57.0
959.49,52.0
959.55,61.0
959.62,65.0
959.68,53.0
959.74,47.0
959.8,36.0
959.87,59.0
959.93,60.0
959.99,52.0
960.06,66.0
960.12,51.0
960.18,74.0
960.25,88.0
960.31,83.0
960.37,73.0
960.43,58.0
960.5,102.0
960.56,93.0
960.62,63.0
960.69,83.0
960.75,83.0
960.81,74.0
960.88,65.0
960.94,55.0
961.0,55.0
961.06,92.0
961.13,55.0
961.19,56.0
961.25,81.0
961.32,98.0
961.38,92.0
961.44,71.0
961.51,77.0
961.57,62.0
961.63,69.0
961.69,66.0
961.76,77.0
961.82,91.0
961.88,71.0
961.95,92.0
962.01,75.0
962.07,61.0
962.14,93.0
962.2,93.0
962.26,98.0
962.32,112.0
962.39,110.0
962.45,92.0
962.51,106.0
962.58,92.0
962.64,86.0
962.7,98.0
962.77,89.0
962.83,97.0
962.89,105.0
962.95,124.0
963.02,113.0
963.08,111.0
963.14,111.0
963.21,114.0
963.27,125.0
963.33,116.0
963.4,113.0
963.46,108.0
963.52,97.0
963.58,100.0
963.65,106.0
963.71,95.0
963.77,104.0
963.84,110.0
963.9,102.0
963.96,104.0
964.03,108.0
964.09,116.0
964.15,86.0
964.21,84.0
964.28,90.0
964.34,90.0
964.4,89.0
964.47,101.0
964.53,110.0
964.59,103.0
964.66,110.0
964.72,116.0
964.78,119.0
964.84,113.0
964.91,136.0
964.97,121.0
965.03,101.0
965.1,109.0
965.16,116.0
965.22,129.0
965.29,129.0
965.35,137.0
965.41,125.0
965.47,146.0
965.54,145.0
965.6,124.0
965.66,102.0
965.73,116.0
965.79,142.0
965.85,141.0
965.92,109.0
965.98,119.0
966.04,134.0
966.1,142.0
966.17,127.0
966.23,113.0
966.29,128.0
966.36,128.0
966.42,137.0
966.48,141.0
966.55,131.0
966.61,128.0
966.67,152.0
966.73,153.0
966.8,160.0
966.86,169.0
966.92,154.0
966.99,146.0
967.05,166.0
967.11,157.0
967.18,147.0
967.24,150.0
967.3,147.0
967.36,152.0
967.43,149.0
967.49,150.0
967.55,143.0
967.62,144.0
967.68,135.0
967.74,160.0
967.81,168.0
967.87,160.0
967.93,160.0
967.99,150.0
968.06,152.0
968.12,143.0
968.18,158.0
968.25,175.0
968.31,149.0
968.37,151.0
968.44,153.0
968.5,138.0
968.56,138.0
968.62,124.0
968.69,127.0
968.75,135.0
968.81,146.0
968.88,124.0
968.94,135.0
969.0,143.0
969.07,135.0
969.13,155.0
969.19,139.0
969.25,167.0
969.32,156.0
969.38,157.0
969.44,148.0
969.51,147.0
969.57,136.0
969.63,129.0
969.7,111.0
969.76,136.0
969.82,156.0
969.88,149.0
969.95,124.0
970.01,112.0
970.07,124.0
970.14,128.0
970.2,112.0
970.26,107.0
970.33,128.0
970.39,112.0
970.45,107.0
970.51,139.0
970.58,138.0
970.64,136.0
970.7,132.0
970.77,121.0
970.83,131.0
970.89,116.0
970.96,135.0
971.02,119.0
971.08,102.0
971.14,99.0
971.21,95.0
971.27,98.0
971.33,88.0
971.4,102.0
971.46,93.0
971.52,94.0
971.59,89.0
971.65,113.0
971.71,124.0
971.77,138.0
971.84,140.0
971.9,149.0
971.96,142.0
972.03,147.0
972.09,135.0
972.15,145.0
972.22,134.0
972.28,127.0
972.34,136.0
972.4,152.0
972.47,147.0
972.53,125.0
972.59,135.0
972.66,145.0
972.72,135.0
972.78,142.0
972.85,133.0
972.91,135.0
972.97,135.0
973.03,144.0
973.1,139.0
973.16,109.0
973.22,124.0
973.29,119.0
973.35,126.0
973.41,133.0
973.48,120.0
973.54,112.0
973.6,81.0
973.66,117.0
973.73,120.0
973.79,114.0
973.85,129.0
973.92,116.0
973.98,135.0
974.04,144.0
974.11,152.0
974.17,134.0
974.23,155.0
974.29,133.0
974.36,142.0
974.42,132.0
974.48,149.0
974.55,145.0
974.61,125.0
974.67,129.0
974.74,128.0
974.8,106.0
974.86,110.0
974.92,147.0
974.99,129.0
975.05,120.0
975.11,137.0
975.18,102.0
975.24,113.0
975.3,109.0
975.37,104.0
975.43,129.0
975.49,127.0
975.55,111.0
975.62,105.0
975.68,141.0
975.74,147.0
975.81,151.0
975.87,151.0
975.93,151.0
976.0,157.0
976.06,155.0
976.12,172.0
976.18,179.0
976.25,178.0
976.31,174.0
976.37,176.0
976.44,183.0
976.5,181.0
976.56,197.0
976.63,200.0
976.69,218.0
976.75,185.0
976.81,192.0
976.88,182.0
976.94,194.0
977.0,184.0
977.07,180.0
977.13,183.0
977.19,181.0
977.26,200.0
977.32,173.0
977.38,150.0
977.44,177.0
977.51,176.0
977.57,180.0
977.63,179.0
977.7,170.0
977.76,168.0
977.82,168.0
977.89,154.0
977.95,170.0
978.01,143.0
978.07,165.0
978.14,171.0
978.2,156.0
978.26,149.0
978.33,134.0
978.39,134.0
978.45,150.0
978.52,146.0
978.58,146.0
978.64,146.0
978.7,147.0
978.77,127.0
978.83,127.0
978.89,113.0
978.96,105.0
979.02,121.0
979.08,119.0
979.15,106.0
979.21,121.0
979.27,131.0
979.33,124.0
979.4,105.0
979.46,116.0
979.52,111.0
979.59,98.0
979.65,110.0
979.71,109.0
979.78,135.0
979.84,122.0
979.9,116.0
979.96,110.0
980.03,112.0
980.09,111.0
980.15,106.0
980.22,117.0
980.28,123.0
980.34,118.0
980.41,123.0
980.47,128.0
980.53,137.0
980.59,116.0
980.66,126.0
980.72,109.0
980.78,89.0
980.85,89.0
980.91,96.0
980.97,102.0
981.04,98.0
981.1,87.0
981.16,89.0
981.22,76.0
981.29,89.0
981.35,94.0
981.41,84.0
981.48,86.0
981.54,70.0
981.6,73.0
981.67,80.0
981.73,104.0
981.79,109.0
981.85,97.0
981.92,126.0
981.98,134.0
982.04,115.0
982.11,115.0
982.17,117.0
982.23,115.0
982.3,116.0
982.36,143.0
982.42,112.0
982.48,109.0
982.55,144.0
982.61,138.0
982.67,141.0
982.74,156.0
982.8,166.0
982.86,152.0
982.93,158.0
982.99,171.0
983.05,132.0
983.11,147.0
983.18,158.0
983.24,128.0
983.3,137.0
983.37,121.0
983.43,120.0
983.49,126.0
983.56,129.0
983.62,129.0
983.68,117.0
983.74,113.0
983.81,123.0
983.87,134.0
983.93,121.0
984.0,118.0
984.06,116.0
984.12,106.0
984.19,105.0
984.25,108.0
984.31,106.0
984.37,111.0
984.44,110.0
984.5,123.0
984.56,112.0
984.63,98.0
984.69,116.0
984.75,103.0
984.82,118.0
984.88,119.0
984.94,107.0
985.0,104.0
985.07,96.0
985.13,88.0
985.19,93.0
985.26,84.0
985.32,84.0
985.38,59.0
985.45,69.0
985.51,69.0
985.57,68.0
985.63,61.0
985.7,53.0
985.76,54.0
985.82,76.0
985.89,77.0
985.95,76.0
986.01,79.0
986.08,86.0
986.14,95.0
986.2,87.0
986.26,90.0
986.33,80.0
986.39,110.0
986.45,102.0
986.52,91.0
986.58,102.0
986.64,109.0
986.71,120.0
986.77,137.0
986.83,116.0
986.89,105.0
986.96,99.0
987.02,116.0
987.08,113.0
987.15,127.0
987.21,105.0
987.27,89.0
987.34,106.0
987.4,120.0
987.46,123.0
987.52,118.0
987.59,116.0
987.65,121.0
987.71,122.0
987.78,135.0
987.84,116.0
987.9,124.0
987.97,125.0
988.03,124.0
988.09,133.0
988.15,106.0
988.22,116.0
988.28,122.0
988.34,107.0
988.41,93.0
988.47,102.0
988.53,95.0
988.6,86.0
988.66,106.0
988.72,101.0
988.78,105.0
988.85,87.0
988.91,73.0
988.97,81.0
989.04,106.0
989.1,95.0
989.16,59.0
989.23,82.0
989.29,82.0
989.35,92.0
989.41,83.0
989.48,64.0
989.54,67.0
989.6,73.0
989.67,61.0
989.73,91.0
989.79,70.0
989.86,80.0
989.92,58.0
989.98,59.0
990.04,73.0
990.11,77.0
990.17,85.0
990.23,73.0
990.3,76.0
990.36,67.0
990.42,86.0
990.49,68.0
990.55,75.0
990.61,91.0
990.67,84.0
990.74,81.0
990.8,64.0
990.86,75.0
990.93,62.0
990.99,57.0
991.05,73.0
991.12,82.0
991.18,72.0
991.24,69.0
991.3,62.0
991.37,67.0
991.43,89.0
991.49,88.0
991.56,91.0
991.62,103.0
991.68,117.0
991.75,106.0
991.81,109.0
991.87,100.0
991.93,99.0
992.0,118.0
992.06,108.0
992.12,135.0
992.19,110.0
992.25,124.0
992.31,137.0
992.38,121.0
992.44,129.0
992.5,113.0
992.56,128.0
992.63,153.0
992.69,129.0
992.75,142.0
992.82,146.0
992.88,149.0
992.94,164.0
993.01,130.0
993.07,141.0
993.13,146.0
993.19,139.0
993.26,145.0
993.32,151.0
993.38,164.0
993.45,163.0
993.51,158.0
993.57,178.0
993.64,192.0
993.7,178.0
993.76,164.0
993.82,163.0
993.89,179.0
993.95,174.0
994.01,164.0
994.08,152.0
994.14,160.0
994.2,190.0
994.27,160.0
994.33,144.0
994.39,147.0
994.45,148.0
994.52,161.0
994.58,167.0
994.64,145.0
994.71,139.0
994.77,134.0
994.83,154.0
994.9,154.0
994.96,142.0
995.02,131.0
995.08,131.0
995.15,124.0
995.21,124.0
995.27,118.0
995.34,128.0
995.4,138.0
995.46,149.0
995.53,132.0
995.59,146.0
995.65,143.0
995.71,127.0
995.78,135.0
995.84,146.0
995.9,154.0
995.97,148.0
996.03,146.0
996.09,150.0
996.16,136.0
996.22,127.0
996.28,128.0
996.34,149.0
996.41,154.0
996.47,156.0
996.53,150.0
996.6,151.0
996.66,148.0
996.72,152.0
996.79,165.0
996.85,184.0
996.91,177.0
996.97,181.0
997.04,174.0
997.1,200.0
997.16,190.0
997.23,202.0
997.29,205.0
997.35,201.0
997.42,208.0
997.48,184.0
997.54,159.0
997.6,177.0
997.67,163.0
997.73,185.0
997.79,193.0
997.86,184.0
997.92,178.0
997.98,170.0
998.05,183.0
998.11,166.0
998.17,171.0
998.23,155.0
998.3,159.0
998.36,137.0
998.42,175.0
998.49,168.0
998.55,153.0
998.61,167.0
998.68,160.0
998.74,176.0
998.8,149.0
998.86,160.0
998.93,192.0
998.99,179.0
999.05,181.0
999.12,194.0
999.18,201.0
999.24,209.0
999.31,192.0
999.37,208.0
999.43,194.0
999.49,191.0
999.56,195.0
999.62,191.0
999.68,203.0
999.75,205.0
999.81,186.0
999.87,165.0
