timestamp,intensity
0,-250.0
0.06,-256.0
0.13,-250.0
0.19,-261.0
0.25,-244.0
0.32,-251.0
0.38,-248.0
0.44,-235.0
0.5,-239.0
0.57,-236.0
0.63,-239.0
0.69,-222.0
0.76,-232.0
0.82,-241.0
0.88,-228.0
0.94,-240.0
1.01,-202.0
1.07,-206.0
1.13,-211.0
1.2,-215.0
1.26,-219.0
1.32,-222.0
1.39,-222.0
1.45,-216.0
1.51,-208.0
1.57,-210.0
1.64,-220.0
1.7,-216.0
1.76,-225.0
1.83,-219.0
1.89,-237.0
1.95,-222.0
2.02,-235.0
2.08,-232.0
2.14,-216.0
2.2,-227.0
2.27,-213.0
2.33,-222.0
2.39,-236.0
2.46,-233.0
2.52,-232.0
2.58,-228.0
2.65,-209.0
2.71,-203.0
2.77,-230.0
2.84,-218.0
2.9,-230.0
2.96,-237.0
3.02,-229.0
3.09,-246.0
3.15,-234.0
3.21,-232.0
3.28,-215.0
3.34,-225.0
3.4,-239.0
3.47,-236.0
3.53,-248.0
3.59,-257.0
3.65,-245.0
3.72,-250.0
3.78,-267.0
3.84,-259.0
3.91,-271.0
3.97,-283.0
4.03,-273.0
4.1,-280.0
4.16,-285.0
4.22,-280.0
4.28,-272.0
4.35,-287.0
4.41,-294.0
4.47,-260.0
4.54,-273.0
4.6,-278.0
4.66,-279.0
4.73,-273.0
4.79,-281.0
4.85,-273.0
4.91,-274.0
4.98,-286.0
5.04,-290.0
5.1,-299.0
5.17,-274.0
5.23,-277.0
5.29,-276.0
5.35,-283.0
5.42,-267.0
5.48,-265.0
5.54,-264.0
5.61,-275.0
5.67,-265.0
5.73,-252.0
5.8,-287.0
5.86,-274.0
5.92,-270.0
5.98,-291.0
6.05,-295.0
6.11,-293.0
6.17,-283.0
6.24,-285.0
6.3,-288.0
6.36,-277.0
6.43,-267.0
6.49,-277.0
6.55,-266.0
6.61,-272.0
6.68,-281.0
6.74,-253.0
6.8,-282.0
6.87,-272.0
6.93,-264.0
6.99,-275.0
7.06,-278.0
7.12,-265.0
7.18,-249.0
7.24,-266.0
7.31,-267.0
7.37,-269.0
7.43,-271.0
7.5,-265.0
7.56,-260.0
7.62,-270.0
7.69,-248.0
7.75,-254.0
7.81,-261.0
7.87,-257.0
7.94,-297.0
8.0,-289.0
8.06,-285.0
8.13,-284.0
8.19,-293.0
8.25,-293.0
8.32,-278.0
8.38,-276.0
8.44,-291.0
8.5,-294.0
8.57,-277.0
8.63,-277.0
8.69,-284.0
8.76,-285.0
8.82,-283.0
8.88,-283.0
8.95,-290.0
9.01,-292.0
9.07,-286.0
9.13,-276.0
9.2,-281.0
9.26,-281.0
9.32,-277.0
9.39,-278.0
9.45,-268.0
9.51,-268.0
9.58,-261.0
9.64,-259.0
9.7,-269.0
9.77,-273.0
9.83,-266.0
9.89,-267.0
9.95,-274.0
10.02,-274.0
10.08,-282.0
10.14,-292.0
10.21,-269.0
10.27,-262.0
10.33,-254.0
10.4,-258.0
10.46,-263.0
10.52,-278.0
10.58,-271.0
10.65,-274.0
10.71,-299.0
10.77,-283.0
10.84,-276.0
10.9,-253.0
10.96,-269.0
11.03,-284.0
11.09,-272.0
11.15,-271.0
11.21,-272.0
11.28,-265.0
11.34,-272.0
11.4,-280.0
11.47,-295.0
11.53,-286.0
11.59,-285.0
11.66,-273.0
11.72,-278.0
11.78,-299.0
11.84,-297.0
11.91,-304.0
11.97,-298.0
12.03,-295.0
12.1,-295.0
12.16,-268.0
12.22,-300.0
12.29,-293.0
12.35,-289.0
12.41,-295.0
12.47,-297.0
12.54,-301.0
12.6,-289.0
12.66,-292.0
12.73,-297.0
12.79,-294.0
12.85,-284.0
12.92,-278.0
12.98,-274.0
13.04,-261.0
13.1,-277.0
13.17,-291.0
13.23,-291.0
13.29,-294.0
13.36,-264.0
13.42,-288.0
13.48,-288.0
13.55,-285.0
13.61,-293.0
13.67,-298.0
13.73,-292.0
13.8,-287.0
13.86,-268.0
13.92,-278.0
13.99,-263.0
14.05,-266.0
14.11,-277.0
14.18,-266.0
14.24,-265.0
14.3,-256.0
14.36,-270.0
14.43,-245.0
14.49,-229.0
14.55,-240.0
14.62,-241.0
14.68,-241.0
14.74,-252.0
14.81,-252.0
14.87,-247.0
14.93,-253.0
14.99,-238.0
15.06,-231.0
15.12,-245.0
15.18,-218.0
15.25,-220.0
15.31,-215.0
15.37,-211.0
15.44,-217.0
15.5,-209.0
15.56,-197.0
15.62,-196.0
15.69,-199.0
15.75,-177.0
15.81,-178.0
15.88,-196.0
15.94,-207.0
16.0,-209.0
16.07,-206.0
16.13,-191.0
16.19,-187.0
16.25,-177.0
16.32,-175.0
16.38,-175.0
16.44,-172.0
16.51,-190.0
16.57,-207.0
16.63,-198.0
16.7,-171.0
16.76,-170.0
16.82,-183.0
16.88,-178.0
16.95,-168.0
17.01,-147.0
17.07,-131.0
17.14,-132.0
17.2,-124.0
17.26,-126.0
17.33,-142.0
17.39,-142.0
17.45,-136.0
17.51,-150.0
17.58,-134.0
17.64,-171.0
17.7,-158.0
17.77,-163.0
17.83,-187.0
17.89,-137.0
17.96,-156.0
18.02,-154.0
18.08,-161.0
18.14,-151.0
18.21,-151.0
18.27,-136.0
18.33,-125.0
18.4,-133.0
18.46,-149.0
18.52,-128.0
18.59,-142.0
18.65,-132.0
18.71,-129.0
18.77,-107.0
18.84,-120.0
18.9,-147.0
18.96,-126.0
19.03,-127.0
19.09,-140.0
19.15,-139.0
19.22,-161.0
19.28,-153.0
19.34,-138.0
19.4,-131.0
19.47,-146.0
19.53,-152.0
19.59,-129.0
19.66,-133.0
19.72,-148.0
19.78,-151.0
19.84,-127.0
19.91,-134.0
19.97,-152.0
20.03,-158.0
20.1,-152.0
20.16,-146.0
20.22,-149.0
20.29,-124.0
20.35,-139.0
20.41,-145.0
20.47,-127.0
20.54,-149.0
20.6,-122.0
20.66,-146.0
20.73,-158.0
20.79,-160.0
20.85,-161.0
20.92,-162.0
20.98,-171.0
21.04,-181.0
21.1,-148.0
21.17,-172.0
21.23,-169.0
21.29,-172.0
21.36,-166.0
21.42,-170.0
21.48,-172.0
21.55,-179.0
21.61,-183.0
21.67,-173.0
21.73,-177.0
21.8,-164.0
21.86,-182.0
21.92,-179.0
21.99,-185.0
22.05,-160.0
22.11,-181.0
22.18,-187.0
22.24,-191.0
22.3,-192.0
22.36,-183.0
22.43,-191.0
22.49,-184.0
22.55,-182.0
22.62,-169.0
22.68,-178.0
22.74,-185.0
22.81,-183.0
22.87,-182.0
22.93,-176.0
22.99,-187.0
23.06,-178.0
23.12,-184.0
23.18,-180.0
23.25,-186.0
23.31,-177.0
23.37,-161.0
23.44,-163.0
23.5,-159.0
23.56,-182.0
23.62,-175.0
23.69,-175.0
23.75,-200.0
23.81,-176.0
23.88,-185.0
23.94,-204.0
24.0,-194.0
24.07,-195.0
24.13,-186.0
24.19,-184.0
24.25,-187.0
24.32,-179.0
24.38,-199.0
24.44,-191.0
24.51,-197.0
24.57,-193.0
24.63,-172.0
24.7,-188.0
24.76,-173.0
24.82,-180.0
24.88,-188.0
24.95,-180.0
25.01,-184.0
25.07,-189.0
25.14,-189.0
25.2,-198.0
25.26,-189.0
25.33,-179.0
25.39,-186.0
25.45,-191.0
25.51,-186.0
25.58,-196.0
25.64,-188.0
25.7,-203.0
25.77,-179.0
25.83,-190.0
25.89,-202.0
25.96,-183.0
26.02,-189.0
26.08,-188.0
26.14,-182.0
26.21,-192.0
26.27,-184.0
26.33,-182.0
26.4,-215.0
26.46,-212.0
26.52,-199.0
26.59,-188.0
26.65,-194.0
26.71,-196.0
26.77,-190.0
26.84,-190.0
26.9,-210.0
26.96,-212.0
27.03,-223.0
27.09,-224.0
27.15,-231.0
27.22,-228.0
27.28,-193.0
27.34,-210.0
27.4,-190.0
27.47,-193.0
27.53,-199.0
27.59,-177.0
27.66,-199.0
27.72,-185.0
27.78,-179.0
27.85,-178.0
27.91,-199.0
27.97,-166.0
28.03,-191.0
28.1,-192.0
28.16,-191.0
28.22,-202.0
28.29,-202.0
28.35,-200.0
28.41,-209.0
28.48,-194.0
28.54,-209.0
28.6,-232.0
28.66,-228.0
28.73,-233.0
28.79,-234.0
28.85,-223.0
28.92,-215.0
28.98,-214.0
29.04,-229.0
29.11,-232.0
29.17,-213.0
29.23,-214.0
29.29,-209.0
29.36,-220.0
29.42,-218.0
29.48,-237.0
29.55,-227.0
29.61,-214.0
29.67,-223.0
29.74,-227.0
29.8,-232.0
29.86,-234.0
29.92,-227.0
29.99,-234.0
30.05,-223.0
30.11,-233.0
30.18,-217.0
30.24,-214.0
30.3,-216.0
30.37,-215.0
30.43,-235.0
30.49,-237.0
30.55,-233.0
30.62,-221.0
30.68,-228.0
30.74,-216.0
30.81,-218.0
30.87,-227.0
30.93,-229.0
31.0,-216.0
31.06,-214.0
31.12,-214.0
31.18,-212.0
31.25,-225.0
31.31,-234.0
31.37,-238.0
31.44,-207.0
31.5,-185.0
31.56,-238.0
31.63,-218.0
31.69,-214.0
31.75,-199.0
31.81,-196.0
31.88,-197.0
31.94,-193.0
32.0,-198.0
32.07,-194.0
32.13,-194.0
32.19,-205.0
32.26,-190.0
32.32,-197.0
32.38,-209.0
32.44,-209.0
32.51,-205.0
32.57,-198.0
32.63,-181.0
32.7,-164.0
32.76,-186.0
32.82,-173.0
32.89,-161.0
32.95,-157.0
33.01,-165.0
33.07,-186.0
33.14,-152.0
33.2,-139.0
33.26,-134.0
33.33,-138.0
33.39,-135.0
33.45,-143.0
33.52,-150.0
33.58,-152.0
33.64,-156.0
33.7,-135.0
33.77,-127.0
33.83,-123.0
33.89,-144.0
33.96,-156.0
34.02,-153.0
34.08,-137.0
34.15,-130.0
34.21,-123.0
34.27,-126.0
34.33,-112.0
34.4,-119.0
34.46,-127.0
34.52,-129.0
34.59,-116.0
34.65,-104.0
34.71,-93.0
34.78,-113.0
34.84,-100.0
34.9,-102.0
34.96,-101.0
35.03,-87.0
35.09,-105.0
35.15,-104.0
35.22,-125.0
35.28,-122.0
35.34,-138.0
35.41,-145.0
35.47,-113.0
35.53,-112.0
35.59,-120.0
35.66,-114.0
35.72,-134.0
35.78,-130.0
35.85,-142.0
35.91,-136.0
35.97,-139.0
36.04,-143.0
36.1,-153.0
36.16,-134.0
36.22,-123.0
36.29,-117.0
36.35,-106.0
36.41,-104.0
36.48,-97.0
36.54,-99.0
36.6,-127.0
36.67,-111.0
36.73,-108.0
36.79,-118.0
36.85,-110.0
36.92,-104.0
36.98,-90.0
37.04,-106.0
37.11,-108.0
37.17,-85.0
37.23,-93.0
37.3,-111.0
37.36,-101.0
37.42,-108.0
37.48,-112.0
37.55,-105.0
37.61,-105.0
37.67,-86.0
37.74,-106.0
37.8,-108.0
37.86,-133.0
37.93,-121.0
37.99,-111.0
38.05,-116.0
38.12,-127.0
38.18,-128.0
38.24,-133.0
38.3,-114.0
38.37,-118.0
38.43,-130.0
38.49,-127.0
38.56,-127.0
38.62,-103.0
38.68,-127.0
38.75,-121.0
38.81,-118.0
38.87,-119.0
38.93,-113.0
39.0,-137.0
39.06,-138.0
39.12,-144.0
39.19,-136.0
39.25,-117.0
39.31,-136.0
39.38,-130.0
39.44,-129.0
39.5,-120.0
39.56,-129.0
39.63,-128.0
39.69,-136.0
39.75,-134.0
39.82,-128.0
39.88,-126.0
39.94,-128.0
40.01,-99.0
40.07,-96.0
40.13,-108.0
40.19,-116.0
40.26,-109.0
40.32,-112.0
40.38,-107.0
40.45,-109.0
40.51,-104.0
40.57,-91.0
40.64,-91.0
40.7,-98.0
40.76,-99.0
40.82,-101.0
40.89,-101.0
40.95,-114.0
41.01,-118.0
41.08,-107.0
41.14,-111.0
41.2,-112.0
41.27,-108.0
41.33,-100.0
41.39,-103.0
41.45,-92.0
41.52,-79.0
41.58,-79.0
41.64,-105.0
41.71,-95.0
41.77,-89.0
41.83,-81.0
41.9,-102.0
41.96,-98.0
42.02,-72.0
42.08,-111.0
42.15,-107.0
42.21,-106.0
42.27,-101.0
42.34,-125.0
42.4,-125.0
42.46,-98.0
42.53,-83.0
42.59,-112.0
42.65,-94.0
42.71,-75.0
42.78,-92.0
42.84,-97.0
42.9,-94.0
42.97,-104.0
43.03,-102.0
43.09,-119.0
43.16,-111.0
43.22,-118.0
43.28,-111.0
43.34,-126.0
43.41,-119.0
43.47,-113.0
43.53,-137.0
43.6,-131.0
43.66,-140.0
43.72,-179.0
43.79,-174.0
43.85,-159.0
43.91,-155.0
43.97,-152.0
44.04,-142.0
44.1,-146.0
44.16,-136.0
44.23,-129.0
44.29,-141.0
44.35,-138.0
44.42,-153.0
44.48,-148.0
44.54,-118.0
44.6,-131.0
44.67,-139.0
44.73,-127.0
44.79,-113.0
44.86,-132.0
44.92,-132.0
44.98,-130.0
45.05,-124.0
45.11,-138.0
45.17,-125.0
45.23,-145.0
45.3,-140.0
45.36,-141.0
45.42,-140.0
45.49,-135.0
45.55,-157.0
45.61,-148.0
45.68,-133.0
45.74,-133.0
45.8,-145.0
45.86,-156.0
45.93,-171.0
45.99,-160.0
46.05,-153.0
46.12,-160.0
46.18,-148.0
46.24,-148.0
46.31,-149.0
46.37,-136.0
46.43,-145.0
46.49,-165.0
46.56,-162.0
46.62,-164.0
46.68,-158.0
46.75,-184.0
46.81,-190.0
46.87,-179.0
46.94,-172.0
47.0,-169.0
47.06,-165.0
47.12,-147.0
47.19,-144.0
47.25,-161.0
47.31,-161.0
47.38,-157.0
47.44,-156.0
47.5,-172.0
47.57,-194.0
47.63,-168.0
47.69,-140.0
47.75,-166.0
47.82,-160.0
47.88,-145.0
47.94,-146.0
48.01,-152.0
48.07,-129.0
48.13,-109.0
48.2,-108.0
48.26,-119.0
48.32,-108.0
48.38,-109.0
48.45,-102.0
48.51,-95.0
48.57,-88.0
48.64,-100.0
48.7,-96.0
48.76,-107.0
48.83,-104.0
48.89,-97.0
48.95,-103.0
49.01,-114.0
49.08,-108.0
49.14,-97.0
49.2,-100.0
49.27,-93.0
49.33,-103.0
49.39,-88.0
49.46,-92.0
49.52,-92.0
49.58,-106.0
49.64,-106.0
49.71,-110.0
49.77,-105.0
49.83,-82.0
49.9,-79.0
49.96,-77.0
50.02,-92.0
50.09,-84.0
50.15,-95.0
50.21,-96.0
50.27,-92.0
50.34,-90.0
50.4,-89.0
50.46,-91.0
50.53,-78.0
50.59,-94.0
50.65,-98.0
50.72,-95.0
50.78,-88.0
50.84,-97.0
50.9,-96.0
50.97,-82.0
51.03,-79.0
51.09,-85.0
51.16,-64.0
51.22,-68.0
51.28,-52.0
51.35,-45.0
51.41,-47.0
51.47,-32.0
51.53,-32.0
51.6,-37.0
51.66,-20.0
51.72,-23.0
51.79,-15.0
51.85,-15.0
51.91,-33.0
51.98,-5.0
52.04,-14.0
52.1,-3.0
52.16,-7.0
52.23,3.0
52.29,10.0
52.35,-15.0
52.42,-13.0
52.48,-21.0
52.54,-25.0
52.61,-4.0
52.67,10.0
52.73,11.0
52.79,4.0
52.86,-10.0
52.92,-14.0
52.98,-13.0
53.05,-22.0
53.11,-33.0
53.17,-29.0
53.24,-43.0
53.3,-35.0
53.36,-11.0
53.42,-10.0
53.49,-27.0
53.55,-13.0
53.61,-51.0
53.68,-43.0
53.74,-48.0
53.8,-58.0
53.87,-41.0
53.93,-56.0
53.99,-55.0
54.05,-40.0
54.12,-36.0
54.18,-39.0
54.24,-41.0
54.31,-56.0
54.37,-58.0
54.43,-57.0
54.5,-48.0
54.56,-35.0
54.62,-55.0
54.68,-51.0
54.75,-61.0
54.81,-65.0
54.87,-62.0
54.94,-56.0
55.0,-37.0
55.06,-55.0
55.13,-68.0
55.19,-52.0
55.25,-61.0
55.31,-67.0
55.38,-63.0
55.44,-57.0
55.5,-81.0
55.57,-69.0
55.63,-70.0
55.69,-71.0
55.76,-53.0
55.82,-63.0
55.88,-70.0
55.94,-66.0
56.01,-67.0
56.07,-82.0
56.13,-104.0
56.2,-101.0
56.26,-101.0
56.32,-86.0
56.39,-85.0
56.45,-60.0
56.51,-55.0
56.57,-70.0
56.64,-72.0
56.7,-78.0
56.76,-85.0
56.83,-96.0
56.89,-84.0
56.95,-80.0
57.02,-94.0
57.08,-94.0
57.14,-87.0
57.2,-63.0
57.27,-69.0
57.33,-74.0
57.39,-77.0
57.46,-77.0
57.52,-53.0
57.58,-49.0
57.65,-40.0
57.71,-31.0
57.77,-43.0
57.83,-30.0
57.9,-43.0
57.96,-45.0
58.02,-33.0
58.09,-47.0
58.15,-46.0
58.21,-53.0
58.28,-63.0
58.34,-78.0
58.4,-95.0
58.46,-101.0
58.53,-109.0
58.59,-96.0
58.65,-90.0
58.72,-87.0
58.78,-93.0
58.84,-75.0
58.91,-89.0
58.97,-80.0
59.03,-79.0
59.09,-82.0
59.16,-82.0
59.22,-73.0
59.28,-80.0
59.35,-99.0
59.41,-86.0
59.47,-94.0
59.54,-94.0
59.6,-117.0
59.66,-112.0
59.72,-114.0
59.79,-124.0
59.85,-129.0
59.91,-116.0
59.98,-99.0
60.04,-121.0
60.1,-111.0
60.17,-111.0
60.23,-127.0
60.29,-121.0
60.35,-128.0
60.42,-133.0
60.48,-126.0
60.54,-140.0
60.61,-141.0
60.67,-142.0
60.73,-140.0
60.8,-136.0
60.86,-142.0
60.92,-136.0
60.98,-147.0
61.05,-117.0
61.11,-135.0
61.17,-130.0
61.24,-127.0
61.3,-131.0
61.36,-139.0
61.43,-144.0
61.49,-151.0
61.55,-129.0
61.61,-139.0
61.68,-133.0
61.74,-137.0
61.8,-136.0
61.87,-139.0
61.93,-156.0
61.99,-141.0
62.06,-152.0
62.12,-138.0
62.18,-129.0
62.24,-129.0
62.31,-130.0
62.37,-113.0
62.43,-121.0
62.5,-142.0
62.56,-148.0
62.62,-136.0
62.69,-153.0
62.75,-139.0
62.81,-149.0
62.87,-150.0
62.94,-155.0
63.0,-157.0
63.06,-138.0
63.13,-130.0
63.19,-136.0
63.25,-129.0
63.32,-146.0
63.38,-142.0
63.44,-144.0
63.5,-143.0
63.57,-118.0
63.63,-126.0
63.69,-134.0
63.76,-116.0
63.82,-115.0
63.88,-119.0
63.95,-102.0
64.01,-101.0
64.07,-143.0
64.13,-117.0
64.2,-123.0
64.26,-140.0
64.32,-124.0
64.39,-126.0
64.45,-96.0
64.51,-109.0
64.58,-107.0
64.64,-108.0
64.7,-108.0
64.76,-123.0
64.83,-112.0
64.89,-87.0
64.95,-120.0
65.02,-112.0
65.08,-102.0
65.14,-98.0
65.21,-73.0
65.27,-100.0
65.33,-84.0
65.39,-93.0
65.46,-75.0
65.52,-65.0
65.58,-55.0
65.65,-64.0
65.71,-63.0
65.77,-51.0
65.84,-71.0
65.9,-58.0
65.96,-38.0
66.02,-58.0
66.09,-41.0
66.15,-46.0
66.21,-54.0
66.28,-49.0
66.34,-55.0
66.4,-43.0
66.47,-50.0
66.53,-34.0
66.59,-46.0
66.65,-28.0
66.72,-20.0
66.78,-26.0
66.84,8.0
66.91,0.0
66.97,2.0
67.03,-7.0
67.1,1.0
67.16,23.0
67.22,0.0
67.28,14.0
67.35,25.0
67.41,8.0
67.47,25.0
67.54,44.0
67.6,38.0
67.66,55.0
67.73,57.0
67.79,57.0
67.85,70.0
67.91,77.0
67.98,74.0
68.04,78.0
68.1,96.0
68.17,103.0
68.23,100.0
68.29,78.0
68.36,88.0
68.42,83.0
68.48,81.0
68.54,64.0
68.61,91.0
68.67,74.0
68.73,54.0
68.8,71.0
68.86,80.0
68.92,88.0
68.99,97.0
69.05,87.0
69.11,65.0
69.17,73.0
69.24,77.0
69.3,65.0
69.36,69.0
69.43,75.0
69.49,74.0
69.55,60.0
69.62,66.0
69.68,96.0
69.74,84.0
69.8,58.0
69.87,60.0
69.93,49.0
69.99,53.0
70.06,62.0
70.12,60.0
70.18,63.0
70.25,60.0
70.31,35.0
70.37,17.0
70.43,34.0
70.5,30.0
70.56,13.0
70.62,35.0
70.69,28.0
70.75,17.0
70.81,33.0
70.88,16.0
70.94,-5.0
71.0,6.0
71.06,18.0
71.13,20.0
71.19,13.0
71.25,19.0
71.32,0.0
71.38,8.0
71.44,33.0
71.51,40.0
71.57,22.0
71.63,15.0
71.69,11.0
71.76,0.0
71.82,1.0
71.88,12.0
71.95,22.0
72.01,20.0
72.07,16.0
72.14,4.0
72.2,5.0
72.26,22.0
72.32,8.0
72.39,7.0
72.45,29.0
72.51,20.0
72.58,34.0
72.64,19.0
72.7,4.0
72.77,13.0
72.83,-8.0
72.89,0.0
72.95,-13.0
73.02,2.0
73.08,0.0
73.14,-12.0
73.21,-6.0
73.27,-10.0
73.33,3.0
73.4,-4.0
73.46,-6.0
73.52,-1.0
73.58,7.0
73.65,-9.0
73.71,30.0
73.77,-8.0
73.84,-16.0
73.9,-12.0
73.96,-22.0
74.03,4.0
74.09,-4.0
74.15,5.0
74.21,23.0
74.28,7.0
74.34,-9.0
74.4,22.0
74.47,19.0
74.53,-2.0
74.59,4.0
74.66,-2.0
74.72,2.0
74.78,1.0
74.84,6.0
74.91,13.0
74.97,4.0
75.03,-5.0
75.1,-6.0
75.16,22.0
75.22,20.0
75.29,-6.0
75.35,11.0
75.41,21.0
75.47,25.0
75.54,16.0
75.6,5.0
75.66,12.0
75.73,-4.0
75.79,-5.0
75.85,-24.0
75.92,-18.0
75.98,-20.0
76.04,-31.0
76.1,-28.0
76.17,-32.0
76.23,-25.0
76.29,-29.0
76.36,-30.0
76.42,-43.0
76.48,-43.0
76.55,-53.0
76.61,-67.0
76.67,-54.0
76.73,-42.0
76.8,-45.0
76.86,-63.0
76.92,-69.0
76.99,-79.0
77.05,-68.0
77.11,-62.0
77.18,-60.0
77.24,-61.0
77.3,-45.0
77.36,-54.0
77.43,-39.0
77.49,-48.0
77.55,-55.0
77.62,-42.0
77.68,-42.0
77.74,-60.0
77.81,-46.0
77.87,-62.0
77.93,-50.0
77.99,-44.0
78.06,-57.0
78.12,-38.0
78.18,-50.0
78.25,-49.0
78.31,-62.0
78.37,-49.0
78.44,-49.0
78.5,-67.0
78.56,-57.0
78.62,-39.0
78.69,-29.0
78.75,-48.0
78.81,-39.0
78.88,-40.0
78.94,-40.0
79.0,-34.0
79.07,-37.0
79.13,-28.0
79.19,-27.0
79.25,-50.0
79.32,-55.0
79.38,-59.0
79.44,-79.0
79.51,-79.0
79.57,-62.0
79.63,-66.0
79.7,-80.0
79.76,-74.0
79.82,-72.0
79.88,-86.0
79.95,-98.0
80.01,-90.0
80.07,-92.0
80.14,-100.0
80.2,-79.0
80.26,-81.0
80.33,-73.0
80.39,-75.0
80.45,-70.0
80.51,-70.0
80.58,-52.0
80.64,-82.0
80.7,-85.0
80.77,-84.0
80.83,-87.0
80.89,-72.0
80.96,-78.0
81.02,-84.0
81.08,-82.0
81.14,-70.0
81.21,-61.0
81.27,-83.0
81.33,-87.0
81.4,-104.0
81.46,-88.0
81.52,-93.0
81.59,-89.0
81.65,-79.0
81.71,-82.0
81.77,-74.0
81.84,-71.0
81.9,-61.0
81.96,-79.0
82.03,-61.0
82.09,-63.0
82.15,-54.0
82.22,-44.0
82.28,-54.0
82.34,-5.0
82.4,-22.0
82.47,-25.0
82.53,-6.0
82.59,-20.0
82.66,-8.0
82.72,-5.0
82.78,-19.0
82.85,-13.0
82.91,17.0
82.97,13.0
83.03,4.0
83.1,12.0
83.16,-7.0
83.22,-1.0
83.29,16.0
83.35,24.0
83.41,43.0
83.48,57.0
83.54,38.0
83.6,44.0
83.66,16.0
83.73,1.0
83.79,5.0
83.85,7.0
83.92,7.0
83.98,-7.0
84.04,-3.0
84.11,18.0
84.17,14.0
84.23,0.0
84.29,13.0
84.36,-14.0
84.42,23.0
84.48,5.0
84.55,-15.0
84.61,5.0
84.67,-1.0
84.74,18.0
84.8,-24.0
84.86,-14.0
84.92,-20.0
84.99,-25.0
85.05,-23.0
85.11,-20.0
85.18,-21.0
85.24,-20.0
85.3,0.0
85.37,22.0
85.43,18.0
85.49,23.0
85.55,26.0
85.62,22.0
85.68,21.0
85.74,26.0
85.81,10.0
85.87,8.0
85.93,33.0
86.0,12.0
86.06,19.0
86.12,19.0
86.18,24.0
86.25,22.0
86.31,0.0
86.37,15.0
86.44,18.0
86.5,26.0
86.56,31.0
86.63,44.0
86.69,38.0
86.75,32.0
86.81,29.0
86.88,29.0
86.94,45.0
87.0,61.0
87.07,54.0
87.13,59.0
87.19,72.0
87.26,45.0
87.32,34.0
87.38,49.0
87.44,62.0
87.51,66.0
87.57,71.0
87.63,51.0
87.7,55.0
87.76,40.0
87.82,15.0
87.89,37.0
87.95,32.0
88.01,27.0
88.07,27.0
88.14,22.0
88.2,34.0
88.26,23.0
88.33,29.0
88.39,44.0
88.45,12.0
88.52,22.0
88.58,10.0
88.64,0.0
88.7,13.0
88.77,32.0
88.83,31.0
88.89,32.0
88.96,35.0
89.02,41.0
89.08,41.0
89.15,44.0
89.21,44.0
89.27,37.0
89.33,33.0
89.4,22.0
89.46,24.0
89.52,29.0
89.59,27.0
89.65,24.0
89.71,31.0
89.78,32.0
89.84,33.0
89.9,35.0
89.96,26.0
90.03,52.0
90.09,39.0
90.15,58.0
90.22,81.0
90.28,81.0
90.34,53.0
90.41,57.0
90.47,62.0
90.53,75.0
90.59,71.0
90.66,62.0
90.72,65.0
90.78,62.0
90.85,65.0
90.91,76.0
90.97,67.0
91.04,68.0
91.1,79.0
91.16,97.0
91.22,79.0
91.29,66.0
91.35,83.0
91.41,66.0
91.48,84.0
91.54,84.0
91.6,79.0
91.67,90.0
91.73,61.0
91.79,70.0
91.85,66.0
91.92,37.0
91.98,49.0
92.04,54.0
92.11,71.0
92.17,69.0
92.23,69.0
92.3,54.0
92.36,55.0
92.42,73.0
92.48,57.0
92.55,57.0
92.61,73.0
92.67,62.0
92.74,49.0
92.8,39.0
92.86,29.0
92.93,45.0
92.99,45.0
93.05,35.0
93.11,57.0
93.18,47.0
93.24,58.0
93.3,51.0
93.37,75.0
93.43,81.0
93.49,54.0
93.56,56.0
93.62,70.0
93.68,70.0
93.74,62.0
93.81,54.0
93.87,60.0
93.93,66.0
94.0,47.0
94.06,67.0
94.12,62.0
94.19,56.0
94.25,47.0
94.31,31.0
94.37,39.0
94.44,39.0
94.5,32.0
94.56,44.0
94.63,18.0
94.69,23.0
94.75,30.0
94.82,19.0
94.88,10.0
94.94,1.0
95.0,14.0
95.07,19.0
95.13,16.0
95.19,9.0
95.26,11.0
95.32,24.0
95.38,-3.0
95.45,8.0
95.51,20.0
95.57,14.0
95.63,11.0
95.7,5.0
95.76,0.0
95.82,7.0
95.89,-4.0
95.95,-5.0
96.01,-13.0
96.08,-20.0
96.14,-37.0
96.2,-19.0
96.26,-36.0
96.33,-33.0
96.39,-29.0
96.45,-61.0
96.52,-25.0
96.58,-12.0
96.64,-13.0
96.71,-21.0
96.77,-14.0
96.83,-13.0
96.89,-32.0
96.96,-38.0
97.02,-44.0
97.08,-25.0
97.15,-31.0
97.21,-29.0
97.27,-30.0
97.34,-47.0
97.4,-65.0
97.46,-72.0
97.52,-44.0
97.59,-47.0
97.65,-63.0
97.71,-43.0
97.78,-54.0
97.84,-36.0
97.9,-25.0
97.97,-37.0
98.03,-33.0
98.09,-32.0
98.15,-18.0
98.22,-29.0
98.28,-12.0
98.34,11.0
98.41,2.0
98.47,-5.0
98.53,-12.0
98.6,-19.0
98.66,-36.0
98.72,-42.0
98.78,-32.0
98.85,-28.0
98.91,-46.0
98.97,-32.0
99.04,-32.0
99.1,-34.0
99.16,-43.0
99.23,-30.0
99.29,-28.0
99.35,-33.0
99.41,-21.0
99.48,-15.0
99.54,2.0
99.6,-13.0
99.67,-5.0
99.73,-18.0
99.79,-9.0
99.86,-4.0
99.92,-16.0
99.98,-13.0
100.04,-32.0
100.11,-20.0
100.17,-13.0
100.23,-2.0
100.3,8.0
100.36,11.0
100.42,18.0
100.49,9.0
100.55,17.0
100.61,26.0
100.67,17.0
100.74,13.0
100.8,32.0
100.86,32.0
100.93,39.0
100.99,30.0
101.05,32.0
101.12,32.0
101.18,26.0
101.24,24.0
101.3,8.0
101.37,24.0
101.43,50.0
101.49,27.0
101.56,39.0
101.62,28.0
101.68,37.0
101.75,61.0
101.81,46.0
101.87,30.0
101.93,28.0
102.0,47.0
102.06,35.0
102.12,29.0
102.19,40.0
102.25,48.0
102.31,45.0
102.38,47.0
102.44,72.0
102.5,72.0
102.56,60.0
102.63,75.0
102.69,72.0
102.75,54.0
102.82,32.0
102.88,50.0
102.94,47.0
103.01,46.0
103.07,35.0
103.13,45.0
103.19,24.0
103.26,30.0
103.32,28.0
103.38,41.0
103.45,58.0
103.51,53.0
103.57,49.0
103.64,47.0
103.7,35.0
103.76,39.0
103.82,48.0
103.89,41.0
103.95,44.0
104.01,46.0
104.08,56.0
104.14,50.0
104.2,57.0
104.27,46.0
104.33,40.0
104.39,31.0
104.45,38.0
104.52,63.0
104.58,44.0
104.64,52.0
104.71,62.0
104.77,56.0
104.83,42.0
104.9,64.0
104.96,53.0
105.02,55.0
105.08,50.0
105.15,50.0
105.21,57.0
105.27,59.0
105.34,60.0
105.4,41.0
105.46,42.0
105.53,50.0
105.59,48.0
105.65,54.0
105.71,53.0
105.78,42.0
105.84,48.0
105.9,29.0
105.97,42.0
106.03,25.0
106.09,17.0
106.16,21.0
106.22,30.0
106.28,28.0
106.34,40.0
106.41,30.0
106.47,19.0
106.53,49.0
106.6,62.0
106.66,51.0
106.72,50.0
106.79,35.0
106.85,34.0
106.91,24.0
106.97,29.0
107.04,32.0
107.1,33.0
107.16,36.0
107.23,28.0
107.29,72.0
107.35,63.0
107.42,52.0
107.48,48.0
107.54,51.0
107.6,63.0
107.67,56.0
107.73,58.0
107.79,58.0
107.86,69.0
107.92,67.0
107.98,69.0
108.05,54.0
108.11,59.0
108.17,62.0
108.23,79.0
108.3,77.0
108.36,72.0
108.42,68.0
108.49,68.0
108.55,72.0
108.61,80.0
108.68,79.0
108.74,66.0
108.8,52.0
108.86,70.0
108.93,59.0
108.99,61.0
109.05,58.0
109.12,66.0
109.18,69.0
109.24,63.0
109.31,75.0
109.37,65.0
109.43,63.0
109.49,68.0
109.56,72.0
109.62,71.0
109.68,69.0
109.75,52.0
109.81,47.0
109.87,52.0
109.94,73.0
110.0,52.0
110.06,41.0
110.12,28.0
110.19,12.0
110.25,27.0
110.31,25.0
110.38,25.0
110.44,25.0
110.5,28.0
110.57,19.0
110.63,15.0
110.69,31.0
110.75,34.0
110.82,14.0
110.88,11.0
110.94,6.0
111.01,-3.0
111.07,-9.0
111.13,15.0
111.2,-5.0
111.26,-21.0
111.32,-13.0
111.38,12.0
111.45,14.0
111.51,6.0
111.57,-2.0
111.64,3.0
111.7,14.0
111.76,9.0
111.83,11.0
111.89,9.0
111.95,2.0
112.01,5.0
112.08,4.0
112.14,-10.0
112.2,-17.0
112.27,-17.0
112.33,-13.0
112.39,-16.0
112.46,-19.0
112.52,-18.0
112.58,-24.0
112.64,-14.0
112.71,-13.0
112.77,-3.0
112.83,-20.0
112.9,-39.0
112.96,-26.0
113.02,-19.0
113.09,-35.0
113.15,-19.0
113.21,-19.0
113.27,-36.0
113.34,-33.0
113.4,-37.0
113.46,-28.0
113.53,-41.0
113.59,-44.0
113.65,-32.0
113.72,-44.0
113.78,-35.0
113.84,-60.0
113.9,-65.0
113.97,-60.0
114.03,-57.0
114.09,-61.0
114.16,-44.0
114.22,-35.0
114.28,-44.0
114.35,-56.0
114.41,-55.0
114.47,-49.0
114.53,-39.0
114.6,-53.0
114.66,-60.0
114.72,-56.0
114.79,-46.0
114.85,-35.0
114.91,-42.0
114.98,-41.0
115.04,-37.0
115.1,-30.0
115.16,-60.0
115.23,-36.0
115.29,-56.0
115.35,-47.0
115.42,-54.0
115.48,-42.0
115.54,-62.0
115.61,-55.0
115.67,-26.0
115.73,-27.0
115.79,-25.0
115.86,-43.0
115.92,-46.0
115.98,-24.0
116.05,-34.0
116.11,-25.0
116.17,-17.0
116.24,-23.0
116.3,-4.0
116.36,-5.0
116.42,-23.0
116.49,-31.0
116.55,-8.0
116.61,-17.0
116.68,2.0
116.74,10.0
116.8,5.0
116.87,30.0
116.93,28.0
116.99,41.0
117.05,30.0
117.12,48.0
117.18,71.0
117.24,39.0
117.31,71.0
117.37,82.0
117.43,65.0
117.5,83.0
117.56,86.0
117.62,83.0
117.68,86.0
117.75,77.0
117.81,82.0
117.87,86.0
117.94,82.0
118.0,105.0
118.06,92.0
118.13,83.0
118.19,82.0
118.25,86.0
118.31,77.0
118.38,88.0
118.44,84.0
118.5,95.0
118.57,75.0
118.63,88.0
118.69,105.0
118.76,91.0
118.82,87.0
118.88,80.0
118.94,89.0
119.01,99.0
119.07,117.0
119.13,136.0
119.2,122.0
119.26,99.0
119.32,112.0
119.39,116.0
119.45,113.0
119.51,138.0
119.57,151.0
119.64,156.0
119.7,161.0
119.76,147.0
119.83,182.0
119.89,159.0
119.95,163.0
120.02,181.0
120.08,168.0
120.14,170.0
120.2,156.0
120.27,167.0
120.33,166.0
120.39,193.0
120.46,165.0
120.52,169.0
120.58,151.0
120.65,140.0
120.71,153.0
120.77,146.0
120.83,149.0
120.9,158.0
120.96,159.0
121.02,152.0
121.09,153.0
121.15,113.0
121.21,131.0
121.28,153.0
121.34,130.0
121.4,148.0
121.46,138.0
121.53,132.0
121.59,116.0
121.65,133.0
121.72,126.0
121.78,117.0
121.84,116.0
121.91,96.0
121.97,104.0
122.03,86.0
122.09,85.0
122.16,71.0
122.22,91.0
122.28,86.0
122.35,76.0
122.41,90.0
122.47,74.0
122.54,76.0
122.6,65.0
122.66,92.0
122.72,98.0
122.79,105.0
122.85,105.0
122.91,110.0
122.98,107.0
123.04,104.0
123.1,99.0
123.17,105.0
123.23,135.0
123.29,126.0
123.35,119.0
123.42,106.0
123.48,85.0
123.54,89.0
123.61,109.0
123.67,105.0
123.73,86.0
123.8,89.0
123.86,91.0
123.92,95.0
123.98,95.0
124.05,90.0
124.11,90.0
124.17,83.0
124.24,86.0
124.3,69.0
124.36,72.0
124.43,86.0
124.49,100.0
124.55,101.0
124.61,93.0
124.68,89.0
124.74,101.0
124.8,101.0
124.87,108.0
124.93,102.0
124.99,86.0
125.06,92.0
125.12,81.0
125.18,99.0
125.24,91.0
125.31,82.0
125.37,101.0
125.43,102.0
125.5,89.0
125.56,71.0
125.62,71.0
125.69,75.0
125.75,89.0
125.81,91.0
125.87,81.0
125.94,88.0
126.0,72.0
126.06,68.0
126.13,73.0
126.19,61.0
126.25,57.0
126.32,68.0
126.38,82.0
126.44,69.0
126.5,88.0
126.57,71.0
126.63,82.0
126.69,81.0
126.76,67.0
126.82,83.0
126.88,66.0
126.95,89.0
127.01,98.0
127.07,78.0
127.13,88.0
127.2,91.0
127.26,83.0
127.32,68.0
127.39,53.0
127.45,55.0
127.51,66.0
127.58,69.0
127.64,48.0
127.7,46.0
127.76,53.0
127.83,42.0
127.89,44.0
127.95,18.0
128.02,40.0
128.08,38.0
128.14,34.0
128.21,30.0
128.27,22.0
128.33,18.0
128.39,15.0
128.46,46.0
128.52,22.0
128.58,24.0
128.65,0.0
128.71,15.0
128.77,17.0
128.84,17.0
128.9,13.0
128.96,41.0
129.02,42.0
129.09,42.0
129.15,33.0
129.21,23.0
129.28,25.0
129.34,5.0
129.4,15.0
129.47,-6.0
129.53,-2.0
129.59,4.0
129.65,8.0
129.72,6.0
129.78,-7.0
129.84,16.0
129.91,4.0
129.97,4.0
130.03,-2.0
130.1,6.0
130.16,9.0
130.22,6.0
130.28,-8.0
130.35,-15.0
130.41,-9.0
130.47,-23.0
130.54,-30.0
130.6,-16.0
130.66,-29.0
130.73,-35.0
130.79,-27.0
130.85,-35.0
130.91,-27.0
130.98,-47.0
131.04,-34.0
131.1,-36.0
131.17,-59.0
131.23,-51.0
131.29,-50.0
131.36,-71.0
131.42,-64.0
131.48,-75.0
131.54,-68.0
131.61,-59.0
131.67,-71.0
131.73,-85.0
131.8,-56.0
131.86,-43.0
131.92,-51.0
131.99,-47.0
132.05,-44.0
132.11,-55.0
132.17,-47.0
132.24,-31.0
132.3,-28.0
132.36,-39.0
132.43,-24.0
132.49,-23.0
132.55,-15.0
132.62,-22.0
132.68,-27.0
132.74,-27.0
132.8,-23.0
132.87,-44.0
132.93,-37.0
132.99,-51.0
133.06,-24.0
133.12,-5.0
133.18,-27.0
133.25,-32.0
133.31,-23.0
133.37,-1.0
133.43,-8.0
133.5,-30.0
133.56,-28.0
133.62,-24.0
133.69,-37.0
133.75,-8.0
133.81,3.0
133.88,-5.0
133.94,-1.0
134.0,-15.0
134.06,10.0
134.13,2.0
134.19,11.0
134.25,27.0
134.32,12.0
134.38,16.0
134.44,9.0
134.51,20.0
134.57,38.0
134.63,35.0
134.69,30.0
134.76,58.0
134.82,52.0
134.88,46.0
134.95,61.0
135.01,71.0
135.07,85.0
135.14,72.0
135.2,45.0
135.26,47.0
135.32,67.0
135.39,71.0
135.45,68.0
135.51,93.0
135.58,88.0
135.64,92.0
135.7,131.0
135.77,100.0
135.83,108.0
135.89,81.0
135.95,93.0
136.02,101.0
136.08,99.0
136.14,114.0
136.21,102.0
136.27,116.0
136.33,123.0
136.4,136.0
136.46,124.0
136.52,123.0
136.58,124.0
136.65,134.0
136.71,126.0
136.77,121.0
136.84,136.0
136.9,133.0
136.96,125.0
137.03,120.0
137.09,106.0
137.15,93.0
137.21,92.0
137.28,91.0
137.34,95.0
137.4,103.0
137.47,96.0
137.53,90.0
137.59,94.0
137.66,94.0
137.72,76.0
137.78,76.0
137.84,95.0
137.91,103.0
137.97,80.0
138.03,96.0
138.1,93.0
138.16,96.0
138.22,103.0
138.29,81.0
138.35,104.0
138.41,84.0
138.47,78.0
138.54,80.0
138.6,79.0
138.66,85.0
138.73,68.0
138.79,72.0
138.85,88.0
138.92,87.0
138.98,78.0
139.04,91.0
139.1,88.0
139.17,73.0
139.23,57.0
139.29,50.0
139.36,63.0
139.42,50.0
139.48,48.0
139.55,64.0
139.61,52.0
139.67,62.0
139.73,68.0
139.8,91.0
139.86,75.0
139.92,61.0
139.99,65.0
140.05,59.0
140.11,75.0
140.18,62.0
140.24,63.0
140.3,76.0
140.36,51.0
140.43,56.0
140.49,62.0
140.55,52.0
140.62,68.0
140.68,60.0
140.74,61.0
140.81,62.0
140.87,62.0
140.93,66.0
140.99,57.0
141.06,58.0
141.12,65.0
141.18,62.0
141.25,99.0
141.31,70.0
141.37,79.0
141.44,82.0
141.5,84.0
141.56,99.0
141.62,92.0
141.69,98.0
141.75,97.0
141.81,105.0
141.88,107.0
141.94,129.0
142.0,103.0
142.07,113.0
142.13,111.0
142.19,117.0
142.25,137.0
142.32,120.0
142.38,147.0
142.44,101.0
142.51,131.0
142.57,130.0
142.63,123.0
142.7,112.0
142.76,100.0
142.82,114.0
142.88,102.0
142.95,114.0
143.01,129.0
143.07,123.0
143.14,117.0
143.2,129.0
143.26,115.0
143.33,120.0
143.39,121.0
143.45,115.0
143.51,137.0
143.58,130.0
143.64,131.0
143.7,118.0
143.77,112.0
143.83,127.0
143.89,115.0
143.96,128.0
144.02,131.0
144.08,115.0
144.14,129.0
144.21,115.0
144.27,135.0
144.33,135.0
144.4,125.0
144.46,131.0
144.52,137.0
144.59,120.0
144.65,118.0
144.71,146.0
144.77,134.0
144.84,125.0
144.9,140.0
144.96,126.0
145.03,137.0
145.09,128.0
145.15,112.0
145.22,114.0
145.28,135.0
145.34,113.0
145.4,95.0
145.47,98.0
145.53,102.0
145.59,79.0
145.66,89.0
145.72,65.0
145.78,88.0
145.85,88.0
145.91,108.0
145.97,108.0
146.03,112.0
146.1,117.0
146.16,119.0
146.22,109.0
146.29,98.0
146.35,107.0
146.41,77.0
146.47,78.0
146.54,74.0
146.6,71.0
146.66,73.0
146.73,71.0
146.79,68.0
146.85,70.0
146.92,56.0
146.98,48.0
147.04,33.0
147.1,33.0
147.17,46.0
147.23,32.0
147.29,32.0
147.36,8.0
147.42,20.0
147.48,18.0
147.55,18.0
147.61,21.0
147.67,19.0
147.73,7.0
147.8,-4.0
147.86,7.0
147.92,10.0
147.99,-6.0
148.05,15.0
148.11,6.0
148.18,7.0
148.24,6.0
148.3,8.0
148.36,7.0
148.43,17.0
148.49,6.0
148.55,3.0
148.62,25.0
148.68,20.0
148.74,2.0
148.81,-9.0
148.87,-5.0
148.93,-12.0
148.99,-13.0
149.06,-7.0
149.12,25.0
149.18,11.0
149.25,20.0
149.31,24.0
149.37,21.0
149.44,32.0
149.5,17.0
149.56,26.0
149.62,32.0
149.69,18.0
149.75,23.0
149.81,28.0
149.88,27.0
149.94,20.0
150.0,10.0
150.07,28.0
150.13,18.0
150.19,26.0
150.25,15.0
150.32,18.0
150.38,41.0
150.44,51.0
150.51,26.0
150.57,21.0
150.63,34.0
150.7,14.0
150.76,15.0
150.82,40.0
150.88,43.0
150.95,35.0
151.01,68.0
151.07,70.0
151.14,66.0
151.2,87.0
151.26,69.0
151.33,83.0
151.39,68.0
151.45,62.0
151.51,64.0
151.58,74.0
151.64,67.0
151.7,81.0
151.77,84.0
151.83,65.0
151.89,62.0
151.96,70.0
152.02,73.0
152.08,81.0
152.14,67.0
152.21,79.0
152.27,86.0
152.33,91.0
152.4,103.0
152.46,104.0
152.52,100.0
152.59,98.0
152.65,116.0
152.71,109.0
152.77,85.0
152.84,92.0
152.9,86.0
152.96,85.0
153.03,95.0
153.09,79.0
153.15,109.0
153.22,110.0
153.28,102.0
153.34,89.0
153.4,84.0
153.47,85.0
153.53,80.0
153.59,95.0
153.66,99.0
153.72,105.0
153.78,96.0
153.85,103.0
153.91,104.0
153.97,121.0
154.03,105.0
154.1,112.0
154.16,125.0
154.22,104.0
154.29,112.0
154.35,107.0
154.41,107.0
154.48,97.0
154.54,100.0
154.6,108.0
154.66,126.0
154.73,101.0
154.79,92.0
154.85,93.0
154.92,100.0
154.98,122.0
155.04,92.0
155.11,94.0
155.17,94.0
155.23,91.0
155.29,83.0
155.36,77.0
155.42,85.0
155.48,90.0
155.55,93.0
155.61,92.0
155.67,99.0
155.74,102.0
155.8,90.0
155.86,72.0
155.92,86.0
155.99,80.0
156.05,89.0
156.11,96.0
156.18,87.0
156.24,82.0
156.3,81.0
156.37,70.0
156.43,59.0
156.49,60.0
156.55,63.0
156.62,67.0
156.68,68.0
156.74,57.0
156.81,58.0
156.87,60.0
156.93,44.0
157.0,37.0
157.06,28.0
157.12,38.0
157.18,40.0
157.25,38.0
157.31,47.0
157.37,39.0
157.44,45.0
157.5,29.0
157.56,39.0
157.63,36.0
157.69,47.0
157.75,54.0
157.81,40.0
157.88,47.0
157.94,39.0
158.0,67.0
158.07,75.0
158.13,69.0
158.19,63.0
158.26,81.0
158.32,106.0
158.38,98.0
158.44,80.0
158.51,75.0
158.57,92.0
158.63,84.0
158.7,72.0
158.76,75.0
158.82,57.0
158.89,76.0
158.95,75.0
159.01,95.0
159.07,86.0
159.14,65.0
159.2,83.0
159.26,76.0
159.33,77.0
159.39,77.0
159.45,83.0
159.52,79.0
159.58,71.0
159.64,79.0
159.7,81.0
159.77,85.0
159.83,93.0
159.89,95.0
159.96,99.0
160.02,74.0
160.08,68.0
160.15,92.0
160.21,86.0
160.27,80.0
160.33,105.0
160.4,98.0
160.46,80.0
160.52,69.0
160.59,73.0
160.65,74.0
160.71,62.0
160.78,66.0
160.84,68.0
160.9,52.0
160.96,62.0
161.03,67.0
161.09,57.0
161.15,48.0
161.22,61.0
161.28,64.0
161.34,62.0
161.41,85.0
161.47,88.0
161.53,92.0
161.59,74.0
161.66,63.0
161.72,62.0
161.78,87.0
161.85,87.0
161.91,74.0
161.97,83.0
162.04,89.0
162.1,77.0
162.16,76.0
162.22,73.0
162.29,64.0
162.35,47.0
162.41,58.0
162.48,57.0
162.54,42.0
162.6,63.0
162.67,58.0
162.73,69.0
162.79,68.0
162.85,51.0
162.92,50.0
162.98,43.0
163.04,60.0
163.11,39.0
163.17,31.0
163.23,16.0
163.3,18.0
163.36,28.0
163.42,5.0
163.48,8.0
163.55,3.0
163.61,4.0
163.67,5.0
163.74,5.0
163.8,-7.0
163.86,8.0
163.93,17.0
163.99,25.0
164.05,3.0
164.11,-15.0
164.18,-6.0
164.24,-7.0
164.3,-12.0
164.37,-9.0
164.43,-9.0
164.49,-2.0
164.56,5.0
164.62,-11.0
164.68,-14.0
164.74,-21.0
164.81,-5.0
164.87,-3.0
164.93,10.0
165.0,-9.0
165.06,-23.0
165.12,-42.0
165.19,-30.0
165.25,-19.0
165.31,-32.0
165.37,-33.0
165.44,-23.0
165.5,-28.0
165.56,-26.0
165.63,-14.0
165.69,-22.0
165.75,-37.0
165.82,-32.0
165.88,-28.0
165.94,-16.0
166.0,-19.0
166.07,-3.0
166.13,-26.0
166.19,-16.0
166.26,12.0
166.32,2.0
166.38,-10.0
166.45,3.0
166.51,-7.0
166.57,-6.0
166.63,-14.0
166.7,-4.0
166.76,10.0
166.82,10.0
166.89,33.0
166.95,10.0
167.01,14.0
167.08,24.0
167.14,-1.0
167.2,21.0
167.26,36.0
167.33,29.0
167.39,32.0
167.45,35.0
167.52,50.0
167.58,34.0
167.64,34.0
167.71,19.0
167.77,46.0
167.83,41.0
167.89,28.0
167.96,63.0
168.02,57.0
168.08,52.0
168.15,74.0
168.21,76.0
168.27,69.0
168.34,66.0
168.4,77.0
168.46,77.0
168.52,67.0
168.59,65.0
168.65,88.0
168.71,88.0
168.78,69.0
168.84,90.0
168.9,77.0
168.97,77.0
169.03,63.0
169.09,70.0
169.15,72.0
169.22,61.0
169.28,73.0
169.34,74.0
169.41,76.0
169.47,61.0
169.53,93.0
169.6,69.0
169.66,74.0
169.72,86.0
169.78,81.0
169.85,103.0
169.91,98.0
169.97,102.0
170.04,93.0
170.1,93.0
170.16,106.0
170.23,86.0
170.29,89.0
170.35,94.0
170.41,105.0
170.48,104.0
170.54,108.0
170.6,94.0
170.67,86.0
170.73,108.0
170.79,100.0
170.86,77.0
170.92,112.0
170.98,105.0
171.04,101.0
171.11,109.0
171.17,129.0
171.23,127.0
171.3,142.0
171.36,130.0
171.42,116.0
171.49,111.0
171.55,107.0
171.61,112.0
171.67,113.0
171.74,101.0
171.8,96.0
171.86,83.0
171.93,101.0
171.99,100.0
172.05,104.0
172.12,99.0
172.18,100.0
172.24,117.0
172.3,122.0
172.37,106.0
172.43,105.0
172.49,102.0
172.56,116.0
172.62,109.0
172.68,127.0
172.75,133.0
172.81,128.0
172.87,130.0
172.93,127.0
173.0,112.0
173.06,122.0
173.12,119.0
173.19,136.0
173.25,116.0
173.31,93.0
173.38,104.0
173.44,113.0
173.5,112.0
173.56,118.0
173.63,130.0
173.69,115.0
173.75,97.0
173.82,115.0
173.88,124.0
173.94,129.0
174.01,126.0
174.07,130.0
174.13,124.0
174.19,136.0
174.26,126.0
174.32,145.0
174.38,133.0
174.45,121.0
174.51,101.0
174.57,134.0
174.64,139.0
174.7,114.0
174.76,130.0
174.82,149.0
174.89,167.0
174.95,163.0
175.01,172.0
175.08,166.0
175.14,155.0
175.2,153.0
175.27,146.0
175.33,153.0
175.39,164.0
175.45,163.0
175.52,174.0
175.58,167.0
175.64,160.0
175.71,160.0
175.77,146.0
175.83,138.0
175.9,152.0
175.96,160.0
176.02,146.0
176.08,131.0
176.15,142.0
176.21,146.0
176.27,132.0
176.34,138.0
176.4,121.0
176.46,141.0
176.53,149.0
176.59,140.0
176.65,154.0
176.71,154.0
176.78,155.0
176.84,150.0
176.9,137.0
176.97,138.0
177.03,142.0
177.09,150.0
177.16,145.0
177.22,139.0
177.28,145.0
177.34,130.0
177.41,134.0
177.47,136.0
177.53,140.0
177.6,148.0
177.66,135.0
177.72,146.0
177.79,162.0
177.85,142.0
177.91,143.0
177.97,147.0
178.04,145.0
178.1,154.0
178.16,167.0
178.23,173.0
178.29,172.0
178.35,148.0
178.42,130.0
178.48,129.0
178.54,110.0
178.6,120.0
178.67,103.0
178.73,79.0
178.79,76.0
178.86,99.0
178.92,90.0
178.98,82.0
179.05,82.0
179.11,74.0
179.17,66.0
179.23,50.0
179.3,64.0
179.36,57.0
179.42,41.0
179.49,63.0
179.55,72.0
179.61,79.0
179.68,54.0
179.74,72.0
179.8,49.0
179.86,49.0
179.93,44.0
179.99,38.0
180.05,43.0
180.12,46.0
180.18,61.0
180.24,39.0
180.31,40.0
180.37,43.0
180.43,31.0
180.49,46.0
180.56,52.0
180.62,50.0
180.68,50.0
180.75,37.0
180.81,28.0
180.87,8.0
180.94,29.0
181.0,23.0
181.06,24.0
181.12,17.0
181.19,6.0
181.25,4.0
181.31,-3.0
181.38,-15.0
181.44,-17.0
181.5,-13.0
181.57,-11.0
181.63,-9.0
181.69,-16.0
181.75,-9.0
181.82,-33.0
181.88,-26.0
181.94,-30.0
182.01,-24.0
182.07,-8.0
182.13,-41.0
182.2,-31.0
182.26,-20.0
182.32,-20.0
182.38,-25.0
182.45,-14.0
182.51,-41.0
182.57,-40.0
182.64,-31.0
182.7,-8.0
182.76,-14.0
182.83,-26.0
182.89,-22.0
182.95,-17.0
183.01,-18.0
183.08,-24.0
183.14,-5.0
183.2,-5.0
183.27,-26.0
183.33,-5.0
183.39,-20.0
183.46,-8.0
183.52,-19.0
183.58,13.0
183.64,12.0
183.71,-11.0
183.77,12.0
183.83,4.0
183.9,0.0
183.96,3.0
184.02,10.0
184.09,35.0
184.15,19.0
184.21,3.0
184.27,-1.0
184.34,25.0
184.4,13.0
184.46,10.0
184.53,30.0
184.59,34.0
184.65,29.0
184.72,27.0
184.78,57.0
184.84,60.0
184.9,48.0
184.97,29.0
185.03,36.0
185.09,40.0
185.16,42.0
185.22,28.0
185.28,28.0
185.35,37.0
185.41,42.0
185.47,46.0
185.53,62.0
185.6,51.0
185.66,32.0
185.72,51.0
185.79,39.0
185.85,61.0
185.91,45.0
185.98,57.0
186.04,50.0
186.1,64.0
186.16,62.0
186.23,76.0
186.29,72.0
186.35,74.0
186.42,100.0
186.48,93.0
186.54,71.0
186.61,82.0
186.67,89.0
186.73,98.0
186.79,90.0
186.86,96.0
186.92,116.0
186.98,103.0
187.05,108.0
187.11,95.0
187.17,97.0
187.24,101.0
187.3,123.0
187.36,126.0
187.42,116.0
187.49,110.0
187.55,97.0
187.61,121.0
187.68,119.0
187.74,141.0
187.8,127.0
187.87,107.0
187.93,109.0
187.99,111.0
188.05,109.0
188.12,105.0
188.18,75.0
188.24,109.0
188.31,136.0
188.37,120.0
188.43,114.0
188.5,117.0
188.56,110.0
188.62,137.0
188.68,124.0
188.75,111.0
188.81,109.0
188.87,94.0
188.94,98.0
189.0,89.0
189.06,89.0
189.13,70.0
189.19,59.0
189.25,73.0
189.31,85.0
189.38,106.0
189.44,93.0
189.5,102.0
189.57,96.0
189.63,97.0
189.69,101.0
189.76,89.0
189.82,90.0
189.88,102.0
189.94,102.0
190.01,94.0
190.07,104.0
190.13,102.0
190.2,113.0
190.26,117.0
190.32,106.0
190.39,116.0
190.45,116.0
190.51,115.0
190.57,129.0
190.64,114.0
190.7,117.0
190.76,119.0
190.83,129.0
190.89,117.0
190.95,120.0
191.02,117.0
191.08,120.0
191.14,116.0
191.2,127.0
191.27,138.0
191.33,110.0
191.39,123.0
191.46,124.0
191.52,127.0
191.58,134.0
191.65,131.0
191.71,130.0
191.77,113.0
191.83,140.0
191.9,127.0
191.96,133.0
192.02,125.0
192.09,133.0
192.15,149.0
192.21,153.0
192.28,160.0
192.34,145.0
192.4,156.0
192.46,164.0
192.53,149.0
192.59,161.0
192.65,171.0
192.72,164.0
192.78,167.0
192.84,153.0
192.91,160.0
192.97,155.0
193.03,165.0
193.09,147.0
193.16,148.0
193.22,135.0
193.28,141.0
193.35,139.0
193.41,133.0
193.47,117.0
193.54,117.0
193.6,113.0
193.66,95.0
193.72,102.0
193.79,95.0
193.85,98.0
193.91,107.0
193.98,102.0
194.04,87.0
194.1,105.0
194.17,91.0
194.23,86.0
194.29,114.0
194.35,111.0
194.42,125.0
194.48,119.0
194.54,104.0
194.61,122.0
194.67,109.0
194.73,122.0
194.8,120.0
194.86,122.0
194.92,126.0
194.98,122.0
195.05,127.0
195.11,134.0
195.17,133.0
195.24,135.0
195.3,146.0
195.36,151.0
195.43,138.0
195.49,135.0
195.55,118.0
195.61,131.0
195.68,106.0
195.74,105.0
195.8,100.0
195.87,94.0
195.93,94.0
195.99,90.0
196.06,86.0
196.12,89.0
196.18,90.0
196.24,107.0
196.31,103.0
196.37,113.0
196.43,105.0
196.5,83.0
196.56,86.0
196.62,75.0
196.69,82.0
196.75,83.0
196.81,78.0
196.87,84.0
196.94,95.0
197.0,91.0
197.06,99.0
197.13,119.0
197.19,100.0
197.25,84.0
197.32,106.0
197.38,99.0
197.44,82.0
197.5,96.0
197.57,91.0
197.63,96.0
197.69,95.0
197.76,91.0
197.82,79.0
197.88,69.0
197.95,72.0
198.01,92.0
198.07,72.0
198.13,70.0
198.2,69.0
198.26,74.0
198.32,62.0
198.39,55.0
198.45,68.0
198.51,67.0
198.58,68.0
198.64,50.0
198.7,50.0
198.76,50.0
198.83,47.0
198.89,42.0
198.95,39.0
199.02,50.0
199.08,61.0
199.14,50.0
199.21,39.0
199.27,37.0
199.33,29.0
199.39,46.0
199.46,36.0
199.52,45.0
199.58,53.0
199.65,34.0
199.71,37.0
199.77,33.0
199.84,31.0
199.9,12.0
199.96,-2.0
200.02,18.0
200.09,33.0
200.15,23.0
200.21,23.0
200.28,1.0
200.34,22.0
200.4,22.0
200.47,27.0
200.53,51.0
200.59,40.0
200.65,65.0
200.72,51.0
200.78,62.0
200.84,63.0
200.91,45.0
200.97,51.0
201.03,62.0
201.1,64.0
201.16,53.0
201.22,50.0
201.28,70.0
201.35,72.0
201.41,83.0
201.47,60.0
201.54,59.0
201.6,73.0
201.66,72.0
201.73,70.0
201.79,48.0
201.85,66.0
201.91,64.0
201.98,61.0
202.04,57.0
202.1,57.0
202.17,80.0
202.23,82.0
202.29,94.0
202.36,88.0
202.42,85.0
202.48,78.0
202.54,79.0
202.61,81.0
202.67,93.0
202.73,95.0
202.8,87.0
202.86,76.0
202.92,90.0
202.99,89.0
203.05,90.0
203.11,89.0
203.17,105.0
203.24,93.0
203.3,95.0
203.36,125.0
203.43,115.0
203.49,108.0
203.55,101.0
203.62,109.0
203.68,102.0
203.74,103.0
203.8,110.0
203.87,100.0
203.93,86.0
203.99,112.0
204.06,108.0
204.12,78.0
204.18,95.0
204.25,97.0
204.31,78.0
204.37,89.0
204.43,100.0
204.5,105.0
204.56,115.0
204.62,76.0
204.69,87.0
204.75,89.0
204.81,95.0
204.88,81.0
204.94,89.0
205.0,79.0
205.06,79.0
205.13,78.0
205.19,86.0
205.25,77.0
205.32,79.0
205.38,73.0
205.44,78.0
205.51,103.0
205.57,101.0
205.63,119.0
205.69,98.0
205.76,96.0
205.82,116.0
205.88,104.0
205.95,92.0
206.01,102.0
206.07,90.0
206.14,71.0
206.2,62.0
206.26,64.0
206.32,62.0
206.39,82.0
206.45,90.0
206.51,72.0
206.58,53.0
206.64,61.0
206.7,66.0
206.77,66.0
206.83,78.0
206.89,65.0
206.95,49.0
207.02,54.0
207.08,69.0
207.14,62.0
207.21,78.0
207.27,64.0
207.33,71.0
207.4,62.0
207.46,65.0
207.52,64.0
207.58,65.0
207.65,78.0
207.71,71.0
207.77,81.0
207.84,62.0
207.9,71.0
207.96,70.0
208.03,70.0
208.09,87.0
208.15,84.0
208.21,73.0
208.28,88.0
208.34,79.0
208.4,79.0
208.47,81.0
208.53,88.0
208.59,116.0
208.66,102.0
208.72,90.0
208.78,98.0
208.84,104.0
208.91,113.0
208.97,95.0
209.03,96.0
209.1,96.0
209.16,96.0
209.22,105.0
209.29,80.0
209.35,89.0
209.41,86.0
209.47,82.0
209.54,88.0
209.6,70.0
209.66,77.0
209.73,70.0
209.79,85.0
209.85,79.0
209.92,71.0
209.98,95.0
210.04,84.0
210.1,76.0
210.17,85.0
210.23,84.0
210.29,95.0
210.36,73.0
210.42,92.0
210.48,86.0
210.55,68.0
210.61,98.0
210.67,103.0
210.73,75.0
210.8,71.0
210.86,79.0
210.92,88.0
210.99,100.0
211.05,85.0
211.11,62.0
211.18,74.0
211.24,73.0
211.3,94.0
211.36,104.0
211.43,89.0
211.49,71.0
211.55,78.0
211.62,82.0
211.68,81.0
211.74,72.0
211.81,75.0
211.87,92.0
211.93,100.0
211.99,86.0
212.06,88.0
212.12,100.0
212.18,118.0
212.25,102.0
212.31,109.0
212.37,116.0
212.44,120.0
212.5,106.0
212.56,101.0
212.62,115.0
212.69,128.0
212.75,121.0
212.81,132.0
212.88,133.0
212.94,125.0
213.0,117.0
213.07,128.0
213.13,119.0
213.19,97.0
213.25,86.0
213.32,91.0
213.38,97.0
213.44,92.0
213.51,71.0
213.57,90.0
213.63,88.0
213.7,83.0
213.76,96.0
213.82,79.0
213.88,84.0
213.95,80.0
214.01,76.0
214.07,101.0
214.14,99.0
214.2,72.0
214.26,68.0
214.33,68.0
214.39,63.0
214.45,61.0
214.51,57.0
214.58,60.0
214.64,68.0
214.7,60.0
214.77,31.0
214.83,54.0
214.89,46.0
214.96,61.0
215.02,47.0
215.08,13.0
215.14,32.0
215.21,27.0
215.27,28.0
215.33,28.0
215.4,24.0
215.46,39.0
215.52,28.0
215.59,41.0
215.65,38.0
215.71,38.0
215.77,35.0
215.84,40.0
215.9,34.0
215.96,38.0
216.03,23.0
216.09,18.0
216.15,46.0
216.22,37.0
216.28,27.0
216.34,29.0
216.4,42.0
216.47,45.0
216.53,47.0
216.59,35.0
216.66,42.0
216.72,71.0
216.78,68.0
216.85,60.0
216.91,46.0
216.97,54.0
217.03,78.0
217.1,48.0
217.16,38.0
217.22,36.0
217.29,33.0
217.35,35.0
217.41,49.0
217.48,51.0
217.54,37.0
217.6,28.0
217.66,17.0
217.73,32.0
217.79,23.0
217.85,26.0
217.92,35.0
217.98,31.0
218.04,45.0
218.11,16.0
218.17,20.0
218.23,40.0
218.29,40.0
218.36,32.0
218.42,56.0
218.48,46.0
218.55,40.0
218.61,40.0
218.67,41.0
218.74,33.0
218.8,62.0
218.86,68.0
218.92,68.0
218.99,58.0
219.05,67.0
219.11,56.0
219.18,73.0
219.24,76.0
219.3,69.0
219.37,75.0
219.43,79.0
219.49,85.0
219.55,69.0
219.62,68.0
219.68,75.0
219.74,93.0
219.81,105.0
219.87,85.0
219.93,84.0
220.0,97.0
220.06,99.0
220.12,97.0
220.18,100.0
220.25,97.0
220.31,79.0
220.37,95.0
220.44,103.0
220.5,112.0
220.56,97.0
220.63,86.0
220.69,95.0
220.75,90.0
220.81,79.0
220.88,83.0
220.94,87.0
221.0,76.0
221.07,105.0
221.13,98.0
221.19,93.0
221.26,88.0
221.32,99.0
221.38,103.0
221.44,83.0
221.51,86.0
221.57,93.0
221.63,106.0
221.7,105.0
221.76,105.0
221.82,99.0
221.89,86.0
221.95,93.0
222.01,111.0
222.07,105.0
222.14,107.0
222.2,95.0
222.26,113.0
222.33,108.0
222.39,105.0
222.45,108.0
222.52,106.0
222.58,131.0
222.64,141.0
222.7,153.0
222.77,159.0
222.83,134.0
222.89,123.0
222.96,125.0
223.02,116.0
223.08,126.0
223.15,143.0
223.21,150.0
223.27,136.0
223.33,125.0
223.4,126.0
223.46,122.0
223.52,126.0
223.59,112.0
223.65,110.0
223.71,114.0
223.78,110.0
223.84,93.0
223.9,99.0
223.96,105.0
224.03,97.0
224.09,101.0
224.15,92.0
224.22,119.0
224.28,116.0
224.34,122.0
224.41,132.0
224.47,146.0
224.53,145.0
224.59,159.0
224.66,142.0
224.72,139.0
224.78,128.0
224.85,158.0
224.91,167.0
224.97,160.0
225.04,165.0
225.1,141.0
225.16,121.0
225.22,136.0
225.29,144.0
225.35,159.0
225.41,173.0
225.48,152.0
225.54,150.0
225.6,152.0
225.67,154.0
225.73,142.0
225.79,123.0
225.85,141.0
225.92,172.0
225.98,158.0
226.04,163.0
226.11,155.0
226.17,139.0
226.23,144.0
226.3,148.0
226.36,168.0
226.42,148.0
226.48,153.0
226.55,150.0
226.61,135.0
226.67,159.0
226.74,161.0
226.8,155.0
226.86,163.0
226.93,171.0
226.99,166.0
227.05,168.0
227.11,178.0
227.18,169.0
227.24,159.0
227.3,145.0
227.37,162.0
227.43,152.0
227.49,163.0
227.56,171.0
227.62,154.0
227.68,181.0
227.74,163.0
227.81,149.0
227.87,147.0
227.93,139.0
228.0,160.0
228.06,148.0
228.12,158.0
228.19,148.0
228.25,137.0
228.31,148.0
228.37,155.0
228.44,166.0
228.5,159.0
228.56,152.0
228.63,161.0
228.69,132.0
228.75,129.0
228.82,137.0
228.88,131.0
228.94,108.0
229.0,109.0
229.07,127.0
229.13,137.0
229.19,112.0
229.26,126.0
229.32,133.0
229.38,122.0
229.45,139.0
229.51,122.0
229.57,109.0
229.63,120.0
229.7,131.0
229.76,119.0
229.82,114.0
229.89,111.0
229.95,114.0
230.01,88.0
230.08,104.0
230.14,90.0
230.2,75.0
230.26,87.0
230.33,93.0
230.39,92.0
230.45,64.0
230.52,91.0
230.58,77.0
230.64,83.0
230.71,94.0
230.77,76.0
230.83,89.0
230.89,79.0
230.96,84.0
231.02,70.0
231.08,92.0
231.15,63.0
231.21,63.0
231.27,68.0
231.34,60.0
231.4,75.0
231.46,67.0
231.52,63.0
231.59,53.0
231.65,64.0
231.71,66.0
231.78,65.0
231.84,54.0
231.9,56.0
231.97,22.0
232.03,31.0
232.09,17.0
232.15,12.0
232.22,-4.0
232.28,-12.0
232.34,-9.0
232.41,10.0
232.47,-8.0
232.53,2.0
232.6,-5.0
232.66,-2.0
232.72,23.0
232.78,50.0
232.85,53.0
232.91,21.0
232.97,34.0
233.04,38.0
233.1,45.0
233.16,16.0
233.23,20.0
233.29,17.0
233.35,28.0
233.41,23.0
233.48,30.0
233.54,39.0
233.6,35.0
233.67,33.0
233.73,23.0
233.79,24.0
233.86,30.0
233.92,20.0
233.98,27.0
234.04,33.0
234.11,23.0
234.17,7.0
234.23,12.0
234.3,-6.0
234.36,-5.0
234.42,22.0
234.49,28.0
234.55,39.0
234.61,21.0
234.67,22.0
234.74,41.0
234.8,37.0
234.86,11.0
234.93,33.0
234.99,36.0
235.05,32.0
235.12,25.0
235.18,18.0
235.24,15.0
235.3,7.0
235.37,22.0
235.43,35.0
235.49,43.0
235.56,48.0
235.62,52.0
235.68,50.0
235.75,42.0
235.81,33.0
235.87,15.0
235.93,22.0
236.0,36.0
236.06,29.0
236.12,44.0
236.19,55.0
236.25,56.0
236.31,58.0
236.38,47.0
236.44,44.0
236.5,58.0
236.56,53.0
236.63,56.0
236.69,48.0
236.75,41.0
236.82,27.0
236.88,36.0
236.94,44.0
237.01,47.0
237.07,53.0
237.13,48.0
237.19,40.0
237.26,59.0
237.32,37.0
237.38,41.0
237.45,29.0
237.51,47.0
237.57,53.0
237.64,42.0
237.7,54.0
237.76,51.0
237.82,40.0
237.89,59.0
237.95,50.0
238.01,52.0
238.08,50.0
238.14,54.0
238.2,61.0
238.27,57.0
238.33,76.0
238.39,80.0
238.45,87.0
238.52,77.0
238.58,75.0
238.64,85.0
238.71,85.0
238.77,81.0
238.83,77.0
238.9,81.0
238.96,74.0
239.02,80.0
239.08,75.0
239.15,73.0
239.21,59.0
239.27,67.0
239.34,75.0
239.4,75.0
239.46,65.0
239.53,51.0
239.59,66.0
239.65,80.0
239.71,46.0
239.78,61.0
239.84,77.0
239.9,76.0
239.97,66.0
240.03,78.0
240.09,77.0
240.16,62.0
240.22,66.0
240.28,66.0
240.34,55.0
240.41,66.0
240.47,52.0
240.53,66.0
240.6,54.0
240.66,65.0
240.72,77.0
240.79,77.0
240.85,70.0
240.91,81.0
240.97,80.0
241.04,76.0
241.1,79.0
241.16,81.0
241.23,70.0
241.29,54.0
241.35,56.0
241.42,57.0
241.48,61.0
241.54,86.0
241.6,85.0
241.67,87.0
241.73,76.0
241.79,78.0
241.86,81.0
241.92,84.0
241.98,99.0
242.05,117.0
242.11,103.0
242.17,122.0
242.23,104.0
242.3,118.0
242.36,122.0
242.42,119.0
242.49,99.0
242.55,114.0
242.61,112.0
242.68,112.0
242.74,114.0
242.8,122.0
242.86,135.0
242.93,114.0
242.99,106.0
243.05,123.0
243.12,114.0
243.18,116.0
243.24,123.0
243.31,120.0
243.37,123.0
243.43,130.0
243.49,125.0
243.56,126.0
243.62,146.0
243.68,121.0
243.75,122.0
243.81,121.0
243.87,131.0
243.94,128.0
244.0,123.0
244.06,120.0
244.12,125.0
244.19,124.0
244.25,105.0
244.31,127.0
244.38,130.0
244.44,139.0
244.5,128.0
244.57,129.0
244.63,132.0
244.69,123.0
244.75,122.0
244.82,129.0
244.88,127.0
244.94,107.0
245.01,75.0
245.07,97.0
245.13,97.0
245.2,84.0
245.26,95.0
245.32,92.0
245.38,104.0
245.45,103.0
245.51,102.0
245.57,88.0
245.64,100.0
245.7,99.0
245.76,88.0
245.83,99.0
245.89,96.0
245.95,91.0
246.01,109.0
246.08,88.0
246.14,90.0
246.2,99.0
246.27,104.0
246.33,85.0
246.39,88.0
246.46,102.0
246.52,113.0
246.58,107.0
246.64,115.0
246.71,123.0
246.77,128.0
246.83,124.0
246.9,109.0
246.96,106.0
247.02,74.0
247.09,98.0
247.15,92.0
247.21,107.0
247.27,89.0
247.34,84.0
247.4,94.0
247.46,98.0
247.53,118.0
247.59,123.0
247.65,127.0
247.72,118.0
247.78,95.0
247.84,76.0
247.9,79.0
247.97,88.0
248.03,75.0
248.09,82.0
248.16,70.0
248.22,69.0
248.28,73.0
248.35,61.0
248.41,68.0
248.47,58.0
248.53,66.0
248.6,62.0
248.66,50.0
248.72,38.0
248.79,59.0
248.85,57.0
248.91,62.0
248.98,61.0
249.04,64.0
249.1,64.0
249.16,53.0
249.23,51.0
249.29,49.0
249.35,52.0
249.42,22.0
249.48,48.0
249.54,48.0
249.61,57.0
249.67,47.0
249.73,45.0
249.79,44.0
249.86,39.0
249.92,26.0
249.98,26.0
250.05,32.0
250.11,40.0
250.17,38.0
250.24,49.0
250.3,48.0
250.36,61.0
250.42,39.0
250.49,42.0
250.55,36.0
250.61,59.0
250.68,69.0
250.74,63.0
250.8,69.0
250.87,55.0
250.93,80.0
250.99,59.0
251.05,56.0
251.12,63.0
251.18,70.0
251.24,50.0
251.31,53.0
251.37,48.0
251.43,43.0
251.5,56.0
251.56,37.0
251.62,36.0
251.68,41.0
251.75,61.0
251.81,61.0
251.87,39.0
251.94,29.0
252.0,51.0
252.06,72.0
252.13,58.0
252.19,52.0
252.25,51.0
252.31,71.0
252.38,58.0
252.44,40.0
252.5,53.0
252.57,53.0
252.63,66.0
252.69,61.0
252.76,82.0
252.82,88.0
252.88,80.0
252.94,66.0
253.01,63.0
253.07,56.0
253.13,47.0
253.2,59.0
253.26,56.0
253.32,65.0
253.39,56.0
253.45,61.0
253.51,87.0
253.57,72.0
253.64,72.0
253.7,82.0
253.76,77.0
253.83,91.0
253.89,80.0
253.95,73.0
254.02,77.0
254.08,96.0
254.14,91.0
254.2,83.0
254.27,100.0
254.33,103.0
254.39,114.0
254.46,122.0
254.52,118.0
254.58,121.0
254.65,99.0
254.71,130.0
254.77,121.0
254.83,133.0
254.9,132.0
254.96,138.0
255.02,122.0
255.09,117.0
255.15,125.0
255.21,130.0
255.28,132.0
255.34,121.0
255.4,125.0
255.46,119.0
255.53,133.0
255.59,118.0
255.65,93.0
255.72,95.0
255.78,99.0
255.84,118.0
255.91,114.0
255.97,136.0
256.03,135.0
256.09,115.0
256.16,99.0
256.22,114.0
256.28,125.0
256.35,122.0
256.41,115.0
256.47,107.0
256.54,103.0
256.6,124.0
256.66,127.0
256.72,128.0
256.79,139.0
256.85,129.0
256.91,138.0
256.98,129.0
257.04,123.0
257.1,135.0
257.17,136.0
257.23,150.0
257.29,160.0
257.35,147.0
257.42,153.0
257.48,162.0
257.54,140.0
257.61,137.0
257.67,132.0
257.73,149.0
257.8,133.0
257.86,119.0
257.92,139.0
257.98,147.0
258.05,162.0
258.11,160.0
258.17,156.0
258.24,164.0
258.3,156.0
258.36,175.0
258.43,178.0
258.49,176.0
258.55,169.0
258.61,152.0
258.68,168.0
258.74,172.0
258.8,178.0
258.87,177.0
258.93,172.0
258.99,176.0
259.06,165.0
259.12,164.0
259.18,172.0
259.24,165.0
259.31,161.0
259.37,160.0
259.43,166.0
259.5,169.0
259.56,142.0
259.62,138.0
259.69,140.0
259.75,135.0
259.81,149.0
259.87,152.0
259.94,165.0
260.0,180.0
260.06,161.0
260.13,157.0
260.19,172.0
260.25,167.0
260.32,162.0
260.38,158.0
260.44,165.0
260.5,162.0
260.57,173.0
260.63,162.0
260.69,147.0
260.76,147.0
260.82,153.0
260.88,158.0
260.95,140.0
261.01,146.0
261.07,165.0
261.13,141.0
261.2,143.0
261.26,147.0
261.32,153.0
261.39,134.0
261.45,125.0
261.51,141.0
261.58,144.0
261.64,149.0
261.7,156.0
261.76,140.0
261.83,143.0
261.89,136.0
261.95,141.0
262.02,132.0
262.08,124.0
262.14,126.0
262.21,122.0
262.27,124.0
262.33,110.0
262.39,103.0
262.46,114.0
262.52,116.0
262.58,131.0
262.65,109.0
262.71,108.0
262.77,124.0
262.84,105.0
262.9,120.0
262.96,119.0
263.02,124.0
263.09,114.0
263.15,120.0
263.21,126.0
263.28,121.0
263.34,123.0
263.4,118.0
263.47,120.0
263.53,134.0
263.59,122.0
263.65,125.0
263.72,129.0
263.78,127.0
263.84,125.0
263.91,132.0
263.97,125.0
264.03,121.0
264.1,125.0
264.16,133.0
264.22,129.0
264.28,147.0
264.35,166.0
264.41,133.0
264.47,138.0
264.54,124.0
264.6,119.0
264.66,121.0
264.73,111.0
264.79,139.0
264.85,130.0
264.91,105.0
264.98,102.0
265.04,120.0
265.1,103.0
265.17,94.0
265.23,99.0
265.29,92.0
265.36,88.0
265.42,92.0
265.48,66.0
265.54,73.0
265.61,78.0
265.67,71.0
265.73,72.0
265.8,66.0
265.86,77.0
265.92,75.0
265.99,62.0
266.05,46.0
266.11,64.0
266.17,47.0
266.24,59.0
266.3,37.0
266.36,52.0
266.43,55.0
266.49,48.0
266.55,33.0
266.62,34.0
266.68,42.0
266.74,24.0
266.8,32.0
266.87,34.0
266.93,60.0
266.99,44.0
267.06,48.0
267.12,75.0
267.18,58.0
267.25,69.0
267.31,70.0
267.37,80.0
267.43,80.0
267.5,77.0
267.56,51.0
267.62,34.0
267.69,51.0
267.75,63.0
267.81,67.0
267.88,75.0
267.94,62.0
268.0,62.0
268.06,74.0
268.13,56.0
268.19,70.0
268.25,86.0
268.32,83.0
268.38,109.0
268.44,116.0
268.51,91.0
268.57,81.0
268.63,88.0
268.69,100.0
268.76,89.0
268.82,95.0
268.88,121.0
268.95,119.0
269.01,133.0
269.07,138.0
269.14,138.0
269.2,142.0
269.26,127.0
269.32,123.0
269.39,117.0
269.45,143.0
269.51,143.0
269.58,127.0
269.64,127.0
269.7,124.0
269.77,111.0
269.83,97.0
269.89,105.0
269.95,104.0
270.02,110.0
270.08,107.0
270.14,104.0
270.21,107.0
270.27,115.0
270.33,111.0
270.4,107.0
270.46,96.0
270.52,107.0
270.58,98.0
270.65,121.0
270.71,100.0
270.77,83.0
270.84,72.0
270.9,102.0
270.96,83.0
271.03,74.0
271.09,83.0
271.15,70.0
271.21,84.0
271.28,83.0
271.34,79.0
271.4,63.0
271.47,79.0
271.53,86.0
271.59,88.0
271.66,67.0
271.72,65.0
271.78,68.0
271.84,83.0
271.91,73.0
271.97,74.0
272.03,67.0
272.1,90.0
272.16,100.0
272.22,100.0
272.29,90.0
272.35,91.0
272.41,125.0
272.47,121.0
272.54,114.0
272.6,107.0
272.66,92.0
272.73,113.0
272.79,116.0
272.85,113.0
272.92,117.0
272.98,117.0
273.04,110.0
273.1,119.0
273.17,87.0
273.23,91.0
273.29,93.0
273.36,90.0
273.42,95.0
273.48,92.0
273.55,121.0
273.61,88.0
273.67,77.0
273.73,80.0
273.8,63.0
273.86,83.0
273.92,81.0
273.99,81.0
274.05,67.0
274.11,74.0
274.18,98.0
274.24,92.0
274.3,96.0
274.36,94.0
274.43,77.0
274.49,84.0
274.55,108.0
274.62,92.0
274.68,88.0
274.74,110.0
274.81,121.0
274.87,118.0
274.93,116.0
274.99,110.0
275.06,102.0
275.12,114.0
275.18,122.0
275.25,108.0
275.31,113.0
275.37,101.0
275.44,102.0
275.5,121.0
275.56,132.0
275.62,135.0
275.69,107.0
275.75,76.0
275.81,92.0
275.88,106.0
275.94,114.0
276.0,106.0
276.07,118.0
276.13,107.0
276.19,103.0
276.25,122.0
276.32,118.0
276.38,120.0
276.44,99.0
276.51,90.0
276.57,85.0
276.63,80.0
276.7,67.0
276.76,38.0
276.82,58.0
276.88,70.0
276.95,73.0
277.01,62.0
277.07,78.0
277.14,64.0
277.2,83.0
277.26,70.0
277.33,95.0
277.39,110.0
277.45,86.0
277.51,107.0
277.58,106.0
277.64,132.0
277.7,132.0
277.77,141.0
277.83,151.0
277.89,160.0
277.96,163.0
278.02,149.0
278.08,156.0
278.14,148.0
278.21,135.0
278.27,122.0
278.33,132.0
278.4,135.0
278.46,111.0
278.52,114.0
278.59,125.0
278.65,129.0
278.71,122.0
278.77,129.0
278.84,111.0
278.9,107.0
278.96,111.0
279.03,90.0
279.09,85.0
279.15,78.0
279.22,99.0
279.28,102.0
279.34,105.0
279.4,102.0
279.47,89.0
279.53,86.0
279.59,100.0
279.66,107.0
279.72,92.0
279.78,109.0
279.85,107.0
279.91,115.0
279.97,115.0
280.03,111.0
280.1,137.0
280.16,147.0
280.22,132.0
280.29,146.0
280.35,148.0
280.41,161.0
280.48,175.0
280.54,152.0
280.6,157.0
280.66,155.0
280.73,130.0
280.79,141.0
280.85,147.0
280.92,127.0
280.98,124.0
281.04,120.0
281.11,134.0
281.17,130.0
281.23,112.0
281.29,122.0
281.36,130.0
281.42,123.0
281.48,100.0
281.55,103.0
281.61,99.0
281.67,86.0
281.74,85.0
281.8,83.0
281.86,70.0
281.92,61.0
281.99,57.0
282.05,60.0
282.11,77.0
282.18,60.0
282.24,48.0
282.3,52.0
282.37,54.0
282.43,68.0
282.49,64.0
282.55,49.0
282.62,66.0
282.68,67.0
282.74,45.0
282.81,43.0
282.87,59.0
282.93,42.0
283.0,53.0
283.06,53.0
283.12,58.0
283.18,53.0
283.25,40.0
283.31,61.0
283.37,74.0
283.44,74.0
283.5,70.0
283.56,84.0
283.63,89.0
283.69,77.0
283.75,88.0
283.81,74.0
283.88,92.0
283.94,81.0
284.0,79.0
284.07,97.0
284.13,103.0
284.19,98.0
284.26,80.0
284.32,78.0
284.38,82.0
284.44,88.0
284.51,76.0
284.57,68.0
284.63,83.0
284.7,86.0
284.76,84.0
284.82,83.0
284.89,76.0
284.95,77.0
285.01,88.0
285.07,77.0
285.14,83.0
285.2,78.0
285.26,71.0
285.33,77.0
285.39,56.0
285.45,66.0
285.52,89.0
285.58,66.0
285.64,56.0
285.7,70.0
285.77,46.0
285.83,44.0
285.89,51.0
285.96,34.0
286.02,44.0
286.08,49.0
286.15,11.0
286.21,27.0
286.27,37.0
286.33,26.0
286.4,32.0
286.46,50.0
286.52,47.0
286.59,48.0
286.65,43.0
286.71,41.0
286.78,53.0
286.84,62.0
286.9,74.0
286.96,57.0
287.03,34.0
287.09,56.0
287.15,49.0
287.22,41.0
287.28,45.0
287.34,59.0
287.41,46.0
287.47,42.0
287.53,34.0
287.59,37.0
287.66,45.0
287.72,42.0
287.78,32.0
287.85,50.0
287.91,38.0
287.97,40.0
288.04,45.0
288.1,47.0
288.16,62.0
288.22,66.0
288.29,44.0
288.35,51.0
288.41,45.0
288.48,22.0
288.54,19.0
288.6,29.0
288.67,45.0
288.73,38.0
288.79,37.0
288.85,31.0
288.92,47.0
288.98,55.0
289.04,68.0
289.11,50.0
289.17,36.0
289.23,40.0
289.3,37.0
289.36,59.0
289.42,74.0
289.48,58.0
289.55,56.0
289.61,66.0
289.67,48.0
289.74,56.0
289.8,70.0
289.86,58.0
289.93,63.0
289.99,77.0
290.05,69.0
290.11,69.0
290.18,59.0
290.24,63.0
290.3,64.0
290.37,56.0
290.43,61.0
290.49,64.0
290.56,70.0
290.62,69.0
290.68,67.0
290.74,54.0
290.81,54.0
290.87,37.0
290.93,57.0
291.0,59.0
291.06,78.0
291.12,71.0
291.19,63.0
291.25,70.0
291.31,83.0
291.37,92.0
291.44,68.0
291.5,76.0
291.56,91.0
291.63,99.0
291.69,94.0
291.75,103.0
291.82,84.0
291.88,72.0
291.94,98.0
292.0,94.0
292.07,89.0
292.13,61.0
292.19,66.0
292.26,75.0
292.32,84.0
292.38,71.0
292.45,59.0
292.51,79.0
292.57,89.0
292.63,62.0
292.7,66.0
292.76,80.0
292.82,78.0
292.89,74.0
292.95,68.0
293.01,77.0
293.08,77.0
293.14,69.0
293.2,73.0
293.26,71.0
293.33,71.0
293.39,89.0
293.45,105.0
293.52,115.0
293.58,105.0
293.64,100.0
293.71,123.0
293.77,124.0
293.83,139.0
293.89,126.0
293.96,110.0
294.02,125.0
294.08,136.0
294.15,141.0
294.21,126.0
294.27,111.0
294.34,108.0
294.4,118.0
294.46,120.0
294.52,132.0
294.59,128.0
294.65,122.0
294.71,128.0
294.78,133.0
294.84,159.0
294.9,154.0
294.97,148.0
295.03,140.0
295.09,150.0
295.15,161.0
295.22,150.0
295.28,129.0
295.34,151.0
295.41,131.0
295.47,119.0
295.53,144.0
295.6,154.0
295.66,123.0
295.72,122.0
295.78,150.0
295.85,149.0
295.91,148.0
295.97,132.0
296.04,125.0
296.1,114.0
296.16,99.0
296.23,108.0
296.29,108.0
296.35,112.0
296.41,119.0
296.48,116.0
296.54,104.0
296.6,125.0
296.67,107.0
296.73,97.0
296.79,109.0
296.86,116.0
296.92,101.0
296.98,102.0
297.04,99.0
297.11,78.0
297.17,77.0
297.23,86.0
297.3,90.0
297.36,97.0
297.42,81.0
297.49,93.0
297.55,86.0
297.61,69.0
297.67,88.0
297.74,86.0
297.8,62.0
297.86,80.0
297.93,62.0
297.99,53.0
298.05,61.0
298.12,63.0
298.18,77.0
298.24,52.0
298.3,62.0
298.37,49.0
298.43,62.0
298.49,68.0
298.56,71.0
298.62,75.0
298.68,76.0
298.75,68.0
298.81,60.0
298.87,53.0
298.93,52.0
299.0,56.0
299.06,25.0
299.12,53.0
299.19,48.0
299.25,37.0
299.31,41.0
299.38,32.0
299.44,51.0
299.5,40.0
299.56,55.0
299.63,45.0
299.69,24.0
299.75,25.0
299.82,37.0
299.88,43.0
299.94,32.0
300.01,37.0
300.07,8.0
300.13,26.0
300.19,17.0
300.26,9.0
300.32,0.0
300.38,12.0
300.45,36.0
300.51,25.0
300.57,24.0
300.64,25.0
300.7,27.0
300.76,23.0
300.82,33.0
300.89,44.0
300.95,33.0
301.01,22.0
301.08,27.0
301.14,39.0
301.2,27.0
301.27,15.0
301.33,5.0
301.39,14.0
301.45,15.0
301.52,17.0
301.58,24.0
301.64,32.0
301.71,24.0
301.77,17.0
301.83,33.0
301.9,12.0
301.96,26.0
302.02,11.0
302.08,15.0
302.15,25.0
302.21,16.0
302.27,12.0
302.34,16.0
302.4,44.0
302.46,45.0
302.53,45.0
302.59,45.0
302.65,40.0
302.71,47.0
302.78,47.0
302.84,54.0
302.9,55.0
302.97,41.0
303.03,59.0
303.09,48.0
303.16,37.0
303.22,48.0
303.28,39.0
303.34,63.0
303.41,55.0
303.47,54.0
303.53,41.0
303.6,48.0
303.66,60.0
303.72,63.0
303.79,64.0
303.85,67.0
303.91,56.0
303.97,57.0
304.04,70.0
304.1,56.0
304.16,47.0
304.23,56.0
304.29,73.0
304.35,74.0
304.42,60.0
304.48,76.0
304.54,66.0
304.6,60.0
304.67,79.0
304.73,53.0
304.79,58.0
304.86,51.0
304.92,44.0
304.98,63.0
305.05,56.0
305.11,53.0
305.17,53.0
305.23,56.0
305.3,61.0
305.36,62.0
305.42,48.0
305.49,35.0
305.55,48.0
305.61,45.0
305.68,47.0
305.74,65.0
305.8,60.0
305.86,70.0
305.93,47.0
305.99,48.0
306.05,73.0
306.12,74.0
306.18,92.0
306.24,91.0
306.31,83.0
306.37,84.0
306.43,81.0
306.49,97.0
306.56,102.0
306.62,95.0
306.68,104.0
306.75,102.0
306.81,105.0
306.87,117.0
306.94,93.0
307.0,93.0
307.06,94.0
307.12,84.0
307.19,81.0
307.25,83.0
307.31,74.0
307.38,92.0
307.44,83.0
307.5,88.0
307.57,86.0
307.63,90.0
307.69,92.0
307.75,94.0
307.82,99.0
307.88,97.0
307.94,108.0
308.01,115.0
308.07,94.0
308.13,85.0
308.2,104.0
308.26,107.0
308.32,121.0
308.38,129.0
308.45,117.0
308.51,125.0
308.57,121.0
308.64,121.0
308.7,127.0
308.76,132.0
308.83,140.0
308.89,126.0
308.95,154.0
309.01,142.0
309.08,136.0
309.14,151.0
309.2,151.0
309.27,164.0
309.33,154.0
309.39,139.0
309.46,147.0
309.52,169.0
309.58,146.0
309.64,147.0
309.71,157.0
309.77,167.0
309.83,172.0
309.9,154.0
309.96,165.0
310.02,178.0
310.09,186.0
310.15,158.0
310.21,170.0
310.27,163.0
310.34,163.0
310.4,159.0
310.46,164.0
310.53,165.0
310.59,168.0
310.65,160.0
310.72,151.0
310.78,157.0
310.84,166.0
310.9,196.0
310.97,184.0
311.03,171.0
311.09,169.0
311.16,147.0
311.22,151.0
311.28,145.0
311.35,151.0
311.41,138.0
311.47,145.0
311.53,149.0
311.6,149.0
311.66,158.0
311.72,171.0
311.79,163.0
311.85,158.0
311.91,156.0
311.98,156.0
312.04,143.0
312.1,150.0
312.16,142.0
312.23,171.0
312.29,144.0
312.35,144.0
312.42,150.0
312.48,159.0
312.54,172.0
312.61,166.0
312.67,185.0
312.73,164.0
312.79,167.0
312.86,170.0
312.92,183.0
312.98,196.0
313.05,165.0
313.11,149.0
313.17,166.0
313.24,173.0
313.3,161.0
313.36,171.0
313.42,180.0
313.49,165.0
313.55,171.0
313.61,165.0
313.68,166.0
313.74,163.0
313.8,165.0
313.87,169.0
313.93,166.0
313.99,171.0
314.05,171.0
314.12,166.0
314.18,159.0
314.24,158.0
314.31,156.0
314.37,157.0
314.43,148.0
314.5,136.0
314.56,145.0
314.62,125.0
314.68,151.0
314.75,166.0
314.81,150.0
314.87,149.0
314.94,152.0
315.0,145.0
315.06,132.0
315.13,128.0
315.19,140.0
315.25,124.0
315.31,110.0
315.38,130.0
315.44,139.0
315.5,121.0
315.57,103.0
315.63,107.0
315.69,116.0
315.76,105.0
315.82,94.0
315.88,81.0
315.94,82.0
316.01,117.0
316.07,96.0
316.13,109.0
316.2,111.0
316.26,100.0
316.32,81.0
316.39,77.0
316.45,81.0
316.51,73.0
316.57,106.0
316.64,94.0
316.7,92.0
316.76,74.0
316.83,89.0
316.89,104.0
316.95,102.0
317.02,117.0
317.08,95.0
317.14,103.0
317.2,106.0
317.27,102.0
317.33,95.0
317.39,108.0
317.46,101.0
317.52,86.0
317.58,65.0
317.65,62.0
317.71,77.0
317.77,75.0
317.83,91.0
317.9,73.0
317.96,79.0
318.02,79.0
318.09,61.0
318.15,48.0
318.21,64.0
318.28,48.0
318.34,62.0
318.4,78.0
318.46,63.0
318.53,70.0
318.59,72.0
318.65,78.0
318.72,62.0
318.78,68.0
318.84,75.0
318.91,76.0
318.97,66.0
319.03,82.0
319.09,60.0
319.16,51.0
319.22,67.0
319.28,58.0
319.35,48.0
319.41,63.0
319.47,59.0
319.54,63.0
319.6,64.0
319.66,89.0
319.72,99.0
319.79,72.0
319.85,94.0
319.91,83.0
319.98,70.0
320.04,77.0
320.1,77.0
320.17,67.0
320.23,67.0
320.29,78.0
320.35,77.0
320.42,73.0
320.48,99.0
320.54,92.0
320.61,73.0
320.67,80.0
320.73,63.0
320.8,65.0
320.86,80.0
320.92,100.0
320.98,90.0
321.05,100.0
321.11,100.0
321.17,92.0
321.24,82.0
321.3,84.0
321.36,83.0
321.43,86.0
321.49,69.0
321.55,69.0
321.61,84.0
321.68,72.0
321.74,80.0
321.8,85.0
321.87,85.0
321.93,88.0
321.99,110.0
322.06,110.0
322.12,100.0
322.18,96.0
322.24,90.0
322.31,120.0
322.37,99.0
322.43,92.0
322.5,99.0
322.56,103.0
322.62,105.0
322.69,95.0
322.75,104.0
322.81,104.0
322.87,75.0
322.94,76.0
323.0,102.0
323.06,112.0
323.13,94.0
323.19,66.0
323.25,75.0
323.32,75.0
323.38,98.0
323.44,93.0
323.5,91.0
323.57,85.0
323.63,99.0
323.69,100.0
323.76,95.0
323.82,99.0
323.88,83.0
323.95,91.0
324.01,89.0
324.07,70.0
324.13,80.0
324.2,95.0
324.26,96.0
324.32,83.0
324.39,81.0
324.45,84.0
324.51,76.0
324.58,69.0
324.64,81.0
324.7,61.0
324.76,66.0
324.83,68.0
324.89,88.0
324.95,92.0
325.02,93.0
325.08,69.0
325.14,91.0
325.21,84.0
325.27,91.0
325.33,94.0
325.39,87.0
325.46,92.0
325.52,106.0
325.58,97.0
325.65,84.0
325.71,91.0
325.77,113.0
325.84,117.0
325.9,112.0
325.96,115.0
326.02,112.0
326.09,115.0
326.15,132.0
326.21,130.0
326.28,110.0
326.34,117.0
326.4,125.0
326.47,122.0
326.53,101.0
326.59,97.0
326.65,95.0
326.72,121.0
326.78,114.0
326.84,132.0
326.91,113.0
326.97,100.0
327.03,111.0
327.1,85.0
327.16,92.0
327.22,121.0
327.28,108.0
327.35,99.0
327.41,101.0
327.47,94.0
327.54,91.0
327.6,85.0
327.66,98.0
327.73,93.0
327.79,99.0
327.85,120.0
327.91,126.0
327.98,123.0
328.04,110.0
328.1,111.0
328.17,95.0
328.23,110.0
328.29,97.0
328.36,108.0
328.42,111.0
328.48,113.0
328.54,117.0
328.61,100.0
328.67,116.0
328.73,111.0
328.8,112.0
328.86,112.0
328.92,107.0
328.99,88.0
329.05,70.0
329.11,81.0
329.17,75.0
329.24,85.0
329.3,80.0
329.36,69.0
329.43,77.0
329.49,82.0
329.55,77.0
329.62,66.0
329.68,58.0
329.74,63.0
329.8,76.0
329.87,77.0
329.93,99.0
329.99,113.0
330.06,94.0
330.12,103.0
330.18,117.0
330.25,115.0
330.31,97.0
330.37,104.0
330.43,90.0
330.5,94.0
330.56,102.0
330.62,105.0
330.69,108.0
330.75,106.0
330.81,88.0
330.88,81.0
330.94,77.0
331.0,77.0
331.06,80.0
331.13,88.0
331.19,88.0
331.25,86.0
331.32,92.0
331.38,90.0
331.44,81.0
331.51,64.0
331.57,72.0
331.63,67.0
331.69,61.0
331.76,71.0
331.82,71.0
331.88,90.0
331.95,90.0
332.01,83.0
332.07,94.0
332.14,96.0
332.2,73.0
332.26,85.0
332.32,91.0
332.39,80.0
332.45,84.0
332.51,80.0
332.58,88.0
332.64,72.0
332.7,97.0
332.77,74.0
332.83,75.0
332.89,66.0
332.95,61.0
333.02,59.0
333.08,49.0
333.14,56.0
333.21,70.0
333.27,74.0
333.33,64.0
333.4,54.0
333.46,72.0
333.52,73.0
333.58,70.0
333.65,76.0
333.71,83.0
333.77,72.0
333.84,64.0
333.9,53.0
333.96,55.0
334.03,51.0
334.09,63.0
334.15,62.0
334.21,71.0
334.28,88.0
334.34,86.0
334.4,70.0
334.47,68.0
334.53,64.0
334.59,54.0
334.66,45.0
334.72,35.0
334.78,60.0
334.84,59.0
334.91,58.0
334.97,66.0
335.03,50.0
335.1,71.0
335.16,62.0
335.22,52.0
335.29,39.0
335.35,42.0
335.41,62.0
335.47,51.0
335.54,45.0
335.6,51.0
335.66,59.0
335.73,41.0
335.79,36.0
335.85,69.0
335.92,45.0
335.98,42.0
336.04,48.0
336.1,55.0
336.17,58.0
336.23,76.0
336.29,62.0
336.36,50.0
336.42,53.0
336.48,40.0
336.55,47.0
336.61,27.0
336.67,39.0
336.73,29.0
336.8,23.0
336.86,48.0
336.92,58.0
336.99,26.0
337.05,28.0
337.11,41.0
337.18,38.0
337.24,45.0
337.3,54.0
337.36,42.0
337.43,41.0
337.49,26.0
337.55,21.0
337.62,24.0
337.68,25.0
337.74,45.0
337.81,51.0
337.87,44.0
337.93,53.0
337.99,25.0
338.06,37.0
338.12,58.0
338.18,62.0
338.25,54.0
338.31,37.0
338.37,37.0
338.44,37.0
338.5,30.0
338.56,35.0
338.62,45.0
338.69,41.0
338.75,44.0
338.81,37.0
338.88,38.0
338.94,67.0
339.0,66.0
339.07,39.0
339.13,41.0
339.19,51.0
339.25,52.0
339.32,68.0
339.38,63.0
339.44,77.0
339.51,75.0
339.57,67.0
339.63,71.0
339.7,56.0
339.76,57.0
339.82,62.0
339.88,72.0
339.95,64.0
340.01,48.0
340.07,66.0
340.14,57.0
340.2,67.0
340.26,73.0
340.33,87.0
340.39,71.0
340.45,52.0
340.51,62.0
340.58,55.0
340.64,61.0
340.7,41.0
340.77,31.0
340.83,24.0
340.89,24.0
340.96,49.0
341.02,35.0
341.08,51.0
341.14,52.0
341.21,59.0
341.27,51.0
341.33,23.0
341.4,29.0
341.46,52.0
341.52,50.0
341.59,55.0
341.65,51.0
341.71,41.0
341.77,45.0
341.84,55.0
341.9,55.0
341.96,75.0
342.03,64.0
342.09,73.0
342.15,71.0
342.22,75.0
342.28,74.0
342.34,70.0
342.4,70.0
342.47,78.0
342.53,86.0
342.59,77.0
342.66,53.0
342.72,71.0
342.78,59.0
342.85,76.0
342.91,74.0
342.97,69.0
343.03,81.0
343.1,76.0
343.16,57.0
343.22,65.0
343.29,85.0
343.35,92.0
343.41,86.0
343.48,84.0
343.54,77.0
343.6,65.0
343.66,81.0
343.73,77.0
343.79,65.0
343.85,68.0
343.92,70.0
343.98,56.0
344.04,69.0
344.11,75.0
344.17,81.0
344.23,69.0
344.29,83.0
344.36,77.0
344.42,84.0
344.48,86.0
344.55,94.0
344.61,91.0
344.67,80.0
344.74,86.0
344.8,78.0
344.86,78.0
344.92,93.0
344.99,80.0
345.05,75.0
345.11,87.0
345.18,77.0
345.24,81.0
345.3,91.0
345.37,103.0
345.43,110.0
345.49,106.0
345.55,99.0
345.62,108.0
345.68,89.0
345.74,99.0
345.81,92.0
345.87,101.0
345.93,121.0
346.0,103.0
346.06,110.0
346.12,122.0
346.18,99.0
346.25,97.0
346.31,106.0
346.37,102.0
346.44,112.0
346.5,107.0
346.56,132.0
346.63,103.0
346.69,121.0
346.75,117.0
346.81,127.0
346.88,129.0
346.94,111.0
347.0,143.0
347.07,136.0
347.13,126.0
347.19,113.0
347.26,103.0
347.32,88.0
347.38,109.0
347.44,122.0
347.51,91.0
347.57,91.0
347.63,98.0
347.7,102.0
347.76,88.0
347.82,107.0
347.89,96.0
347.95,79.0
348.01,88.0
348.07,83.0
348.14,91.0
348.2,86.0
348.26,80.0
348.33,84.0
348.39,65.0
348.45,62.0
348.52,80.0
348.58,84.0
348.64,69.0
348.7,81.0
348.77,96.0
348.83,90.0
348.89,89.0
348.96,83.0
349.02,81.0
349.08,83.0
349.15,71.0
349.21,61.0
349.27,49.0
349.33,75.0
349.4,70.0
349.46,56.0
349.52,59.0
349.59,41.0
349.65,65.0
349.71,69.0
349.78,64.0
349.84,41.0
349.9,34.0
349.96,34.0
350.03,43.0
350.09,70.0
350.15,38.0
350.22,43.0
350.28,47.0
350.34,52.0
350.41,37.0
350.47,31.0
350.53,39.0
350.59,32.0
350.66,44.0
350.72,29.0
350.78,39.0
350.85,33.0
350.91,27.0
350.97,40.0
351.04,33.0
351.1,17.0
351.16,28.0
351.22,48.0
351.29,40.0
351.35,48.0
351.41,30.0
351.48,24.0
351.54,3.0
351.6,20.0
351.67,39.0
351.73,41.0
351.79,33.0
351.85,25.0
351.92,21.0
351.98,15.0
352.04,22.0
352.11,32.0
352.17,4.0
352.23,14.0
352.3,6.0
352.36,22.0
352.42,33.0
352.48,44.0
352.55,43.0
352.61,19.0
352.67,25.0
352.74,23.0
352.8,0.0
352.86,5.0
352.93,21.0
352.99,34.0
353.05,30.0
353.11,40.0
353.18,44.0
353.24,49.0
353.3,36.0
353.37,37.0
353.43,61.0
353.49,42.0
353.56,45.0
353.62,41.0
353.68,38.0
353.74,42.0
353.81,42.0
353.87,26.0
353.93,26.0
354.0,17.0
354.06,9.0
354.12,20.0
354.19,38.0
354.25,12.0
354.31,30.0
354.37,19.0
354.44,10.0
354.5,16.0
354.56,8.0
354.63,0.0
354.69,6.0
354.75,14.0
354.82,3.0
354.88,12.0
354.94,26.0
355.0,28.0
355.07,23.0
355.13,12.0
355.19,19.0
355.26,24.0
355.32,16.0
355.38,30.0
355.45,21.0
355.51,22.0
355.57,50.0
355.63,31.0
355.7,30.0
355.76,33.0
355.82,26.0
355.89,22.0
355.95,42.0
356.01,37.0
356.08,-1.0
356.14,26.0
356.2,31.0
356.26,27.0
356.33,39.0
356.39,18.0
356.45,38.0
356.52,40.0
356.58,36.0
356.64,35.0
356.71,38.0
356.77,29.0
356.83,40.0
356.89,62.0
356.96,47.0
357.02,43.0
357.08,27.0
357.15,53.0
357.21,38.0
357.27,54.0
357.34,51.0
357.4,59.0
357.46,57.0
357.52,36.0
357.59,23.0
357.65,25.0
357.71,42.0
357.78,33.0
357.84,42.0
357.9,47.0
357.97,48.0
358.03,58.0
358.09,58.0
358.15,59.0
358.22,64.0
358.28,57.0
358.34,72.0
358.41,81.0
358.47,93.0
358.53,82.0
358.6,88.0
358.66,97.0
358.72,83.0
358.78,86.0
358.85,95.0
358.91,78.0
358.97,87.0
359.04,86.0
359.1,87.0
359.16,92.0
359.23,97.0
359.29,96.0
359.35,102.0
359.41,96.0
359.48,107.0
359.54,115.0
359.6,116.0
359.67,102.0
359.73,106.0
359.79,126.0
359.86,96.0
359.92,90.0
359.98,113.0
360.04,109.0
360.11,116.0
360.17,100.0
360.23,98.0
360.3,101.0
360.36,113.0
360.42,107.0
360.49,107.0
360.55,91.0
360.61,75.0
360.67,77.0
360.74,83.0
360.8,102.0
360.86,97.0
360.93,107.0
360.99,113.0
361.05,118.0
361.12,115.0
361.18,135.0
361.24,144.0
361.3,123.0
361.37,144.0
361.43,132.0
361.49,151.0
361.56,149.0
361.62,144.0
361.68,146.0
361.75,157.0
361.81,176.0
361.87,172.0
361.93,161.0
362.0,156.0
362.06,167.0
362.12,174.0
362.19,165.0
362.25,176.0
362.31,162.0
362.38,151.0
362.44,153.0
362.5,160.0
362.56,161.0
362.63,145.0
362.69,149.0
362.75,140.0
362.82,151.0
362.88,146.0
362.94,140.0
363.01,163.0
363.07,161.0
363.13,144.0
363.19,151.0
363.26,153.0
363.32,166.0
363.38,158.0
363.45,160.0
363.51,141.0
363.57,165.0
363.64,173.0
363.7,177.0
363.76,185.0
363.82,162.0
363.89,163.0
363.95,171.0
364.01,182.0
364.08,163.0
364.14,178.0
364.2,187.0
364.27,186.0
364.33,179.0
364.39,186.0
364.45,186.0
364.52,192.0
364.58,199.0
364.64,200.0
364.71,190.0
364.77,187.0
364.83,182.0
364.9,188.0
364.96,184.0
365.02,196.0
365.08,189.0
365.15,193.0
365.21,190.0
365.27,190.0
365.34,195.0
365.4,168.0
365.46,173.0
365.53,166.0
365.59,164.0
365.65,166.0
365.71,161.0
365.78,142.0
365.84,131.0
365.9,125.0
365.97,109.0
366.03,93.0
366.09,128.0
366.16,115.0
366.22,113.0
366.28,113.0
366.34,108.0
366.41,124.0
366.47,124.0
366.53,133.0
366.6,116.0
366.66,116.0
366.72,118.0
366.79,105.0
366.85,119.0
366.91,138.0
366.97,140.0
367.04,139.0
367.1,149.0
367.16,143.0
367.23,139.0
367.29,143.0
367.35,118.0
367.42,139.0
367.48,155.0
367.54,135.0
367.6,131.0
367.67,124.0
367.73,123.0
367.79,122.0
367.86,109.0
367.92,149.0
367.98,144.0
368.05,130.0
368.11,131.0
368.17,124.0
368.23,113.0
368.3,112.0
368.36,123.0
368.42,131.0
368.49,138.0
368.55,139.0
368.61,124.0
368.68,119.0
368.74,117.0
368.8,118.0
368.86,120.0
368.93,113.0
368.99,109.0
369.05,131.0
369.12,108.0
369.18,111.0
369.24,110.0
369.31,106.0
369.37,120.0
369.43,110.0
369.49,113.0
369.56,112.0
369.62,102.0
369.68,92.0
369.75,91.0
369.81,87.0
369.87,80.0
369.94,76.0
370.0,98.0
370.06,107.0
370.12,100.0
370.19,99.0
370.25,109.0
370.31,106.0
370.38,87.0
370.44,85.0
370.5,108.0
370.57,94.0
370.63,100.0
370.69,106.0
370.75,128.0
370.82,121.0
370.88,123.0
370.94,117.0
371.01,112.0
371.07,97.0
371.13,84.0
371.2,83.0
371.26,88.0
371.32,67.0
371.38,70.0
371.45,92.0
371.51,83.0
371.57,39.0
371.64,67.0
371.7,83.0
371.76,81.0
371.83,97.0
371.89,80.0
371.95,79.0
372.01,73.0
372.08,97.0
372.14,83.0
372.2,54.0
372.27,77.0
372.33,81.0
372.39,70.0
372.46,86.0
372.52,76.0
372.58,80.0
372.64,84.0
372.71,113.0
372.77,100.0
372.83,105.0
372.9,94.0
372.96,81.0
373.02,77.0
373.09,95.0
373.15,99.0
373.21,94.0
373.27,108.0
373.34,115.0
373.4,108.0
373.46,95.0
373.53,106.0
373.59,110.0
373.65,117.0
373.72,127.0
373.78,103.0
373.84,81.0
373.9,79.0
373.97,87.0
374.03,84.0
374.09,79.0
374.16,88.0
374.22,81.0
374.28,101.0
374.35,84.0
374.41,88.0
374.47,98.0
374.53,103.0
374.6,108.0
374.66,102.0
374.72,100.0
374.79,106.0
374.85,91.0
374.91,93.0
374.98,98.0
375.04,96.0
375.1,110.0
375.16,107.0
375.23,97.0
375.29,83.0
375.35,111.0
375.42,104.0
375.48,96.0
375.54,92.0
375.61,84.0
375.67,83.0
375.73,96.0
375.79,88.0
375.86,80.0
375.92,88.0
375.98,97.0
376.05,100.0
376.11,99.0
376.17,113.0
376.24,116.0
376.3,105.0
376.36,78.0
376.42,105.0
376.49,88.0
376.55,94.0
376.61,116.0
376.68,121.0
376.74,120.0
376.8,124.0
376.87,118.0
376.93,121.0
376.99,127.0
377.05,123.0
377.12,111.0
377.18,102.0
377.24,119.0
377.31,98.0
377.37,119.0
377.43,114.0
377.5,108.0
377.56,99.0
377.62,102.0
377.68,105.0
377.75,98.0
377.81,99.0
377.87,105.0
377.94,112.0
378.0,99.0
378.06,94.0
378.13,91.0
378.19,84.0
378.25,102.0
378.31,100.0
378.38,97.0
378.44,102.0
378.5,91.0
378.57,104.0
378.63,89.0
378.69,97.0
378.76,72.0
378.82,63.0
378.88,92.0
378.94,106.0
379.01,105.0
379.07,104.0
379.13,105.0
379.2,99.0
379.26,99.0
379.32,87.0
379.39,72.0
379.45,84.0
379.51,97.0
379.57,103.0
379.64,78.0
379.7,85.0
379.76,106.0
379.83,95.0
379.89,102.0
379.95,104.0
380.02,103.0
380.08,101.0
380.14,94.0
380.2,105.0
380.27,105.0
380.33,112.0
380.39,127.0
380.46,99.0
380.52,99.0
380.58,121.0
380.65,107.0
380.71,121.0
380.77,114.0
380.83,110.0
380.9,95.0
380.96,102.0
381.02,105.0
381.09,95.0
381.15,116.0
381.21,109.0
381.28,113.0
381.34,106.0
381.4,108.0
381.46,132.0
381.53,122.0
381.59,109.0
381.65,112.0
381.72,123.0
381.78,125.0
381.84,107.0
381.91,117.0
381.97,109.0
382.03,99.0
382.09,102.0
382.16,101.0
382.22,85.0
382.28,89.0
382.35,91.0
382.41,93.0
382.47,89.0
382.54,68.0
382.6,61.0
382.66,71.0
382.72,74.0
382.79,84.0
382.85,59.0
382.91,72.0
382.98,84.0
383.04,51.0
383.1,36.0
383.17,60.0
383.23,61.0
383.29,48.0
383.35,40.0
383.42,33.0
383.48,44.0
383.54,56.0
383.61,60.0
383.67,74.0
383.73,80.0
383.8,86.0
383.86,81.0
383.92,91.0
383.98,77.0
384.05,61.0
384.11,53.0
384.17,62.0
384.24,69.0
384.3,62.0
384.36,54.0
384.43,55.0
384.49,53.0
384.55,62.0
384.61,70.0
384.68,57.0
384.74,55.0
384.8,36.0
384.87,47.0
384.93,40.0
384.99,63.0
385.06,58.0
385.12,49.0
385.18,51.0
385.24,45.0
385.31,45.0
385.37,60.0
385.43,69.0
385.5,84.0
385.56,74.0
385.62,48.0
385.69,55.0
385.75,57.0
385.81,51.0
385.87,50.0
385.94,61.0
386.0,53.0
386.06,42.0
386.13,38.0
386.19,43.0
386.25,41.0
386.32,53.0
386.38,61.0
386.44,34.0
386.5,31.0
386.57,21.0
386.63,8.0
386.69,28.0
386.76,37.0
386.82,17.0
386.88,25.0
386.95,51.0
387.01,49.0
387.07,53.0
387.13,59.0
387.2,45.0
387.26,66.0
387.32,63.0
387.39,58.0
387.45,55.0
387.51,80.0
387.58,61.0
387.64,56.0
387.7,61.0
387.76,70.0
387.83,68.0
387.89,58.0
387.95,64.0
388.02,72.0
388.08,68.0
388.14,72.0
388.21,50.0
388.27,59.0
388.33,40.0
388.39,66.0
388.46,57.0
388.52,37.0
388.58,27.0
388.65,42.0
388.71,39.0
388.77,26.0
388.84,36.0
388.9,25.0
388.96,36.0
389.02,50.0
389.09,46.0
389.15,48.0
389.21,35.0
389.28,8.0
389.34,5.0
389.4,11.0
389.47,3.0
389.53,16.0
389.59,14.0
389.65,-8.0
389.72,-1.0
389.78,3.0
389.84,-4.0
389.91,1.0
389.97,-10.0
390.03,16.0
390.1,20.0
390.16,24.0
390.22,-6.0
390.28,27.0
390.35,8.0
390.41,22.0
390.47,33.0
390.54,31.0
390.6,57.0
390.66,43.0
390.73,33.0
390.79,30.0
390.85,38.0
390.91,47.0
390.98,44.0
391.04,42.0
391.1,64.0
391.17,63.0
391.23,61.0
391.29,57.0
391.36,40.0
391.42,30.0
391.48,26.0
391.54,44.0
391.61,30.0
391.67,43.0
391.73,43.0
391.8,45.0
391.86,55.0
391.92,74.0
391.99,42.0
392.05,48.0
392.11,63.0
392.17,63.0
392.24,77.0
392.3,67.0
392.36,73.0
392.43,77.0
392.49,80.0
392.55,66.0
392.62,72.0
392.68,65.0
392.74,77.0
392.8,64.0
392.87,50.0
392.93,67.0
392.99,79.0
393.06,97.0
393.12,91.0
393.18,94.0
393.25,96.0
393.31,82.0
393.37,92.0
393.43,100.0
393.5,88.0
393.56,111.0
393.62,110.0
393.69,94.0
393.75,89.0
393.81,78.0
393.88,97.0
393.94,96.0
394.0,94.0
394.06,99.0
394.13,84.0
394.19,114.0
394.25,109.0
394.32,99.0
394.38,108.0
394.44,103.0
394.51,90.0
394.57,90.0
394.63,96.0
394.69,70.0
394.76,91.0
394.82,96.0
394.88,109.0
394.95,107.0
395.01,102.0
395.07,103.0
395.14,93.0
395.2,104.0
395.26,90.0
395.32,81.0
395.39,91.0
395.45,96.0
395.51,104.0
395.58,102.0
395.64,116.0
395.7,95.0
395.77,105.0
395.83,109.0
395.89,114.0
395.95,93.0
396.02,114.0
396.08,101.0
396.14,92.0
396.21,91.0
396.27,98.0
396.33,108.0
396.4,117.0
396.46,109.0
396.52,113.0
396.58,106.0
396.65,108.0
396.71,104.0
396.77,107.0
396.84,112.0
396.9,104.0
396.96,91.0
397.03,128.0
397.09,133.0
397.15,119.0
397.21,105.0
397.28,119.0
397.34,131.0
397.4,114.0
397.47,107.0
397.53,111.0
397.59,98.0
397.66,121.0
397.72,124.0
397.78,98.0
397.84,98.0
397.91,91.0
397.97,90.0
398.03,111.0
398.1,95.0
398.16,95.0
398.22,94.0
398.29,107.0
398.35,139.0
398.41,121.0
398.47,124.0
398.54,108.0
398.6,112.0
398.66,109.0
398.73,120.0
398.79,117.0
398.85,86.0
398.92,103.0
398.98,115.0
399.04,95.0
399.1,76.0
399.17,76.0
399.23,98.0
399.29,98.0
399.36,76.0
399.42,75.0
399.48,75.0
399.55,42.0
399.61,30.0
399.67,39.0
399.73,51.0
399.8,59.0
399.86,47.0
399.92,43.0
399.99,44.0
400.05,60.0
400.11,51.0
400.18,44.0
400.24,42.0
400.3,53.0
400.36,26.0
400.43,42.0
400.49,49.0
400.55,40.0
400.62,15.0
400.68,0.0
400.74,18.0
400.81,33.0
400.87,40.0
400.93,40.0
400.99,41.0
401.06,49.0
401.12,42.0
401.18,48.0
401.25,53.0
401.31,44.0
401.37,48.0
401.44,55.0
401.5,42.0
401.56,28.0
401.62,36.0
401.69,40.0
401.75,51.0
401.81,46.0
401.88,27.0
401.94,56.0
402.0,45.0
402.07,53.0
402.13,73.0
402.19,55.0
402.25,51.0
402.32,55.0
402.38,59.0
402.44,44.0
402.51,46.0
402.57,40.0
402.63,47.0
402.7,39.0
402.76,38.0
402.82,46.0
402.88,51.0
402.95,43.0
403.01,42.0
403.07,42.0
403.14,36.0
403.2,36.0
403.26,40.0
403.33,22.0
403.39,17.0
403.45,31.0
403.51,13.0
403.58,20.0
403.64,25.0
403.7,19.0
403.77,27.0
403.83,27.0
403.89,22.0
403.96,17.0
404.02,2.0
404.08,8.0
404.14,25.0
404.21,34.0
404.27,18.0
404.33,18.0
404.4,22.0
404.46,14.0
404.52,21.0
404.59,27.0
404.65,17.0
404.71,8.0
404.77,14.0
404.84,13.0
404.9,10.0
404.96,9.0
405.03,15.0
405.09,10.0
405.15,16.0
405.22,-2.0
405.28,27.0
405.34,25.0
405.4,18.0
405.47,24.0
405.53,24.0
405.59,29.0
405.66,9.0
405.72,17.0
405.78,12.0
405.85,20.0
405.91,18.0
405.97,-6.0
406.03,5.0
406.1,19.0
406.16,20.0
406.22,38.0
406.29,44.0
406.35,35.0
406.41,32.0
406.48,48.0
406.54,42.0
406.6,43.0
406.66,49.0
406.73,54.0
406.79,38.0
406.85,31.0
406.92,28.0
406.98,29.0
407.04,39.0
407.11,38.0
407.17,9.0
407.23,-3.0
407.29,19.0
407.36,33.0
407.42,38.0
407.48,22.0
407.55,31.0
407.61,31.0
407.67,31.0
407.74,23.0
407.8,16.0
407.86,14.0
407.92,-2.0
407.99,13.0
408.05,11.0
408.11,1.0
408.18,11.0
408.24,15.0
408.3,26.0
408.37,11.0
408.43,12.0
408.49,31.0
408.55,47.0
408.62,42.0
408.68,42.0
408.74,45.0
408.81,46.0
408.87,57.0
408.93,64.0
409.0,63.0
409.06,56.0
409.12,59.0
409.18,63.0
409.25,58.0
409.31,55.0
409.37,63.0
409.44,56.0
409.5,82.0
409.56,89.0
409.63,81.0
409.69,100.0
409.75,110.0
409.81,96.0
409.88,93.0
409.94,92.0
410.0,99.0
410.07,103.0
410.13,106.0
410.19,94.0
410.26,88.0
410.32,121.0
410.38,113.0
410.44,108.0
410.51,106.0
410.57,94.0
410.63,94.0
410.7,101.0
410.76,93.0
410.82,88.0
410.89,99.0
410.95,84.0
411.01,93.0
411.07,94.0
411.14,83.0
411.2,77.0
411.26,91.0
411.33,112.0
411.39,118.0
411.45,119.0
411.52,122.0
411.58,133.0
411.64,114.0
411.7,136.0
411.77,152.0
411.83,155.0
411.89,159.0
411.96,123.0
412.02,124.0
412.08,119.0
412.15,121.0
412.21,137.0
412.27,133.0
412.33,136.0
412.4,122.0
412.46,129.0
412.52,130.0
412.59,143.0
412.65,148.0
412.71,162.0
412.78,140.0
412.84,138.0
412.9,148.0
412.96,137.0
413.03,150.0
413.09,165.0
413.15,160.0
413.22,164.0
413.28,185.0
413.34,188.0
413.41,170.0
413.47,190.0
413.53,210.0
413.59,198.0
413.66,192.0
413.72,212.0
413.78,213.0
413.85,223.0
413.91,217.0
413.97,195.0
414.04,205.0
414.1,184.0
414.16,190.0
414.22,206.0
414.29,205.0
414.35,212.0
414.41,206.0
414.48,218.0
414.54,200.0
414.6,191.0
414.67,193.0
414.73,184.0
414.79,186.0
414.85,188.0
414.92,186.0
414.98,191.0
415.04,178.0
415.11,199.0
415.17,202.0
415.23,199.0
415.3,194.0
415.36,188.0
415.42,207.0
415.48,207.0
415.55,174.0
415.61,183.0
415.67,184.0
415.74,186.0
415.8,177.0
415.86,182.0
415.93,166.0
415.99,162.0
416.05,165.0
416.11,184.0
416.18,202.0
416.24,196.0
416.3,176.0
416.37,181.0
416.43,176.0
416.49,172.0
416.56,159.0
416.62,150.0
416.68,151.0
416.74,136.0
416.81,157.0
416.87,119.0
416.93,141.0
417.0,148.0
417.06,153.0
417.12,156.0
417.19,163.0
417.25,152.0
417.31,141.0
417.37,181.0
417.44,177.0
417.5,148.0
417.56,144.0
417.63,163.0
417.69,174.0
417.75,190.0
417.82,176.0
417.88,167.0
417.94,168.0
418.0,151.0
418.07,173.0
418.13,152.0
418.19,153.0
418.26,137.0
418.32,133.0
418.38,157.0
418.45,155.0
418.51,159.0
418.57,146.0
418.63,144.0
418.7,164.0
418.76,150.0
418.82,135.0
418.89,149.0
418.95,140.0
419.01,122.0
419.08,150.0
419.14,151.0
419.2,149.0
419.26,140.0
419.33,137.0
419.39,155.0
419.45,152.0
419.52,140.0
419.58,141.0
419.64,148.0
419.71,123.0
419.77,130.0
419.83,143.0
419.89,125.0
419.96,132.0
420.02,148.0
420.08,132.0
420.15,147.0
420.21,152.0
420.27,148.0
420.34,155.0
420.4,144.0
420.46,148.0
420.52,145.0
420.59,140.0
420.65,162.0
420.71,150.0
420.78,140.0
420.84,157.0
420.9,175.0
420.97,145.0
421.03,143.0
421.09,125.0
421.15,119.0
421.22,123.0
421.28,128.0
421.34,108.0
421.41,104.0
421.47,121.0
421.53,104.0
421.6,82.0
421.66,97.0
421.72,107.0
421.78,113.0
421.85,115.0
421.91,138.0
421.97,132.0
422.04,133.0
422.1,120.0
422.16,105.0
422.23,92.0
422.29,79.0
422.35,99.0
422.41,113.0
422.48,101.0
422.54,101.0
422.6,113.0
422.67,117.0
422.73,107.0
422.79,108.0
422.86,100.0
422.92,115.0
422.98,109.0
423.04,104.0
423.11,89.0
423.17,108.0
423.23,111.0
423.3,98.0
423.36,92.0
423.42,83.0
423.49,65.0
423.55,72.0
423.61,54.0
423.67,61.0
423.74,50.0
423.8,56.0
423.86,61.0
423.93,49.0
423.99,50.0
424.05,60.0
424.12,49.0
424.18,53.0
424.24,56.0
424.3,56.0
424.37,66.0
424.43,56.0
424.49,72.0
424.56,63.0
424.62,73.0
424.68,91.0
424.75,97.0
424.81,74.0
424.87,85.0
424.93,48.0
425.0,42.0
425.06,77.0
425.12,69.0
425.19,72.0
425.25,75.0
425.31,74.0
425.38,84.0
425.44,82.0
425.5,87.0
425.56,72.0
425.63,81.0
425.69,68.0
425.75,70.0
425.82,92.0
425.88,83.0
425.94,82.0
426.01,78.0
426.07,91.0
426.13,99.0
426.19,97.0
426.26,89.0
426.32,86.0
426.38,87.0
426.45,88.0
426.51,78.0
426.57,93.0
426.64,110.0
426.7,114.0
426.76,140.0
426.82,128.0
426.89,123.0
426.95,115.0
427.01,117.0
427.08,115.0
427.14,120.0
427.2,111.0
427.27,111.0
427.33,118.0
427.39,115.0
427.45,119.0
427.52,107.0
427.58,114.0
427.64,127.0
427.71,136.0
427.77,111.0
427.83,112.0
427.9,105.0
427.96,101.0
428.02,99.0
428.08,92.0
428.15,111.0
428.21,137.0
428.27,121.0
428.34,116.0
428.4,105.0
428.46,117.0
428.53,108.0
428.59,115.0
428.65,140.0
428.71,148.0
428.78,160.0
428.84,157.0
428.9,138.0
428.97,152.0
429.03,162.0
429.09,138.0
429.16,151.0
429.22,161.0
429.28,166.0
429.34,158.0
429.41,148.0
429.47,144.0
429.53,133.0
429.6,125.0
429.66,132.0
429.72,128.0
429.79,140.0
429.85,153.0
429.91,137.0
429.97,116.0
430.04,116.0
430.1,138.0
430.16,121.0
430.23,129.0
430.29,125.0
430.35,110.0
430.42,106.0
430.48,132.0
430.54,112.0
430.6,137.0
430.67,139.0
430.73,115.0
430.79,108.0
430.86,116.0
430.92,112.0
430.98,101.0
431.05,111.0
431.11,122.0
431.17,99.0
431.23,118.0
431.3,124.0
431.36,146.0
431.42,114.0
431.49,111.0
431.55,154.0
431.61,146.0
431.68,122.0
431.74,108.0
431.8,132.0
431.86,118.0
431.93,114.0
431.99,123.0
432.05,129.0
432.12,121.0
432.18,117.0
432.24,103.0
432.31,114.0
432.37,117.0
432.43,115.0
432.49,91.0
432.56,93.0
432.62,108.0
432.68,108.0
432.75,104.0
432.81,121.0
432.87,101.0
432.94,88.0
433.0,95.0
433.06,91.0
433.12,79.0
433.19,80.0
433.25,78.0
433.31,75.0
433.38,86.0
433.44,81.0
433.5,90.0
433.57,76.0
433.63,70.0
433.69,91.0
433.75,58.0
433.82,68.0
433.88,73.0
433.94,71.0
434.01,64.0
434.07,61.0
434.13,78.0
434.2,78.0
434.26,67.0
434.32,44.0
434.38,71.0
434.45,63.0
434.51,64.0
434.57,64.0
434.64,61.0
434.7,59.0
434.76,59.0
434.83,65.0
434.89,58.0
434.95,42.0
435.01,65.0
435.08,66.0
435.14,71.0
435.2,79.0
435.27,79.0
435.33,82.0
435.39,82.0
435.46,41.0
435.52,58.0
435.58,63.0
435.64,61.0
435.71,64.0
435.77,66.0
435.83,64.0
435.9,72.0
435.96,75.0
436.02,67.0
436.09,67.0
436.15,94.0
436.21,89.0
436.27,74.0
436.34,65.0
436.4,56.0
436.46,74.0
436.53,67.0
436.59,81.0
436.65,67.0
436.72,66.0
436.78,65.0
436.84,56.0
436.9,79.0
436.97,76.0
437.03,66.0
437.09,60.0
437.16,72.0
437.22,76.0
437.28,71.0
437.35,73.0
437.41,69.0
437.47,67.0
437.53,63.0
437.6,85.0
437.66,64.0
437.72,67.0
437.79,53.0
437.85,53.0
437.91,56.0
437.98,34.0
438.04,52.0
438.1,38.0
438.16,57.0
438.23,61.0
438.29,45.0
438.35,60.0
438.42,63.0
438.48,49.0
438.54,46.0
438.61,47.0
438.67,53.0
438.73,46.0
438.79,36.0
438.86,37.0
438.92,49.0
438.98,61.0
439.05,42.0
439.11,49.0
439.17,73.0
439.24,33.0
439.3,39.0
439.36,35.0
439.42,25.0
439.49,28.0
439.55,51.0
439.61,53.0
439.68,45.0
439.74,61.0
439.8,58.0
439.87,46.0
439.93,37.0
439.99,36.0
440.05,33.0
440.12,30.0
440.18,41.0
440.24,36.0
440.31,56.0
440.37,52.0
440.43,55.0
440.5,52.0
440.56,47.0
440.62,53.0
440.68,71.0
440.75,66.0
440.81,46.0
440.87,52.0
440.94,43.0
441.0,45.0
441.06,34.0
441.13,27.0
441.19,38.0
441.25,32.0
441.31,29.0
441.38,30.0
441.44,32.0
441.5,28.0
441.57,41.0
441.63,40.0
441.69,25.0
441.76,52.0
441.82,38.0
441.88,33.0
441.94,58.0
442.01,41.0
442.07,52.0
442.13,36.0
442.2,38.0
442.26,46.0
442.32,46.0
442.39,31.0
442.45,72.0
442.51,81.0
442.57,69.0
442.64,86.0
442.7,80.0
442.76,72.0
442.83,69.0
442.89,77.0
442.95,96.0
443.02,86.0
443.08,84.0
443.14,88.0
443.2,85.0
443.27,75.0
443.33,76.0
443.39,71.0
443.46,83.0
443.52,99.0
443.58,106.0
443.65,99.0
443.71,92.0
443.77,94.0
443.83,114.0
443.9,111.0
443.96,112.0
444.02,112.0
444.09,111.0
444.15,105.0
444.21,100.0
444.28,117.0
444.34,124.0
444.4,133.0
444.46,112.0
444.53,121.0
444.59,125.0
444.65,118.0
444.72,123.0
444.78,113.0
444.84,110.0
444.91,125.0
444.97,121.0
445.03,114.0
445.09,109.0
445.16,94.0
445.22,101.0
445.28,133.0
445.35,126.0
445.41,124.0
445.47,136.0
445.54,143.0
445.6,132.0
445.66,162.0
445.72,153.0
445.79,148.0
445.85,158.0
445.91,167.0
445.98,150.0
446.04,165.0
446.1,188.0
446.17,184.0
446.23,179.0
446.29,168.0
446.35,152.0
446.42,158.0
446.48,155.0
446.54,163.0
446.61,183.0
446.67,173.0
446.73,170.0
446.8,166.0
446.86,168.0
446.92,167.0
446.98,166.0
447.05,162.0
447.11,155.0
447.17,148.0
447.24,173.0
447.3,167.0
447.36,163.0
447.43,158.0
447.49,162.0
447.55,160.0
447.61,152.0
447.68,169.0
447.74,168.0
447.8,153.0
447.87,153.0
447.93,144.0
447.99,144.0
448.06,163.0
448.12,160.0
448.18,144.0
448.24,143.0
448.31,153.0
448.37,144.0
448.43,148.0
448.5,134.0
448.56,127.0
448.62,127.0
448.69,117.0
448.75,116.0
448.81,119.0
448.87,125.0
448.94,120.0
449.0,124.0
449.06,116.0
449.13,111.0
449.19,134.0
449.25,123.0
449.32,114.0
449.38,100.0
449.44,114.0
449.5,102.0
449.57,91.0
449.63,95.0
449.69,94.0
449.76,107.0
449.82,100.0
449.88,90.0
449.95,66.0
450.01,82.0
450.07,89.0
450.13,88.0
450.2,93.0
450.26,81.0
450.32,78.0
450.39,79.0
450.45,88.0
450.51,80.0
450.58,82.0
450.64,62.0
450.7,63.0
450.76,60.0
450.83,53.0
450.89,61.0
450.95,58.0
451.02,58.0
451.08,95.0
451.14,69.0
451.21,44.0
451.27,63.0
451.33,64.0
451.39,71.0
451.46,46.0
451.52,45.0
451.58,58.0
451.65,66.0
451.71,52.0
451.77,57.0
451.84,53.0
451.9,33.0
451.96,38.0
452.02,39.0
452.09,42.0
452.15,42.0
452.21,42.0
452.28,41.0
452.34,50.0
452.4,47.0
452.47,27.0
452.53,29.0
452.59,28.0
452.65,41.0
452.72,31.0
452.78,22.0
452.84,39.0
452.91,40.0
452.97,33.0
453.03,46.0
453.1,52.0
453.16,49.0
453.22,65.0
453.28,59.0
453.35,42.0
453.41,44.0
453.47,37.0
453.54,30.0
453.6,19.0
453.66,8.0
453.73,18.0
453.79,52.0
453.85,33.0
453.91,33.0
453.98,35.0
454.04,49.0
454.1,56.0
454.17,31.0
454.23,60.0
454.29,46.0
454.36,39.0
454.42,41.0
454.48,25.0
454.54,30.0
454.61,19.0
454.67,-1.0
454.73,19.0
454.8,24.0
454.86,11.0
454.92,14.0
454.99,20.0
455.05,25.0
455.11,8.0
455.17,-12.0
455.24,2.0
455.3,7.0
455.36,-3.0
455.43,-13.0
455.49,-6.0
455.55,-3.0
455.62,1.0
455.68,20.0
455.74,5.0
455.8,11.0
455.87,23.0
455.93,31.0
455.99,3.0
456.06,14.0
456.12,7.0
456.18,11.0
456.25,14.0
456.31,-28.0
456.37,-11.0
456.43,11.0
456.5,-11.0
456.56,-15.0
456.62,9.0
456.69,-15.0
456.75,-17.0
456.81,-2.0
456.88,2.0
456.94,-10.0
457.0,-20.0
457.06,-1.0
457.13,-9.0
457.19,0.0
457.25,2.0
457.32,-16.0
457.38,-7.0
457.44,-8.0
457.51,-8.0
457.57,-10.0
457.63,-18.0
457.69,4.0
457.76,0.0
457.82,-4.0
457.88,-15.0
457.95,-5.0
458.01,14.0
458.07,-12.0
458.14,14.0
458.2,0.0
458.26,-2.0
458.32,-6.0
458.39,-18.0
458.45,-1.0
458.51,-5.0
458.58,-6.0
458.64,4.0
458.7,9.0
458.77,6.0
458.83,1.0
458.89,10.0
458.95,14.0
459.02,0.0
459.08,-18.0
459.14,-22.0
459.21,-13.0
459.27,12.0
459.33,9.0
459.4,1.0
459.46,8.0
459.52,22.0
459.58,21.0
459.65,13.0
459.71,-1.0
459.77,-13.0
459.84,9.0
459.9,5.0
459.96,2.0
460.03,1.0
460.09,3.0
460.15,16.0
460.21,16.0
460.28,29.0
460.34,32.0
460.4,28.0
460.47,40.0
460.53,33.0
460.59,49.0
460.66,42.0
460.72,54.0
460.78,48.0
460.84,66.0
460.91,50.0
460.97,62.0
461.03,82.0
461.1,83.0
461.16,65.0
461.22,64.0
461.29,78.0
461.35,74.0
461.41,71.0
461.47,82.0
461.54,94.0
461.6,95.0
461.66,107.0
461.73,103.0
461.79,97.0
461.85,95.0
461.92,85.0
461.98,128.0
462.04,129.0
462.1,126.0
462.17,127.0
462.23,122.0
462.29,119.0
462.36,119.0
462.42,120.0
462.48,126.0
462.55,130.0
462.61,133.0
462.67,148.0
462.73,139.0
462.8,139.0
462.86,129.0
462.92,123.0
462.99,128.0
463.05,133.0
463.11,152.0
463.18,148.0
463.24,157.0
463.3,135.0
463.36,148.0
463.43,146.0
463.49,148.0
463.55,139.0
463.62,136.0
463.68,149.0
463.74,153.0
463.81,151.0
463.87,151.0
463.93,163.0
463.99,137.0
464.06,133.0
464.12,150.0
464.18,147.0
464.25,141.0
464.31,156.0
464.37,170.0
464.44,153.0
464.5,156.0
464.56,178.0
464.62,209.0
464.69,175.0
464.75,168.0
464.81,171.0
464.88,177.0
464.94,185.0
465.0,187.0
465.07,175.0
465.13,170.0
465.19,202.0
465.25,195.0
465.32,197.0
465.38,203.0
465.44,211.0
465.51,224.0
465.57,227.0
465.63,197.0
465.7,214.0
465.76,234.0
465.82,224.0
465.88,228.0
465.95,218.0
466.01,214.0
466.07,211.0
466.14,194.0
466.2,188.0
466.26,197.0
466.33,189.0
466.39,214.0
466.45,216.0
466.51,187.0
466.58,192.0
466.64,210.0
466.7,193.0
466.77,181.0
466.83,193.0
466.89,197.0
466.96,206.0
467.02,171.0
467.08,147.0
467.14,164.0
467.21,175.0
467.27,154.0
467.33,143.0
467.4,153.0
467.46,141.0
467.52,119.0
467.59,125.0
467.65,116.0
467.71,118.0
467.77,122.0
467.84,142.0
467.9,151.0
467.96,134.0
468.03,137.0
468.09,128.0
468.15,146.0
468.22,141.0
468.28,155.0
468.34,161.0
468.4,153.0
468.47,148.0
468.53,135.0
468.59,139.0
468.66,153.0
468.72,148.0
468.78,170.0
468.85,178.0
468.91,169.0
468.97,178.0
469.03,177.0
469.1,189.0
469.16,176.0
469.22,172.0
469.29,180.0
469.35,170.0
469.41,169.0
469.48,166.0
469.54,157.0
469.6,167.0
469.66,152.0
469.73,161.0
469.79,182.0
469.85,177.0
469.92,176.0
469.98,161.0
470.04,137.0
470.11,138.0
470.17,157.0
470.23,166.0
470.29,152.0
470.36,163.0
470.42,166.0
470.48,163.0
470.55,166.0
470.61,145.0
470.67,154.0
470.74,144.0
470.8,152.0
470.86,144.0
470.92,145.0
470.99,141.0
471.05,127.0
471.11,155.0
471.18,157.0
471.24,149.0
471.3,147.0
471.37,134.0
471.43,138.0
471.49,133.0
471.55,121.0
471.62,134.0
471.68,148.0
471.74,131.0
471.81,117.0
471.87,115.0
471.93,108.0
472.0,107.0
472.06,96.0
472.12,89.0
472.18,115.0
472.25,115.0
472.31,119.0
472.37,115.0
472.44,129.0
472.5,134.0
472.56,123.0
472.63,116.0
472.69,121.0
472.75,108.0
472.81,98.0
472.88,98.0
472.94,119.0
473.0,125.0
473.07,117.0
473.13,113.0
473.19,109.0
473.26,105.0
473.32,101.0
473.38,112.0
473.44,92.0
473.51,100.0
473.57,111.0
473.63,119.0
473.7,106.0
473.76,92.0
473.82,84.0
473.89,78.0
473.95,82.0
474.01,75.0
474.07,70.0
474.14,86.0
474.2,60.0
474.26,71.0
474.33,75.0
474.39,74.0
474.45,79.0
474.52,86.0
474.58,67.0
474.64,81.0
474.7,63.0
474.77,63.0
474.83,66.0
474.89,63.0
474.96,67.0
475.02,70.0
475.08,56.0
475.15,65.0
475.21,47.0
475.27,53.0
475.33,62.0
475.4,52.0
475.46,48.0
475.52,60.0
475.59,52.0
475.65,47.0
475.71,81.0
475.78,77.0
475.84,62.0
475.9,68.0
475.96,88.0
476.03,78.0
476.09,76.0
476.15,64.0
476.22,82.0
476.28,74.0
476.34,73.0
476.41,67.0
476.47,47.0
476.53,65.0
476.59,60.0
476.66,85.0
476.72,79.0
476.78,73.0
476.85,81.0
476.91,68.0
476.97,93.0
477.04,100.0
477.1,98.0
477.16,75.0
477.22,67.0
477.29,71.0
477.35,90.0
477.41,96.0
477.48,90.0
477.54,86.0
477.6,72.0
477.67,96.0
477.73,95.0
477.79,57.0
477.85,70.0
477.92,75.0
477.98,85.0
478.04,100.0
478.11,107.0
478.17,114.0
478.23,128.0
478.3,100.0
478.36,107.0
478.42,103.0
478.48,104.0
478.55,115.0
478.61,113.0
478.67,117.0
478.74,119.0
478.8,139.0
478.86,135.0
478.93,119.0
478.99,111.0
479.05,115.0
479.11,111.0
479.18,135.0
479.24,99.0
479.3,109.0
479.37,91.0
479.43,110.0
479.49,111.0
479.56,108.0
479.62,119.0
479.68,120.0
479.74,127.0
479.81,146.0
479.87,144.0
479.93,132.0
480.0,141.0
480.06,145.0
480.12,153.0
480.19,154.0
480.25,149.0
480.31,155.0
480.37,154.0
480.44,161.0
480.5,161.0
480.56,159.0
480.63,163.0
480.69,159.0
480.75,163.0
480.82,164.0
480.88,186.0
480.94,184.0
481.0,169.0
481.07,190.0
481.13,183.0
481.19,189.0
481.26,185.0
481.32,175.0
481.38,210.0
481.45,191.0
481.51,188.0
481.57,184.0
481.63,169.0
481.7,188.0
481.76,185.0
481.82,176.0
481.89,177.0
481.95,175.0
482.01,156.0
482.08,161.0
482.14,162.0
482.2,169.0
482.26,162.0
482.33,166.0
482.39,165.0
482.45,138.0
482.52,149.0
482.58,148.0
482.64,162.0
482.71,160.0
482.77,146.0
482.83,142.0
482.89,123.0
482.96,124.0
483.02,119.0
483.08,122.0
483.15,132.0
483.21,137.0
483.27,144.0
483.34,119.0
483.4,124.0
483.46,118.0
483.52,117.0
483.59,121.0
483.65,112.0
483.71,112.0
483.78,122.0
483.84,111.0
483.9,101.0
483.97,101.0
484.03,90.0
484.09,85.0
484.15,98.0
484.22,93.0
484.28,111.0
484.34,108.0
484.41,103.0
484.47,121.0
484.53,106.0
484.6,98.0
484.66,100.0
484.72,94.0
484.78,90.0
484.85,95.0
484.91,96.0
484.97,109.0
485.04,131.0
485.1,125.0
485.16,129.0
485.23,125.0
485.29,104.0
485.35,93.0
485.41,98.0
485.48,98.0
485.54,117.0
485.6,106.0
485.67,120.0
485.73,114.0
485.79,93.0
485.86,98.0
485.92,87.0
485.98,102.0
486.04,91.0
486.11,80.0
486.17,92.0
486.23,85.0
486.3,82.0
486.36,79.0
486.42,79.0
486.49,100.0
486.55,108.0
486.61,102.0
486.67,102.0
486.74,90.0
486.8,103.0
486.86,95.0
486.93,107.0
486.99,122.0
487.05,101.0
487.12,113.0
487.18,103.0
487.24,82.0
487.3,92.0
487.37,115.0
487.43,92.0
487.49,100.0
487.56,95.0
487.62,93.0
487.68,102.0
487.75,84.0
487.81,114.0
487.87,129.0
487.93,102.0
488.0,109.0
488.06,115.0
488.12,109.0
488.19,101.0
488.25,87.0
488.31,86.0
488.38,87.0
488.44,68.0
488.5,63.0
488.56,83.0
488.63,71.0
488.69,39.0
488.75,36.0
488.82,29.0
488.88,33.0
488.94,41.0
489.01,56.0
489.07,29.0
489.13,57.0
489.19,31.0
489.26,18.0
489.32,21.0
489.38,19.0
489.45,32.0
489.51,60.0
489.57,42.0
489.64,56.0
489.7,35.0
489.76,59.0
489.82,38.0
489.89,31.0
489.95,24.0
490.01,16.0
490.08,40.0
490.14,39.0
490.2,32.0
490.27,27.0
490.33,18.0
490.39,5.0
490.45,5.0
490.52,7.0
490.58,31.0
490.64,12.0
490.71,8.0
490.77,12.0
490.83,13.0
490.9,5.0
490.96,-4.0
491.02,5.0
491.08,4.0
491.15,26.0
491.21,21.0
491.27,1.0
491.34,2.0
491.4,-6.0
491.46,22.0
491.53,35.0
491.59,29.0
491.65,53.0
491.71,46.0
491.78,29.0
491.84,43.0
491.9,57.0
491.97,59.0
492.03,49.0
492.09,52.0
492.16,34.0
492.22,71.0
492.28,60.0
492.34,53.0
492.41,55.0
492.47,35.0
492.53,49.0
492.6,50.0
492.66,34.0
492.72,51.0
492.79,35.0
492.85,35.0
492.91,16.0
492.97,28.0
493.04,34.0
493.1,29.0
493.16,41.0
493.23,33.0
493.29,44.0
493.35,37.0
493.42,34.0
493.48,46.0
493.54,65.0
493.6,71.0
493.67,59.0
493.73,59.0
493.79,54.0
493.86,65.0
493.92,59.0
493.98,74.0
494.05,52.0
494.11,44.0
494.17,55.0
494.23,62.0
494.3,38.0
494.36,50.0
494.42,62.0
494.49,44.0
494.55,40.0
494.61,62.0
494.68,66.0
494.74,73.0
494.8,69.0
494.86,62.0
494.93,79.0
494.99,63.0
495.05,68.0
495.12,82.0
495.18,102.0
495.24,84.0
495.31,77.0
495.37,104.0
495.43,95.0
495.49,95.0
495.56,114.0
495.62,121.0
495.68,128.0
495.75,139.0
495.81,131.0
495.87,121.0
495.94,145.0
496.0,150.0
496.06,148.0
496.12,141.0
496.19,145.0
496.25,140.0
496.31,153.0
496.38,180.0
496.44,158.0
496.5,148.0
496.57,142.0
496.63,118.0
496.69,124.0
496.75,117.0
496.82,124.0
496.88,120.0
496.94,141.0
497.01,130.0
497.07,132.0
497.13,131.0
497.2,139.0
497.26,139.0
497.32,143.0
497.38,145.0
497.45,141.0
497.51,162.0
497.57,165.0
497.64,170.0
497.7,170.0
497.76,179.0
497.83,165.0
497.89,169.0
497.95,164.0
498.01,165.0
498.08,166.0
498.14,183.0
498.2,181.0
498.27,176.0
498.33,192.0
498.39,177.0
498.46,172.0
498.52,159.0
498.58,173.0
498.64,172.0
498.71,171.0
498.77,177.0
498.83,150.0
498.9,159.0
498.96,206.0
499.02,172.0
499.09,165.0
499.15,153.0
499.21,158.0
499.27,163.0
499.34,147.0
499.4,150.0
499.46,153.0
499.53,152.0
499.59,157.0
499.65,147.0
499.72,153.0
499.78,162.0
499.84,165.0
499.9,160.0
499.97,156.0
500.03,143.0
500.09,132.0
500.16,128.0
500.22,138.0
500.28,122.0
500.35,133.0
500.41,141.0
500.47,137.0
500.53,144.0
500.6,129.0
500.66,123.0
500.72,131.0
500.79,124.0
500.85,123.0
500.91,107.0
500.98,103.0
501.04,96.0
501.1,118.0
501.16,104.0
501.23,102.0
501.29,105.0
501.35,120.0
501.42,122.0
501.48,96.0
501.54,101.0
501.61,111.0
501.67,106.0
501.73,143.0
501.79,122.0
501.86,118.0
501.92,113.0
501.98,106.0
502.05,101.0
502.11,101.0
502.17,120.0
502.24,121.0
502.3,120.0
502.36,125.0
502.42,127.0
502.49,137.0
502.55,128.0
502.61,132.0
502.68,162.0
502.74,160.0
502.8,160.0
502.87,141.0
502.93,161.0
502.99,145.0
503.05,136.0
503.12,127.0
503.18,139.0
503.24,143.0
503.31,124.0
503.37,130.0
503.43,133.0
503.5,129.0
503.56,134.0
503.62,148.0
503.68,163.0
503.75,143.0
503.81,134.0
503.87,139.0
503.94,144.0
504.0,137.0
504.06,118.0
504.13,120.0
504.19,119.0
504.25,114.0
504.31,113.0
504.38,106.0
504.44,114.0
504.5,96.0
504.57,112.0
504.63,115.0
504.69,133.0
504.76,112.0
504.82,89.0
504.88,113.0
504.94,121.0
505.01,104.0
505.07,101.0
505.13,97.0
505.2,101.0
505.26,93.0
505.32,98.0
505.39,93.0
505.45,99.0
505.51,114.0
505.57,96.0
505.64,104.0
505.7,104.0
505.76,101.0
505.83,95.0
505.89,93.0
505.95,94.0
506.02,85.0
506.08,76.0
506.14,74.0
506.2,84.0
506.27,77.0
506.33,75.0
506.39,98.0
506.46,98.0
506.52,75.0
506.58,77.0
506.65,69.0
506.71,62.0
506.77,74.0
506.83,69.0
506.9,78.0
506.96,98.0
507.02,93.0
507.09,97.0
507.15,93.0
507.21,97.0
507.28,88.0
507.34,96.0
507.4,93.0
507.46,84.0
507.53,67.0
507.59,67.0
507.65,90.0
507.72,74.0
507.78,58.0
507.84,42.0
507.91,45.0
507.97,62.0
508.03,38.0
508.09,19.0
508.16,31.0
508.22,38.0
508.28,34.0
508.35,35.0
508.41,36.0
508.47,36.0
508.54,20.0
508.6,34.0
508.66,37.0
508.72,32.0
508.79,36.0
508.85,17.0
508.91,19.0
508.98,30.0
509.04,26.0
509.1,11.0
509.17,15.0
509.23,29.0
509.29,23.0
509.35,55.0
509.42,38.0
509.48,33.0
509.54,50.0
509.61,50.0
509.67,47.0
509.73,40.0
509.8,50.0
509.86,44.0
509.92,53.0
509.98,51.0
510.05,32.0
510.11,56.0
510.17,51.0
510.24,59.0
510.3,52.0
510.36,64.0
510.43,49.0
510.49,49.0
510.55,66.0
510.61,62.0
510.68,56.0
510.74,47.0
510.8,55.0
510.87,48.0
510.93,52.0
510.99,63.0
511.06,64.0
511.12,68.0
511.18,58.0
511.24,63.0
511.31,66.0
511.37,64.0
511.43,71.0
511.5,51.0
511.56,60.0
511.62,67.0
511.69,66.0
511.75,81.0
511.81,72.0
511.87,99.0
511.94,110.0
512.0,119.0
512.06,106.0
512.13,75.0
512.19,96.0
512.25,105.0
512.32,133.0
512.38,119.0
512.44,115.0
512.5,128.0
512.57,120.0
512.63,109.0
512.69,117.0
512.76,113.0
512.82,117.0
512.88,115.0
512.95,133.0
513.01,127.0
513.07,118.0
513.13,132.0
513.2,137.0
513.26,146.0
513.32,142.0
513.39,98.0
513.45,107.0
513.51,93.0
513.58,107.0
513.64,125.0
513.7,106.0
513.76,105.0
513.83,108.0
513.89,116.0
513.95,131.0
514.02,137.0
514.08,147.0
514.14,139.0
514.21,113.0
514.27,130.0
514.33,130.0
514.39,108.0
514.46,118.0
514.52,117.0
514.58,128.0
514.65,106.0
514.71,120.0
514.77,140.0
514.84,145.0
514.9,119.0
514.96,109.0
515.02,116.0
515.09,117.0
515.15,122.0
515.21,111.0
515.28,116.0
515.34,97.0
515.4,104.0
515.47,129.0
515.53,124.0
515.59,128.0
515.65,109.0
515.72,115.0
515.78,133.0
515.84,138.0
515.91,129.0
515.97,128.0
516.03,112.0
516.1,121.0
516.16,116.0
516.22,120.0
516.28,117.0
516.35,125.0
516.41,134.0
516.47,117.0
516.54,112.0
516.6,95.0
516.66,94.0
516.73,92.0
516.79,98.0
516.85,121.0
516.91,105.0
516.98,92.0
517.04,91.0
517.1,106.0
517.17,92.0
517.23,107.0
517.29,98.0
517.36,106.0
517.42,88.0
517.48,88.0
517.54,99.0
517.61,95.0
517.67,98.0
517.73,96.0
517.8,102.0
517.86,94.0
517.92,95.0
517.99,81.0
518.05,83.0
518.11,84.0
518.17,82.0
518.24,110.0
518.3,88.0
518.36,77.0
518.43,97.0
518.49,119.0
518.55,106.0
518.62,128.0
518.68,104.0
518.74,97.0
518.8,110.0
518.87,120.0
518.93,112.0
518.99,102.0
519.06,118.0
519.12,106.0
519.18,121.0
519.25,147.0
519.31,126.0
519.37,104.0
519.43,117.0
519.5,135.0
519.56,118.0
519.62,112.0
519.69,123.0
519.75,111.0
519.81,121.0
519.88,128.0
519.94,123.0
520.0,112.0
520.06,132.0
520.13,149.0
520.19,119.0
520.25,103.0
520.32,100.0
520.38,106.0
520.44,112.0
520.51,125.0
520.57,118.0
520.63,135.0
520.69,137.0
520.76,131.0
520.82,124.0
520.88,134.0
520.95,143.0
521.01,130.0
521.07,121.0
521.14,128.0
521.2,143.0
521.26,139.0
521.32,140.0
521.39,127.0
521.45,111.0
521.51,119.0
521.58,127.0
521.64,115.0
521.7,99.0
521.77,126.0
521.83,110.0
521.89,115.0
521.95,111.0
522.02,100.0
522.08,103.0
522.14,115.0
522.21,111.0
522.27,114.0
522.33,120.0
522.4,109.0
522.46,113.0
522.52,90.0
522.58,74.0
522.65,93.0
522.71,105.0
522.77,111.0
522.84,115.0
522.9,122.0
522.96,107.0
523.03,95.0
523.09,77.0
523.15,88.0
523.21,79.0
523.28,93.0
523.34,86.0
523.4,88.0
523.47,93.0
523.53,73.0
523.59,82.0
523.66,73.0
523.72,58.0
523.78,79.0
523.84,77.0
523.91,85.0
523.97,69.0
524.03,64.0
524.1,66.0
524.16,92.0
524.22,69.0
524.29,68.0
524.35,66.0
524.41,63.0
524.47,64.0
524.54,67.0
524.6,81.0
524.66,67.0
524.73,68.0
524.79,66.0
524.85,84.0
524.92,55.0
524.98,38.0
525.04,38.0
525.1,56.0
525.17,63.0
525.23,73.0
525.29,69.0
525.36,38.0
525.42,60.0
525.48,66.0
525.55,77.0
525.61,45.0
525.67,33.0
525.73,47.0
525.8,41.0
525.86,32.0
525.92,55.0
525.99,49.0
526.05,39.0
526.11,44.0
526.18,40.0
526.24,52.0
526.3,53.0
526.36,53.0
526.43,50.0
526.49,67.0
526.55,51.0
526.62,47.0
526.68,55.0
526.74,34.0
526.81,51.0
526.87,47.0
526.93,29.0
526.99,36.0
527.06,41.0
527.12,44.0
527.18,64.0
527.25,66.0
527.31,53.0
527.37,79.0
527.44,67.0
527.5,60.0
527.56,85.0
527.62,83.0
527.69,65.0
527.75,84.0
527.81,74.0
527.88,97.0
527.94,87.0
528.0,85.0
528.07,84.0
528.13,75.0
528.19,79.0
528.25,86.0
528.32,69.0
528.38,80.0
528.44,89.0
528.51,78.0
528.57,87.0
528.63,84.0
528.7,92.0
528.76,85.0
528.82,94.0
528.88,92.0
528.95,88.0
529.01,107.0
529.07,93.0
529.14,84.0
529.2,100.0
529.26,82.0
529.33,100.0
529.39,126.0
529.45,116.0
529.51,121.0
529.58,130.0
529.64,143.0
529.7,138.0
529.77,147.0
529.83,137.0
529.89,117.0
529.96,125.0
530.02,132.0
530.08,149.0
530.14,158.0
530.21,154.0
530.27,158.0
530.33,162.0
530.4,151.0
530.46,154.0
530.52,132.0
530.59,125.0
530.65,148.0
530.71,130.0
530.77,146.0
530.84,157.0
530.9,143.0
530.96,164.0
531.03,177.0
531.09,180.0
531.15,180.0
531.22,178.0
531.28,193.0
531.34,194.0
531.4,191.0
531.47,215.0
531.53,188.0
531.59,205.0
531.66,212.0
531.72,198.0
531.78,213.0
531.85,220.0
531.91,228.0
531.97,208.0
532.03,205.0
532.1,211.0
532.16,200.0
532.22,209.0
532.29,196.0
532.35,208.0
532.41,214.0
532.48,209.0
532.54,206.0
532.6,193.0
532.66,191.0
532.73,188.0
532.79,211.0
532.85,170.0
532.92,174.0
532.98,173.0
533.04,158.0
533.11,165.0
533.17,170.0
533.23,162.0
533.29,167.0
533.36,154.0
533.42,146.0
533.48,129.0
533.55,135.0
533.61,131.0
533.67,104.0
533.74,131.0
533.8,121.0
533.86,142.0
533.92,121.0
533.99,124.0
534.05,131.0
534.11,106.0
534.18,123.0
534.24,123.0
534.3,120.0
534.37,108.0
534.43,120.0
534.49,127.0
534.55,118.0
534.62,127.0
534.68,125.0
534.74,114.0
534.81,110.0
534.87,105.0
534.93,106.0
535.0,89.0
535.06,95.0
535.12,100.0
535.18,97.0
535.25,86.0
535.31,79.0
535.37,92.0
535.44,90.0
535.5,77.0
535.56,115.0
535.63,95.0
535.69,98.0
535.75,95.0
535.81,91.0
535.88,81.0
535.94,82.0
536.0,99.0
536.07,93.0
536.13,81.0
536.19,92.0
536.26,106.0
536.32,111.0
536.38,119.0
536.44,119.0
536.51,111.0
536.57,126.0
536.63,147.0
536.7,132.0
536.76,129.0
536.82,131.0
536.89,126.0
536.95,134.0
537.01,126.0
537.07,117.0
537.14,101.0
537.2,98.0
537.26,90.0
537.33,74.0
537.39,78.0
537.45,110.0
537.52,123.0
537.58,120.0
537.64,132.0
537.7,114.0
537.77,128.0
537.83,117.0
537.89,120.0
537.96,109.0
538.02,92.0
538.08,90.0
538.15,97.0
538.21,95.0
538.27,93.0
538.33,84.0
538.4,90.0
538.46,79.0
538.52,78.0
538.59,90.0
538.65,91.0
538.71,78.0
538.78,78.0
538.84,40.0
538.9,56.0
538.96,61.0
539.03,73.0
539.09,86.0
539.15,63.0
539.22,71.0
539.28,52.0
539.34,62.0
539.41,68.0
539.47,62.0
539.53,68.0
539.59,61.0
539.66,74.0
539.72,59.0
539.78,57.0
539.85,72.0
539.91,72.0
539.97,60.0
540.04,58.0
540.1,52.0
540.16,49.0
540.22,35.0
540.29,32.0
540.35,45.0
540.41,41.0
540.48,36.0
540.54,41.0
540.6,12.0
540.67,0.0
540.73,14.0
540.79,19.0
540.85,8.0
540.92,1.0
540.98,6.0
541.04,30.0
541.11,12.0
541.17,16.0
541.23,12.0
541.3,14.0
541.36,5.0
541.42,-6.0
541.48,-10.0
541.55,5.0
541.61,0.0
541.67,-14.0
541.74,1.0
541.8,0.0
541.86,-18.0
541.93,1.0
541.99,-18.0
542.05,-15.0
542.11,4.0
542.18,-11.0
542.24,-1.0
542.3,-13.0
542.37,4.0
542.43,7.0
542.49,-14.0
542.56,-17.0
542.62,-9.0
542.68,-28.0
542.74,-28.0
542.81,-25.0
542.87,-24.0
542.93,-28.0
543.0,-27.0
543.06,-34.0
543.12,-55.0
543.19,-60.0
543.25,-59.0
543.31,-70.0
543.37,-54.0
543.44,-50.0
543.5,-51.0
543.56,-33.0
543.63,-16.0
543.69,-38.0
543.75,-58.0
543.82,-57.0
543.88,-61.0
543.94,-57.0
544.0,-67.0
544.07,-48.0
544.13,-56.0
544.19,-51.0
544.26,-53.0
544.32,-51.0
544.38,-31.0
544.45,-26.0
544.51,-25.0
544.57,-13.0
544.63,-27.0
544.7,-18.0
544.76,-20.0
544.82,-18.0
544.89,-10.0
544.95,-17.0
545.01,-14.0
545.08,-8.0
545.14,5.0
545.2,13.0
545.26,4.0
545.33,2.0
545.39,6.0
545.45,-13.0
545.52,-6.0
545.58,26.0
545.64,12.0
545.71,15.0
545.77,25.0
545.83,21.0
545.89,21.0
545.96,36.0
546.02,37.0
546.08,45.0
546.15,37.0
546.21,45.0
546.27,59.0
546.34,56.0
546.4,78.0
546.46,75.0
546.52,82.0
546.59,89.0
546.65,82.0
546.71,75.0
546.78,99.0
546.84,105.0
546.9,108.0
546.97,104.0
547.03,114.0
547.09,105.0
547.15,102.0
547.22,130.0
547.28,131.0
547.34,130.0
547.41,128.0
547.47,115.0
547.53,136.0
547.6,127.0
547.66,136.0
547.72,139.0
547.78,120.0
547.85,139.0
547.91,143.0
547.97,145.0
548.04,161.0
548.1,173.0
548.16,164.0
548.23,167.0
548.29,155.0
548.35,157.0
548.41,159.0
548.48,174.0
548.54,168.0
548.6,156.0
548.67,154.0
548.73,142.0
548.79,144.0
548.86,182.0
548.92,196.0
548.98,180.0
549.04,164.0
549.11,155.0
549.17,170.0
549.23,170.0
549.3,186.0
549.36,176.0
549.42,169.0
549.49,173.0
549.55,167.0
549.61,169.0
549.67,159.0
549.74,158.0
549.8,156.0
549.86,137.0
549.93,140.0
549.99,133.0
550.05,130.0
550.12,139.0
550.18,98.0
550.24,102.0
550.3,120.0
550.37,108.0
550.43,126.0
550.49,144.0
550.56,131.0
550.62,132.0
550.68,128.0
550.75,139.0
550.81,159.0
550.87,144.0
550.93,167.0
551.0,153.0
551.06,143.0
551.12,141.0
551.19,157.0
551.25,153.0
551.31,145.0
551.38,130.0
551.44,153.0
551.5,143.0
551.56,150.0
551.63,159.0
551.69,155.0
551.75,163.0
551.82,166.0
551.88,169.0
551.94,165.0
552.01,161.0
552.07,148.0
552.13,142.0
552.19,151.0
552.26,170.0
552.32,166.0
552.38,158.0
552.45,171.0
552.51,182.0
552.57,162.0
552.64,158.0
552.7,133.0
552.76,130.0
552.82,143.0
552.89,158.0
552.95,144.0
553.01,154.0
553.08,134.0
553.14,137.0
553.2,150.0
553.27,140.0
553.33,171.0
553.39,164.0
553.45,163.0
553.52,168.0
553.58,166.0
553.64,161.0
553.71,152.0
553.77,163.0
553.83,166.0
553.9,159.0
553.96,161.0
554.02,161.0
554.08,182.0
554.15,162.0
554.21,178.0
554.27,195.0
554.34,162.0
554.4,195.0
554.46,190.0
554.53,203.0
554.59,179.0
554.65,183.0
554.71,218.0
554.78,200.0
554.84,207.0
554.9,194.0
554.97,193.0
555.03,194.0
555.09,180.0
555.16,177.0
555.22,169.0
555.28,184.0
555.34,192.0
555.41,161.0
555.47,181.0
555.53,164.0
555.6,166.0
555.66,168.0
555.72,172.0
555.79,165.0
555.85,162.0
555.91,154.0
555.97,166.0
556.04,161.0
556.1,152.0
556.16,138.0
556.23,134.0
556.29,162.0
556.35,164.0
556.42,162.0
556.48,152.0
556.54,154.0
556.6,153.0
556.67,151.0
556.73,135.0
556.79,134.0
556.86,151.0
556.92,171.0
556.98,153.0
557.05,161.0
557.11,122.0
557.17,117.0
557.23,126.0
557.3,130.0
557.36,126.0
557.42,117.0
557.49,111.0
557.55,129.0
557.61,126.0
557.68,117.0
557.74,117.0
557.8,95.0
557.86,119.0
557.93,97.0
557.99,93.0
558.05,110.0
558.12,84.0
558.18,79.0
558.24,96.0
558.31,99.0
558.37,106.0
558.43,99.0
558.49,83.0
558.56,92.0
558.62,94.0
558.68,78.0
558.75,94.0
558.81,83.0
558.87,85.0
558.94,81.0
559.0,94.0
559.06,93.0
559.12,67.0
559.19,91.0
559.25,79.0
559.31,81.0
559.38,94.0
559.44,81.0
559.5,87.0
559.57,79.0
559.63,73.0
559.69,70.0
559.75,60.0
559.82,71.0
559.88,63.0
559.94,59.0
560.01,70.0
560.07,71.0
560.13,85.0
560.2,84.0
560.26,75.0
560.32,64.0
560.38,64.0
560.45,87.0
560.51,63.0
560.57,84.0
560.64,99.0
560.7,84.0
560.76,83.0
560.83,65.0
560.89,45.0
560.95,56.0
561.01,53.0
561.08,67.0
561.14,63.0
561.2,67.0
561.27,68.0
561.33,59.0
561.39,75.0
561.46,96.0
561.52,92.0
561.58,65.0
561.64,85.0
561.71,82.0
561.77,71.0
561.83,60.0
561.9,64.0
561.96,93.0
562.02,54.0
562.09,49.0
562.15,67.0
562.21,63.0
562.27,49.0
562.34,39.0
562.4,52.0
562.46,63.0
562.53,78.0
562.59,63.0
562.65,95.0
562.72,89.0
562.78,104.0
562.84,84.0
562.9,67.0
562.97,85.0
563.03,82.0
563.09,101.0
563.16,108.0
563.22,96.0
563.28,98.0
563.35,114.0
563.41,104.0
563.47,105.0
563.53,120.0
563.6,122.0
563.66,138.0
563.72,129.0
563.79,118.0
563.85,137.0
563.91,137.0
563.98,120.0
564.04,120.0
564.1,122.0
564.16,114.0
564.23,125.0
564.29,109.0
564.35,127.0
564.42,131.0
564.48,125.0
564.54,145.0
564.61,140.0
564.67,144.0
564.73,143.0
564.79,163.0
564.86,154.0
564.92,144.0
564.98,160.0
565.05,166.0
565.11,160.0
565.17,183.0
565.24,170.0
565.3,156.0
565.36,154.0
565.42,163.0
565.49,159.0
565.55,157.0
565.61,167.0
565.68,140.0
565.74,142.0
565.8,158.0
565.87,170.0
565.93,172.0
565.99,167.0
566.05,164.0
566.12,156.0
566.18,164.0
566.24,159.0
566.31,160.0
566.37,174.0
566.43,200.0
566.5,171.0
566.56,171.0
566.62,177.0
566.68,168.0
566.75,168.0
566.81,178.0
566.87,187.0
566.94,167.0
567.0,147.0
567.06,131.0
567.13,125.0
567.19,118.0
567.25,131.0
567.31,123.0
567.38,114.0
567.44,109.0
567.5,125.0
567.57,93.0
567.63,102.0
567.69,112.0
567.76,97.0
567.82,122.0
567.88,115.0
567.94,115.0
568.01,128.0
568.07,118.0
568.13,119.0
568.2,130.0
568.26,127.0
568.32,126.0
568.39,106.0
568.45,119.0
568.51,125.0
568.57,113.0
568.64,98.0
568.7,98.0
568.76,97.0
568.83,109.0
568.89,111.0
568.95,111.0
569.02,144.0
569.08,134.0
569.14,147.0
569.2,151.0
569.27,163.0
569.33,166.0
569.39,139.0
569.46,134.0
569.52,143.0
569.58,149.0
569.65,167.0
569.71,158.0
569.77,163.0
569.83,151.0
569.9,136.0
569.96,155.0
570.02,161.0
570.09,133.0
570.15,133.0
570.21,152.0
570.28,143.0
570.34,155.0
570.4,153.0
570.46,140.0
570.53,150.0
570.59,170.0
570.65,177.0
570.72,180.0
570.78,177.0
570.84,149.0
570.91,147.0
570.97,154.0
571.03,152.0
571.09,159.0
571.16,159.0
571.22,155.0
571.28,150.0
571.35,167.0
571.41,178.0
571.47,177.0
571.54,173.0
571.6,195.0
571.66,190.0
571.72,164.0
571.79,184.0
571.85,166.0
571.91,158.0
571.98,166.0
572.04,162.0
572.1,154.0
572.17,158.0
572.23,150.0
572.29,139.0
572.35,147.0
572.42,148.0
572.48,155.0
572.54,137.0
572.61,135.0
572.67,134.0
572.73,148.0
572.8,149.0
572.86,156.0
572.92,163.0
572.98,151.0
573.05,163.0
573.11,162.0
573.17,163.0
573.24,145.0
573.3,144.0
573.36,126.0
573.43,126.0
573.49,126.0
573.55,118.0
573.61,108.0
573.68,103.0
573.74,124.0
573.8,115.0
573.87,128.0
573.93,111.0
573.99,93.0
574.06,104.0
574.12,112.0
574.18,109.0
574.24,103.0
574.31,100.0
574.37,97.0
574.43,98.0
574.5,104.0
574.56,96.0
574.62,108.0
574.69,114.0
574.75,100.0
574.81,111.0
574.87,98.0
574.94,119.0
575.0,117.0
575.06,109.0
575.13,101.0
575.19,89.0
575.25,83.0
575.32,96.0
575.38,94.0
575.44,97.0
575.5,83.0
575.57,90.0
575.63,96.0
575.69,78.0
575.76,68.0
575.82,63.0
575.88,62.0
575.95,71.0
576.01,90.0
576.07,50.0
576.13,60.0
576.2,70.0
576.26,54.0
576.32,47.0
576.39,52.0
576.45,25.0
576.51,38.0
576.58,58.0
576.64,28.0
576.7,52.0
576.76,46.0
576.83,51.0
576.89,35.0
576.95,37.0
577.02,38.0
577.08,44.0
577.14,44.0
577.21,73.0
577.27,66.0
577.33,43.0
577.39,58.0
577.46,63.0
577.52,73.0
577.58,56.0
577.65,37.0
577.71,37.0
577.77,44.0
577.84,64.0
577.9,57.0
577.96,59.0
578.02,60.0
578.09,41.0
578.15,54.0
578.21,59.0
578.28,60.0
578.34,45.0
578.4,39.0
578.47,59.0
578.53,68.0
578.59,49.0
578.65,57.0
578.72,37.0
578.78,43.0
578.84,52.0
578.91,28.0
578.97,34.0
579.03,54.0
579.1,74.0
579.16,82.0
579.22,62.0
579.28,82.0
579.35,74.0
579.41,89.0
579.47,82.0
579.54,79.0
579.6,68.0
579.66,76.0
579.73,97.0
579.79,107.0
579.85,102.0
579.91,121.0
579.98,127.0
580.04,137.0
580.1,128.0
580.17,119.0
580.23,125.0
580.29,137.0
580.36,136.0
580.42,153.0
580.48,152.0
580.54,165.0
580.61,152.0
580.67,143.0
580.73,164.0
580.8,173.0
580.86,170.0
580.92,177.0
580.99,170.0
581.05,164.0
581.11,150.0
581.17,152.0
581.24,163.0
581.3,166.0
581.36,174.0
581.43,159.0
581.49,166.0
581.55,170.0
581.62,166.0
581.68,167.0
581.74,156.0
581.8,162.0
581.87,175.0
581.93,162.0
581.99,142.0
582.06,161.0
582.12,155.0
582.18,145.0
582.25,155.0
582.31,161.0
582.37,169.0
582.43,175.0
582.5,170.0
582.56,172.0
582.62,178.0
582.69,173.0
582.75,157.0
582.81,152.0
582.88,158.0
582.94,177.0
583.0,170.0
583.06,175.0
583.13,192.0
583.19,183.0
583.25,188.0
583.32,186.0
583.38,174.0
583.44,190.0
583.51,189.0
583.57,188.0
583.63,173.0
583.69,186.0
583.76,213.0
583.82,182.0
583.88,170.0
583.95,155.0
584.01,174.0
584.07,169.0
584.14,178.0
584.2,181.0
584.26,189.0
584.32,196.0
584.39,180.0
584.45,169.0
584.51,166.0
584.58,174.0
584.64,161.0
584.7,157.0
584.77,155.0
584.83,181.0
584.89,169.0
584.95,172.0
585.02,149.0
585.08,165.0
585.14,164.0
585.21,150.0
585.27,126.0
585.33,134.0
585.4,142.0
585.46,143.0
585.52,137.0
585.58,130.0
585.65,145.0
585.71,152.0
585.77,153.0
585.84,143.0
585.9,144.0
585.96,147.0
586.03,142.0
586.09,153.0
586.15,157.0
586.21,167.0
586.28,175.0
586.34,161.0
586.4,140.0
586.47,155.0
586.53,156.0
586.59,150.0
586.66,147.0
586.72,140.0
586.78,151.0
586.84,139.0
586.91,142.0
586.97,172.0
587.03,141.0
587.1,151.0
587.16,157.0
587.22,161.0
587.29,159.0
587.35,148.0
587.41,162.0
587.47,163.0
587.54,143.0
587.6,160.0
587.66,168.0
587.73,177.0
587.79,177.0
587.85,166.0
587.92,163.0
587.98,173.0
588.04,181.0
588.1,177.0
588.17,170.0
588.23,175.0
588.29,184.0
588.36,183.0
588.42,175.0
588.48,169.0
588.55,148.0
588.61,141.0
588.67,145.0
588.73,152.0
588.8,153.0
588.86,159.0
588.92,142.0
588.99,160.0
589.05,139.0
589.11,149.0
589.18,160.0
589.24,153.0
589.3,165.0
589.36,160.0
589.43,172.0
589.49,165.0
589.55,155.0
589.62,162.0
589.68,169.0
589.74,185.0
589.81,157.0
589.87,155.0
589.93,144.0
589.99,120.0
590.06,112.0
590.12,101.0
590.18,101.0
590.25,109.0
590.31,115.0
590.37,110.0
590.44,91.0
590.5,100.0
590.56,126.0
590.62,122.0
590.69,123.0
590.75,117.0
590.81,124.0
590.88,116.0
590.94,104.0
591.0,116.0
591.07,115.0
591.13,100.0
591.19,108.0
591.25,102.0
591.32,97.0
591.38,100.0
591.44,93.0
591.51,75.0
591.57,82.0
591.63,79.0
591.7,73.0
591.76,82.0
591.82,74.0
591.88,67.0
591.95,53.0
592.01,44.0
592.07,37.0
592.14,63.0
592.2,52.0
592.26,73.0
592.33,63.0
592.39,46.0
592.45,36.0
592.51,49.0
592.58,48.0
592.64,37.0
592.7,53.0
592.77,26.0
592.83,32.0
592.89,34.0
592.96,37.0
593.02,47.0
593.08,24.0
593.14,16.0
593.21,45.0
593.27,35.0
593.33,34.0
593.4,45.0
593.46,44.0
593.52,25.0
593.59,32.0
593.65,40.0
593.71,15.0
593.77,29.0
593.84,27.0
593.9,14.0
593.96,-15.0
594.03,-7.0
594.09,-12.0
594.15,-7.0
594.22,5.0
594.28,-2.0
594.34,3.0
594.4,-4.0
594.47,-14.0
594.53,-13.0
594.59,-6.0
594.66,-12.0
594.72,-17.0
594.78,-13.0
594.85,-6.0
594.91,4.0
594.97,2.0
595.03,13.0
595.1,19.0
595.16,7.0
595.22,34.0
595.29,32.0
595.35,8.0
595.41,28.0
595.48,12.0
595.54,26.0
595.6,20.0
595.66,24.0
595.73,41.0
595.79,47.0
595.85,29.0
595.92,33.0
595.98,31.0
596.04,24.0
596.11,16.0
596.17,35.0
596.23,54.0
596.29,42.0
596.36,55.0
596.42,45.0
596.48,51.0
596.55,57.0
596.61,49.0
596.67,44.0
596.74,34.0
596.8,39.0
596.86,65.0
596.92,56.0
596.99,55.0
597.05,58.0
597.11,61.0
597.18,54.0
597.24,66.0
597.3,76.0
597.37,62.0
597.43,76.0
597.49,70.0
597.55,76.0
597.62,84.0
597.68,72.0
597.74,77.0
597.81,71.0
597.87,72.0
597.93,85.0
598.0,101.0
598.06,84.0
598.12,96.0
598.18,98.0
598.25,114.0
598.31,118.0
598.37,101.0
598.44,104.0
598.5,121.0
598.56,115.0
598.63,108.0
598.69,100.0
598.75,112.0
598.81,129.0
598.88,128.0
598.94,119.0
599.0,99.0
599.07,90.0
599.13,95.0
599.19,110.0
599.26,132.0
599.32,151.0
599.38,149.0
599.44,142.0
599.51,124.0
599.57,120.0
599.63,123.0
599.7,134.0
599.76,133.0
599.82,137.0
599.89,122.0
599.95,130.0
600.01,125.0
600.07,104.0
600.14,118.0
600.2,102.0
600.26,107.0
600.33,127.0
600.39,127.0
600.45,135.0
600.52,125.0
600.58,145.0
600.64,131.0
600.7,121.0
600.77,117.0
600.83,103.0
600.89,89.0
600.96,113.0
601.02,120.0
601.08,110.0
601.15,120.0
601.21,116.0
601.27,120.0
601.33,120.0
601.4,99.0
601.46,85.0
601.52,105.0
601.59,91.0
601.65,76.0
601.71,90.0
601.78,104.0
601.84,103.0
601.9,106.0
601.96,89.0
602.03,110.0
602.09,106.0
602.15,99.0
602.22,103.0
602.28,95.0
602.34,111.0
602.41,110.0
602.47,106.0
602.53,110.0
602.59,120.0
602.66,114.0
602.72,121.0
602.78,132.0
602.85,121.0
602.91,127.0
602.97,150.0
603.04,131.0
603.1,132.0
603.16,131.0
603.22,127.0
603.29,117.0
603.35,125.0
603.41,132.0
603.48,143.0
603.54,129.0
603.6,139.0
603.67,141.0
603.73,122.0
603.79,131.0
603.85,125.0
603.92,124.0
603.98,139.0
604.04,144.0
604.11,168.0
604.17,150.0
604.23,161.0
604.3,164.0
604.36,162.0
604.42,170.0
604.48,173.0
604.55,178.0
604.61,182.0
604.67,189.0
604.74,190.0
604.8,184.0
604.86,194.0
604.93,197.0
604.99,213.0
605.05,193.0
605.11,193.0
605.18,184.0
605.24,185.0
605.3,194.0
605.37,198.0
605.43,183.0
605.49,167.0
605.56,174.0
605.62,163.0
605.68,167.0
605.74,164.0
605.81,164.0
605.87,172.0
605.93,157.0
606.0,173.0
606.06,169.0
606.12,181.0
606.19,184.0
606.25,178.0
606.31,150.0
606.37,156.0
606.44,178.0
606.5,194.0
606.56,195.0
606.63,172.0
606.69,174.0
606.75,164.0
606.82,179.0
606.88,187.0
606.94,162.0
607.0,169.0
607.07,167.0
607.13,145.0
607.19,136.0
607.26,127.0
607.32,126.0
607.38,149.0
607.45,139.0
607.51,127.0
607.57,135.0
607.63,136.0
607.7,139.0
607.76,147.0
607.82,158.0
607.89,145.0
607.95,127.0
608.01,117.0
608.08,139.0
608.14,131.0
608.2,137.0
608.26,125.0
608.33,117.0
608.39,126.0
608.45,125.0
608.52,112.0
608.58,124.0
608.64,110.0
608.71,114.0
608.77,119.0
608.83,119.0
608.89,134.0
608.96,124.0
609.02,102.0
609.08,106.0
609.15,84.0
609.21,110.0
609.27,93.0
609.34,88.0
609.4,95.0
609.46,102.0
609.52,81.0
609.59,78.0
609.65,77.0
609.71,72.0
609.78,85.0
609.84,82.0
609.9,77.0
609.97,55.0
610.03,66.0
610.09,68.0
610.15,61.0
610.22,66.0
610.28,64.0
610.34,63.0
610.41,66.0
610.47,82.0
610.53,77.0
610.6,76.0
610.66,84.0
610.72,74.0
610.78,77.0
610.85,59.0
610.91,65.0
610.97,60.0
611.04,55.0
611.1,42.0
611.16,59.0
611.23,60.0
611.29,60.0
611.35,63.0
611.41,49.0
611.48,80.0
611.54,71.0
611.6,54.0
611.67,52.0
611.73,68.0
611.79,60.0
611.86,49.0
611.92,76.0
611.98,75.0
612.04,52.0
612.11,55.0
612.17,59.0
612.23,63.0
612.3,64.0
612.36,56.0
612.42,58.0
612.49,41.0
612.55,52.0
612.61,64.0
612.67,56.0
612.74,59.0
612.8,62.0
612.86,60.0
612.93,69.0
612.99,79.0
613.05,77.0
613.12,80.0
613.18,105.0
613.24,79.0
613.3,95.0
613.37,110.0
613.43,78.0
613.49,117.0
613.56,113.0
613.62,113.0
613.68,101.0
613.75,104.0
613.81,105.0
613.87,109.0
613.93,110.0
614.0,108.0
614.06,128.0
614.12,125.0
614.19,121.0
614.25,107.0
614.31,110.0
614.38,123.0
614.44,129.0
614.5,140.0
614.56,140.0
614.63,164.0
614.69,154.0
614.75,154.0
614.82,167.0
614.88,137.0
614.94,151.0
615.01,141.0
615.07,147.0
615.13,147.0
615.19,172.0
615.26,157.0
615.32,148.0
615.38,165.0
615.45,169.0
615.51,167.0
615.57,169.0
615.64,171.0
615.7,164.0
615.76,177.0
615.82,180.0
615.89,169.0
615.95,159.0
616.01,164.0
616.08,173.0
616.14,176.0
616.2,187.0
616.27,186.0
616.33,187.0
616.39,183.0
616.45,183.0
616.52,167.0
616.58,170.0
616.64,170.0
616.71,159.0
616.77,145.0
616.83,148.0
616.9,158.0
616.96,166.0
617.02,150.0
617.08,164.0
617.15,163.0
617.21,157.0
617.27,156.0
617.34,141.0
617.4,134.0
617.46,132.0
617.53,151.0
617.59,158.0
617.65,139.0
617.71,118.0
617.78,131.0
617.84,143.0
617.9,130.0
617.97,136.0
618.03,125.0
618.09,130.0
618.16,127.0
618.22,125.0
618.28,108.0
618.34,111.0
618.41,119.0
618.47,124.0
618.53,130.0
618.6,134.0
618.66,132.0
618.72,137.0
618.79,142.0
618.85,136.0
618.91,146.0
618.97,116.0
619.04,121.0
619.1,124.0
619.16,148.0
619.23,181.0
619.29,169.0
619.35,167.0
619.42,177.0
619.48,176.0
619.54,171.0
619.6,158.0
619.67,181.0
619.73,178.0
619.79,170.0
619.86,169.0
619.92,169.0
619.98,167.0
620.05,164.0
620.11,162.0
620.17,169.0
620.23,159.0
620.3,159.0
620.36,167.0
620.42,170.0
620.49,185.0
620.55,164.0
620.61,175.0
620.68,192.0
620.74,162.0
620.8,180.0
620.86,191.0
620.93,178.0
620.99,205.0
621.05,185.0
621.12,197.0
621.18,192.0
621.24,184.0
621.31,175.0
621.37,194.0
621.43,199.0
621.49,200.0
621.56,212.0
621.62,207.0
621.68,184.0
621.75,196.0
621.81,196.0
621.87,190.0
621.94,159.0
622.0,186.0
622.06,197.0
622.12,175.0
622.19,187.0
622.25,177.0
622.31,187.0
622.38,200.0
622.44,185.0
622.5,179.0
622.57,178.0
622.63,184.0
622.69,183.0
622.75,154.0
622.82,153.0
622.88,157.0
622.94,158.0
623.01,163.0
623.07,145.0
623.13,136.0
623.2,151.0
623.26,141.0
623.32,137.0
623.38,148.0
623.45,156.0
623.51,152.0
623.57,128.0
623.64,117.0
623.7,123.0
623.76,129.0
623.83,133.0
623.89,109.0
623.95,125.0
624.01,127.0
624.08,113.0
624.14,123.0
624.2,132.0
624.27,148.0
624.33,147.0
624.39,136.0
624.46,119.0
624.52,133.0
624.58,113.0
624.64,126.0
624.71,128.0
624.77,129.0
624.83,120.0
624.9,128.0
624.96,114.0
625.02,114.0
625.09,121.0
625.15,131.0
625.21,141.0
625.27,126.0
625.34,111.0
625.4,128.0
625.46,102.0
625.53,100.0
625.59,114.0
625.65,96.0
625.72,88.0
625.78,85.0
625.84,70.0
625.9,92.0
625.97,88.0
626.03,75.0
626.09,69.0
626.16,79.0
626.22,90.0
626.28,91.0
626.35,67.0
626.41,71.0
626.47,87.0
626.53,77.0
626.6,94.0
626.66,66.0
626.72,65.0
626.79,65.0
626.85,69.0
626.91,67.0
626.98,58.0
627.04,79.0
627.1,71.0
627.16,59.0
627.23,45.0
627.29,30.0
627.35,33.0
627.42,16.0
627.48,18.0
627.54,8.0
627.61,30.0
627.67,40.0
627.73,22.0
627.79,35.0
627.86,44.0
627.92,44.0
627.98,14.0
628.05,22.0
628.11,8.0
628.17,21.0
628.24,27.0
628.3,39.0
628.36,32.0
628.42,9.0
628.49,11.0
628.55,25.0
628.61,11.0
628.68,22.0
628.74,23.0
628.8,39.0
628.87,43.0
628.93,25.0
628.99,24.0
629.05,40.0
629.12,52.0
629.18,52.0
629.24,46.0
629.31,53.0
629.37,65.0
629.43,74.0
629.5,60.0
629.56,54.0
629.62,71.0
629.68,69.0
629.75,54.0
629.81,52.0
629.87,68.0
629.94,71.0
630.0,60.0
630.06,91.0
630.13,79.0
630.19,88.0
630.25,87.0
630.31,79.0
630.38,82.0
630.44,81.0
630.5,85.0
630.57,94.0
630.63,96.0
630.69,131.0
630.76,117.0
630.82,94.0
630.88,110.0
630.94,91.0
631.01,99.0
631.07,106.0
631.13,126.0
631.2,138.0
631.26,140.0
631.32,142.0
631.39,128.0
631.45,120.0
631.51,128.0
631.57,106.0
631.64,138.0
631.7,136.0
631.76,140.0
631.83,127.0
631.89,132.0
631.95,152.0
632.02,137.0
632.08,145.0
632.14,154.0
632.2,164.0
632.27,150.0
632.33,140.0
632.39,155.0
632.46,139.0
632.52,140.0
632.58,157.0
632.65,125.0
632.71,136.0
632.77,145.0
632.83,124.0
632.9,145.0
632.96,161.0
633.02,152.0
633.09,153.0
633.15,154.0
633.21,167.0
633.28,170.0
633.34,166.0
633.4,158.0
633.46,162.0
633.53,156.0
633.59,151.0
633.65,146.0
633.72,150.0
633.78,154.0
633.84,125.0
633.91,117.0
633.97,128.0
634.03,120.0
634.09,126.0
634.16,111.0
634.22,125.0
634.28,152.0
634.35,142.0
634.41,146.0
634.47,142.0
634.54,148.0
634.6,156.0
634.66,147.0
634.72,161.0
634.79,150.0
634.85,140.0
634.91,132.0
634.98,140.0
635.04,118.0
635.1,117.0
635.17,167.0
635.23,158.0
635.29,147.0
635.35,153.0
635.42,144.0
635.48,130.0
635.54,161.0
635.61,139.0
635.67,155.0
635.73,161.0
635.8,145.0
635.86,148.0
635.92,151.0
635.98,147.0
636.05,130.0
636.11,144.0
636.17,142.0
636.24,161.0
636.3,157.0
636.36,157.0
636.43,175.0
636.49,155.0
636.55,173.0
636.61,197.0
636.68,188.0
636.74,183.0
636.8,170.0
636.87,189.0
636.93,180.0
636.99,197.0
637.06,176.0
637.12,164.0
637.18,177.0
637.24,178.0
637.31,194.0
637.37,190.0
637.43,182.0
637.5,192.0
637.56,199.0
637.62,185.0
637.69,198.0
637.75,222.0
637.81,212.0
637.87,197.0
637.94,178.0
638.0,208.0
638.06,187.0
638.13,205.0
638.19,223.0
638.25,220.0
638.32,216.0
638.38,207.0
638.44,206.0
638.5,202.0
638.57,194.0
638.63,205.0
638.69,224.0
638.76,200.0
638.82,187.0
638.88,185.0
638.95,187.0
639.01,193.0
639.07,195.0
639.13,208.0
639.2,203.0
639.26,195.0
639.32,184.0
639.39,186.0
639.45,191.0
639.51,186.0
639.58,176.0
639.64,197.0
639.7,175.0
639.76,168.0
639.83,166.0
639.89,164.0
639.95,176.0
640.02,164.0
640.08,184.0
640.14,181.0
640.21,177.0
640.27,168.0
640.33,167.0
640.39,169.0
640.46,187.0
640.52,154.0
640.58,158.0
640.65,162.0
640.71,158.0
640.77,155.0
640.84,150.0
640.9,143.0
640.96,148.0
641.02,148.0
641.09,149.0
641.15,148.0
641.21,151.0
641.28,146.0
641.34,161.0
641.4,139.0
641.47,146.0
641.53,157.0
641.59,139.0
641.65,148.0
641.72,137.0
641.78,131.0
641.84,142.0
641.91,123.0
641.97,121.0
642.03,138.0
642.1,124.0
642.16,128.0
642.22,123.0
642.28,129.0
642.35,121.0
642.41,128.0
642.47,131.0
642.54,90.0
642.6,104.0
642.66,106.0
642.73,109.0
642.79,102.0
642.85,109.0
642.91,84.0
642.98,76.0
643.04,98.0
643.1,92.0
643.17,103.0
643.23,87.0
643.29,80.0
643.36,80.0
643.42,71.0
643.48,77.0
643.54,77.0
643.61,77.0
643.67,86.0
643.73,55.0
643.8,63.0
643.86,71.0
643.92,57.0
643.99,55.0
644.05,63.0
644.11,62.0
644.17,63.0
644.24,58.0
644.3,42.0
644.36,47.0
644.43,54.0
644.49,54.0
644.55,62.0
644.62,62.0
644.68,47.0
644.74,60.0
644.8,58.0
644.87,72.0
644.93,56.0
644.99,45.0
645.06,44.0
645.12,69.0
645.18,59.0
645.25,60.0
645.31,51.0
645.37,68.0
645.43,62.0
645.5,58.0
645.56,91.0
645.62,73.0
645.69,75.0
645.75,60.0
645.81,77.0
645.88,76.0
645.94,80.0
646.0,72.0
646.06,71.0
646.13,75.0
646.19,71.0
646.25,73.0
646.32,64.0
646.38,67.0
646.44,76.0
646.51,74.0
646.57,65.0
646.63,54.0
646.69,55.0
646.76,76.0
646.82,58.0
646.88,64.0
646.95,67.0
647.01,52.0
647.07,78.0
647.14,54.0
647.2,62.0
647.26,77.0
647.32,66.0
647.39,83.0
647.45,62.0
647.51,70.0
647.58,82.0
647.64,100.0
647.7,77.0
647.77,93.0
647.83,82.0
647.89,83.0
647.95,90.0
648.02,96.0
648.08,95.0
648.14,78.0
648.21,105.0
648.27,89.0
648.33,91.0
648.4,100.0
648.46,92.0
648.52,84.0
648.58,88.0
648.65,90.0
648.71,85.0
648.77,101.0
648.84,101.0
648.9,123.0
648.96,106.0
649.03,115.0
649.09,90.0
649.15,81.0
649.21,86.0
649.28,96.0
649.34,85.0
649.4,83.0
649.47,69.0
649.53,92.0
649.59,102.0
649.66,93.0
649.72,69.0
649.78,87.0
649.84,79.0
649.91,77.0
649.97,69.0
650.03,77.0
650.1,93.0
650.16,101.0
650.22,82.0
650.29,65.0
650.35,69.0
650.41,65.0
650.47,77.0
650.54,58.0
650.6,57.0
650.66,77.0
650.73,74.0
650.79,84.0
650.85,81.0
650.92,76.0
650.98,96.0
651.04,96.0
651.1,101.0
651.17,85.0
651.23,78.0
651.29,75.0
651.36,87.0
651.42,71.0
651.48,65.0
651.55,67.0
651.61,60.0
651.67,51.0
651.73,52.0
651.8,62.0
651.86,55.0
651.92,68.0
651.99,68.0
652.05,40.0
652.11,61.0
652.18,44.0
652.24,54.0
652.3,59.0
652.36,45.0
652.43,28.0
652.49,44.0
652.55,60.0
652.62,62.0
652.68,58.0
652.74,59.0
652.81,73.0
652.87,54.0
652.93,58.0
652.99,68.0
653.06,72.0
653.12,66.0
653.18,57.0
653.25,72.0
653.31,73.0
653.37,91.0
653.44,73.0
653.5,102.0
653.56,103.0
653.62,107.0
653.69,102.0
653.75,106.0
653.81,117.0
653.88,121.0
653.94,107.0
654.0,110.0
654.07,106.0
654.13,104.0
654.19,94.0
654.25,86.0
654.32,97.0
654.38,106.0
654.44,122.0
654.51,142.0
654.57,129.0
654.63,128.0
654.7,127.0
654.76,139.0
654.82,123.0
654.88,131.0
654.95,115.0
655.01,120.0
655.07,149.0
655.14,146.0
655.2,149.0
655.26,162.0
655.33,145.0
655.39,157.0
655.45,150.0
655.51,160.0
655.58,164.0
655.64,152.0
655.7,155.0
655.77,167.0
655.83,163.0
655.89,162.0
655.96,159.0
656.02,169.0
656.08,171.0
656.14,176.0
656.21,153.0
656.27,156.0
656.33,172.0
656.4,145.0
656.46,165.0
656.52,159.0
656.59,153.0
656.65,124.0
656.71,120.0
656.77,137.0
656.84,138.0
656.9,116.0
656.96,125.0
657.03,126.0
657.09,131.0
657.15,117.0
657.22,121.0
657.28,137.0
657.34,150.0
657.4,145.0
657.47,130.0
657.53,139.0
657.59,128.0
657.66,137.0
657.72,115.0
657.78,127.0
657.85,120.0
657.91,99.0
657.97,124.0
658.03,128.0
658.1,129.0
658.16,138.0
658.22,123.0
658.29,128.0
658.35,131.0
658.41,147.0
658.48,155.0
658.54,139.0
658.6,151.0
658.66,137.0
658.73,131.0
658.79,122.0
658.85,124.0
658.92,130.0
658.98,132.0
659.04,114.0
659.11,110.0
659.17,106.0
659.23,118.0
659.29,107.0
659.36,82.0
659.42,88.0
659.48,108.0
659.55,101.0
659.61,85.0
659.67,76.0
659.74,84.0
659.8,76.0
659.86,77.0
659.92,74.0
659.99,92.0
660.05,94.0
660.11,81.0
660.18,58.0
660.24,57.0
660.3,71.0
660.37,72.0
660.43,36.0
660.49,61.0
660.55,50.0
660.62,60.0
660.68,70.0
660.74,82.0
660.81,63.0
660.87,65.0
660.93,78.0
661.0,68.0
661.06,69.0
661.12,88.0
661.18,70.0
661.25,66.0
661.31,66.0
661.37,66.0
661.44,56.0
661.5,73.0
661.56,62.0
661.63,64.0
661.69,57.0
661.75,52.0
661.81,53.0
661.88,63.0
661.94,81.0
662.0,55.0
662.07,69.0
662.13,72.0
662.19,73.0
662.26,59.0
662.32,63.0
662.38,76.0
662.44,62.0
662.51,65.0
662.57,83.0
662.63,85.0
662.7,90.0
662.76,97.0
662.82,73.0
662.89,77.0
662.95,88.0
663.01,89.0
663.07,79.0
663.14,86.0
663.2,76.0
663.26,87.0
663.33,89.0
663.39,103.0
663.45,82.0
663.52,85.0
663.58,79.0
663.64,73.0
663.7,80.0
663.77,85.0
663.83,79.0
663.89,95.0
663.96,102.0
664.02,88.0
664.08,81.0
664.15,66.0
664.21,69.0
664.27,83.0
664.33,81.0
664.4,84.0
664.46,99.0
664.52,92.0
664.59,91.0
664.65,80.0
664.71,95.0
664.78,111.0
664.84,100.0
664.9,111.0
664.96,103.0
665.03,127.0
665.09,135.0
665.15,131.0
665.22,142.0
665.28,159.0
665.34,142.0
665.41,142.0
665.47,123.0
665.53,154.0
665.59,169.0
665.66,170.0
665.72,165.0
665.78,163.0
665.85,187.0
665.91,176.0
665.97,181.0
666.04,163.0
666.1,161.0
666.16,148.0
666.22,132.0
666.29,147.0
666.35,143.0
666.41,135.0
666.48,140.0
666.54,139.0
666.6,133.0
666.67,120.0
666.73,125.0
666.79,131.0
666.85,148.0
666.92,160.0
666.98,159.0
667.04,152.0
667.11,153.0
667.17,150.0
667.23,164.0
667.3,161.0
667.36,141.0
667.42,153.0
667.48,167.0
667.55,167.0
667.61,170.0
667.67,150.0
667.74,161.0
667.8,161.0
667.86,166.0
667.93,173.0
667.99,164.0
668.05,172.0
668.11,149.0
668.18,147.0
668.24,169.0
668.3,147.0
668.37,155.0
668.43,144.0
668.49,165.0
668.56,155.0
668.62,148.0
668.68,160.0
668.74,154.0
668.81,150.0
668.87,165.0
668.93,162.0
669.0,142.0
669.06,139.0
669.12,126.0
669.19,154.0
669.25,150.0
669.31,147.0
669.37,123.0
669.44,135.0
669.5,142.0
669.56,154.0
669.63,139.0
669.69,148.0
669.75,150.0
669.82,142.0
669.88,156.0
669.94,153.0
670.0,156.0
670.07,163.0
670.13,159.0
670.19,158.0
670.26,173.0
670.32,184.0
670.38,164.0
670.45,165.0
670.51,169.0
670.57,157.0
670.63,183.0
670.7,194.0
670.76,184.0
670.82,180.0
670.89,183.0
670.95,175.0
671.01,176.0
671.08,186.0
671.14,182.0
671.2,187.0
671.26,185.0
671.33,190.0
671.39,186.0
671.45,175.0
671.52,168.0
671.58,176.0
671.64,186.0
671.71,173.0
671.77,173.0
671.83,167.0
671.89,170.0
671.96,169.0
672.02,164.0
672.08,191.0
672.15,211.0
672.21,210.0
672.27,204.0
672.34,189.0
672.4,198.0
672.46,202.0
672.52,186.0
672.59,189.0
672.65,198.0
672.71,211.0
672.78,199.0
672.84,198.0
672.9,187.0
672.97,183.0
673.03,205.0
673.09,184.0
673.15,167.0
673.22,178.0
673.28,183.0
673.34,179.0
673.41,172.0
673.47,154.0
673.53,172.0
673.6,147.0
673.66,166.0
673.72,157.0
673.78,173.0
673.85,175.0
673.91,153.0
673.97,133.0
674.04,128.0
674.1,129.0
674.16,120.0
674.23,115.0
674.29,128.0
674.35,121.0
674.41,121.0
674.48,106.0
674.54,114.0
674.6,115.0
674.67,93.0
674.73,104.0
674.79,106.0
674.86,111.0
674.92,121.0
674.98,118.0
675.04,106.0
675.11,111.0
675.17,117.0
675.23,104.0
675.3,111.0
675.36,129.0
675.42,100.0
675.49,101.0
675.55,107.0
675.61,96.0
675.67,109.0
675.74,96.0
675.8,84.0
675.86,89.0
675.93,106.0
675.99,98.0
676.05,87.0
676.12,84.0
676.18,76.0
676.24,80.0
676.3,90.0
676.37,95.0
676.43,74.0
676.49,79.0
676.56,63.0
676.62,64.0
676.68,61.0
676.75,69.0
676.81,83.0
676.87,62.0
676.93,51.0
677.0,40.0
677.06,42.0
677.12,55.0
677.19,35.0
677.25,43.0
677.31,60.0
677.38,49.0
677.44,59.0
677.5,44.0
677.56,65.0
677.63,66.0
677.69,56.0
677.75,48.0
677.82,46.0
677.88,47.0
677.94,38.0
678.01,23.0
678.07,15.0
678.13,27.0
678.19,7.0
678.26,8.0
678.32,23.0
678.38,20.0
678.45,16.0
678.51,19.0
678.57,26.0
678.64,8.0
678.7,22.0
678.76,33.0
678.82,26.0
678.89,37.0
678.95,48.0
679.01,35.0
679.08,33.0
679.14,41.0
679.2,40.0
679.27,41.0
679.33,40.0
679.39,29.0
679.45,33.0
679.52,10.0
679.58,34.0
679.64,32.0
679.71,30.0
679.77,22.0
679.83,38.0
679.9,62.0
679.96,32.0
680.02,47.0
680.08,61.0
680.15,62.0
680.21,80.0
680.27,58.0
680.34,65.0
680.4,63.0
680.46,57.0
680.53,52.0
680.59,66.0
680.65,65.0
680.71,68.0
680.78,63.0
680.84,45.0
680.9,66.0
680.97,69.0
681.03,77.0
681.09,93.0
681.16,58.0
681.22,87.0
681.28,84.0
681.34,80.0
681.41,94.0
681.47,95.0
681.53,116.0
681.6,102.0
681.66,110.0
681.72,106.0
681.79,106.0
681.85,119.0
681.91,110.0
681.97,103.0
682.04,107.0
682.1,106.0
682.16,110.0
682.23,112.0
682.29,129.0
682.35,127.0
682.42,115.0
682.48,118.0
682.54,121.0
682.6,113.0
682.67,134.0
682.73,134.0
682.79,118.0
682.86,120.0
682.92,130.0
682.98,158.0
683.05,140.0
683.11,150.0
683.17,148.0
683.23,158.0
683.3,156.0
683.36,146.0
683.42,136.0
683.49,120.0
683.55,118.0
683.61,124.0
683.68,107.0
683.74,118.0
683.8,120.0
683.86,127.0
683.93,120.0
683.99,118.0
684.05,118.0
684.12,121.0
684.18,102.0
684.24,96.0
684.31,110.0
684.37,103.0
684.43,104.0
684.49,120.0
684.56,118.0
684.62,97.0
684.68,139.0
684.75,141.0
684.81,132.0
684.87,145.0
684.94,133.0
685.0,113.0
685.06,94.0
685.12,125.0
685.19,140.0
685.25,145.0
685.31,150.0
685.38,131.0
685.44,147.0
685.5,142.0
685.57,132.0
685.63,125.0
685.69,119.0
685.75,145.0
685.82,153.0
685.88,162.0
685.94,154.0
686.01,161.0
686.07,139.0
686.13,126.0
686.2,135.0
686.26,138.0
686.32,139.0
686.38,117.0
686.45,132.0
686.51,123.0
686.57,115.0
686.64,131.0
686.7,127.0
686.76,121.0
686.83,129.0
686.89,138.0
686.95,139.0
687.01,144.0
687.08,134.0
687.14,143.0
687.2,137.0
687.27,146.0
687.33,139.0
687.39,142.0
687.46,158.0
687.52,147.0
687.58,136.0
687.64,135.0
687.71,146.0
687.77,143.0
687.83,157.0
687.9,140.0
687.96,125.0
688.02,131.0
688.09,118.0
688.15,122.0
688.21,129.0
688.27,156.0
688.34,168.0
688.4,150.0
688.46,151.0
688.53,142.0
688.59,150.0
688.65,173.0
688.72,181.0
688.78,162.0
688.84,170.0
688.9,186.0
688.97,175.0
689.03,170.0
689.09,164.0
689.16,170.0
689.22,177.0
689.28,154.0
689.35,170.0
689.41,172.0
689.47,175.0
689.53,172.0
689.6,183.0
689.66,198.0
689.72,176.0
689.79,156.0
689.85,167.0
689.91,154.0
689.98,143.0
690.04,136.0
690.1,150.0
690.16,139.0
690.23,145.0
690.29,114.0
690.35,131.0
690.42,129.0
690.48,131.0
690.54,117.0
690.61,120.0
690.67,150.0
690.73,132.0
690.79,143.0
690.86,152.0
690.92,143.0
690.98,139.0
691.05,130.0
691.11,133.0
691.17,135.0
691.24,123.0
691.3,120.0
691.36,151.0
691.42,124.0
691.49,121.0
691.55,129.0
691.61,123.0
691.68,139.0
691.74,132.0
691.8,131.0
691.87,141.0
691.93,134.0
691.99,125.0
692.05,106.0
692.12,129.0
692.18,126.0
692.24,131.0
692.31,128.0
692.37,126.0
692.43,123.0
692.5,123.0
692.56,122.0
692.62,121.0
692.68,117.0
692.75,134.0
692.81,102.0
692.87,109.0
692.94,105.0
693.0,114.0
693.06,112.0
693.13,98.0
693.19,82.0
693.25,83.0
693.31,92.0
693.38,98.0
693.44,95.0
693.5,114.0
693.57,102.0
693.63,80.0
693.69,92.0
693.76,97.0
693.82,88.0
693.88,88.0
693.94,98.0
694.01,84.0
694.07,77.0
694.13,85.0
694.2,98.0
694.26,98.0
694.32,102.0
694.39,97.0
694.45,95.0
694.51,90.0
694.57,82.0
694.64,90.0
694.7,77.0
694.76,92.0
694.83,69.0
694.89,85.0
694.95,67.0
695.02,65.0
695.08,69.0
695.14,62.0
695.2,65.0
695.27,54.0
695.33,62.0
695.39,70.0
695.46,55.0
695.52,56.0
695.58,62.0
695.65,59.0
695.71,58.0
695.77,43.0
695.83,32.0
695.9,55.0
695.96,63.0
696.02,23.0
696.09,44.0
696.15,49.0
696.21,44.0
696.28,50.0
696.34,35.0
696.4,43.0
696.46,53.0
696.53,55.0
696.59,60.0
696.65,81.0
696.72,66.0
696.78,66.0
696.84,69.0
696.91,70.0
696.97,83.0
697.03,76.0
697.09,84.0
697.16,75.0
697.22,68.0
697.28,77.0
697.35,62.0
697.41,65.0
697.47,65.0
697.54,71.0
697.6,65.0
697.66,63.0
697.72,92.0
697.79,108.0
697.85,82.0
697.91,102.0
697.98,113.0
698.04,103.0
698.1,106.0
698.17,99.0
698.23,115.0
698.29,135.0
698.35,113.0
698.42,103.0
698.48,135.0
698.54,121.0
698.61,109.0
698.67,117.0
698.73,115.0
698.8,137.0
698.86,142.0
698.92,140.0
698.98,139.0
699.05,132.0
699.11,131.0
699.17,140.0
699.24,131.0
699.3,118.0
699.36,140.0
699.43,128.0
699.49,133.0
699.55,137.0
699.61,147.0
699.68,140.0
699.74,117.0
699.8,142.0
699.87,118.0
699.93,127.0
699.99,144.0
700.06,150.0
700.12,147.0
700.18,140.0
700.24,132.0
700.31,135.0
700.37,115.0
700.43,135.0
700.5,124.0
700.56,99.0
700.62,108.0
700.69,99.0
700.75,88.0
700.81,104.0
700.87,106.0
700.94,93.0
701.0,86.0
701.06,90.0
701.13,96.0
701.19,74.0
701.25,78.0
701.32,66.0
701.38,58.0
701.44,73.0
701.5,76.0
701.57,85.0
701.63,85.0
701.69,69.0
701.76,77.0
701.82,70.0
701.88,60.0
701.95,79.0
702.01,79.0
702.07,66.0
702.13,84.0
702.2,84.0
702.26,85.0
702.32,91.0
702.39,77.0
702.45,87.0
702.51,80.0
702.58,89.0
702.64,81.0
702.7,83.0
702.76,88.0
702.83,65.0
702.89,68.0
702.95,71.0
703.02,69.0
703.08,70.0
703.14,74.0
703.21,77.0
703.27,73.0
703.33,81.0
703.39,86.0
703.46,110.0
703.52,101.0
703.58,82.0
703.65,101.0
703.71,115.0
703.77,99.0
703.84,121.0
703.9,123.0
703.96,117.0
704.02,114.0
704.09,115.0
704.15,115.0
704.21,124.0
704.28,130.0
704.34,116.0
704.4,116.0
704.47,118.0
704.53,117.0
704.59,119.0
704.65,114.0
704.72,120.0
704.78,108.0
704.84,117.0
704.91,132.0
704.97,117.0
705.03,116.0
705.1,121.0
705.16,126.0
705.22,128.0
705.28,135.0
705.35,132.0
705.41,126.0
705.47,139.0
705.54,136.0
705.6,136.0
705.66,136.0
705.73,151.0
705.79,150.0
705.85,148.0
705.91,166.0
705.98,150.0
706.04,158.0
706.1,175.0
706.17,154.0
706.23,180.0
706.29,154.0
706.36,139.0
706.42,156.0
706.48,150.0
706.54,179.0
706.61,167.0
706.67,178.0
706.73,178.0
706.8,172.0
706.86,183.0
706.92,164.0
706.99,170.0
707.05,153.0
707.11,167.0
707.17,154.0
707.24,152.0
707.3,166.0
707.36,161.0
707.43,170.0
707.49,158.0
707.55,158.0
707.62,151.0
707.68,165.0
707.74,162.0
707.8,167.0
707.87,151.0
707.93,163.0
707.99,150.0
708.06,132.0
708.12,151.0
708.18,164.0
708.25,160.0
708.31,172.0
708.37,150.0
708.43,146.0
708.5,134.0
708.56,140.0
708.62,132.0
708.69,155.0
708.75,122.0
708.81,131.0
708.88,142.0
708.94,154.0
709.0,164.0
709.06,145.0
709.13,140.0
709.19,147.0
709.25,162.0
709.32,134.0
709.38,123.0
709.44,123.0
709.51,125.0
709.57,132.0
709.63,104.0
709.69,105.0
709.76,100.0
709.82,106.0
709.88,104.0
709.95,86.0
710.01,90.0
710.07,77.0
710.14,99.0
710.2,80.0
710.26,64.0
710.32,79.0
710.39,61.0
710.45,69.0
710.51,48.0
710.58,60.0
710.64,69.0
710.7,62.0
710.77,38.0
710.83,49.0
710.89,44.0
710.95,28.0
711.02,42.0
711.08,38.0
711.14,59.0
711.21,57.0
711.27,34.0
711.33,29.0
711.4,39.0
711.46,32.0
711.52,22.0
711.58,43.0
711.65,54.0
711.71,40.0
711.77,47.0
711.84,49.0
711.9,69.0
711.96,37.0
712.03,23.0
712.09,62.0
712.15,56.0
712.21,36.0
712.28,65.0
712.34,99.0
712.4,74.0
712.47,69.0
712.53,69.0
712.59,69.0
712.66,58.0
712.72,44.0
712.78,54.0
712.84,48.0
712.91,64.0
712.97,63.0
713.03,65.0
713.1,52.0
713.16,53.0
713.22,64.0
713.29,71.0
713.35,60.0
713.41,74.0
713.47,84.0
713.54,73.0
713.6,84.0
713.66,106.0
713.73,88.0
713.79,84.0
713.85,93.0
713.92,114.0
713.98,109.0
714.04,102.0
714.1,100.0
714.17,101.0
714.23,118.0
714.29,109.0
714.36,132.0
714.42,129.0
714.48,147.0
714.55,135.0
714.61,140.0
714.67,159.0
714.73,139.0
714.8,178.0
714.86,157.0
714.92,162.0
714.99,183.0
715.05,182.0
715.11,175.0
715.18,168.0
715.24,144.0
715.3,136.0
715.36,155.0
715.43,159.0
715.49,164.0
715.55,168.0
715.62,161.0
715.68,156.0
715.74,158.0
715.81,159.0
715.87,161.0
715.93,155.0
715.99,170.0
716.06,174.0
716.12,176.0
716.18,157.0
716.25,157.0
716.31,201.0
716.37,181.0
716.44,168.0
716.5,159.0
716.56,167.0
716.62,176.0
716.69,174.0
716.75,157.0
716.81,146.0
716.88,129.0
716.94,127.0
717.0,134.0
717.07,138.0
717.13,142.0
717.19,142.0
717.25,156.0
717.32,157.0
717.38,152.0
717.44,136.0
717.51,152.0
717.57,164.0
717.63,160.0
717.7,170.0
717.76,154.0
717.82,160.0
717.88,180.0
717.95,198.0
718.01,179.0
718.07,194.0
718.14,197.0
718.2,199.0
718.26,202.0
718.33,210.0
718.39,191.0
718.45,198.0
718.51,193.0
718.58,195.0
718.64,198.0
718.7,195.0
718.77,211.0
718.83,187.0
718.89,180.0
718.96,175.0
719.02,174.0
719.08,164.0
719.14,158.0
719.21,180.0
719.27,163.0
719.33,154.0
719.4,159.0
719.46,162.0
719.52,153.0
719.59,161.0
719.65,150.0
719.71,168.0
719.77,164.0
719.84,175.0
719.9,189.0
719.96,185.0
720.03,167.0
720.09,164.0
720.15,167.0
720.22,166.0
720.28,182.0
720.34,175.0
720.4,172.0
720.47,170.0
720.53,164.0
720.59,187.0
720.66,208.0
720.72,201.0
720.78,194.0
720.85,182.0
720.91,182.0
720.97,184.0
721.03,198.0
721.1,202.0
721.16,203.0
721.22,194.0
721.29,202.0
721.35,208.0
721.41,206.0
721.48,230.0
721.54,211.0
721.6,212.0
721.66,222.0
721.73,213.0
721.79,205.0
721.85,189.0
721.92,212.0
721.98,213.0
722.04,217.0
722.11,225.0
722.17,244.0
722.23,234.0
722.29,211.0
722.36,247.0
722.42,223.0
722.48,217.0
722.55,228.0
722.61,231.0
722.67,231.0
722.74,243.0
722.8,230.0
722.86,217.0
722.92,219.0
722.99,229.0
723.05,233.0
723.11,219.0
723.18,249.0
723.24,228.0
723.3,223.0
723.37,208.0
723.43,208.0
723.49,202.0
723.55,195.0
723.62,183.0
723.68,184.0
723.74,187.0
723.81,195.0
723.87,197.0
723.93,191.0
724.0,183.0
724.06,188.0
724.12,201.0
724.18,192.0
724.25,191.0
724.31,178.0
724.37,170.0
724.44,168.0
724.5,148.0
724.56,148.0
724.63,159.0
724.69,155.0
724.75,140.0
724.81,152.0
724.88,150.0
724.94,129.0
725.0,140.0
725.07,143.0
725.13,148.0
725.19,177.0
725.26,173.0
725.32,183.0
725.38,167.0
725.44,157.0
725.51,154.0
725.57,136.0
725.63,165.0
725.7,153.0
725.76,139.0
725.82,128.0
725.89,123.0
725.95,120.0
726.01,107.0
726.07,136.0
726.14,153.0
726.2,143.0
726.26,144.0
726.33,156.0
726.39,151.0
726.45,142.0
726.52,105.0
726.58,84.0
726.64,103.0
726.7,99.0
726.77,108.0
726.83,109.0
726.89,109.0
726.96,114.0
727.02,94.0
727.08,99.0
727.15,98.0
727.21,107.0
727.27,96.0
727.33,98.0
727.4,95.0
727.46,104.0
727.52,103.0
727.59,86.0
727.65,73.0
727.71,84.0
727.78,78.0
727.84,63.0
727.9,91.0
727.96,85.0
728.03,95.0
728.09,77.0
728.15,77.0
728.22,73.0
728.28,91.0
728.34,81.0
728.41,66.0
728.47,62.0
728.53,58.0
728.59,54.0
728.66,57.0
728.72,47.0
728.78,48.0
728.85,46.0
728.91,36.0
728.97,37.0
729.04,65.0
729.1,54.0
729.16,45.0
729.22,55.0
729.29,46.0
729.35,47.0
729.41,54.0
729.48,49.0
729.54,30.0
729.6,29.0
729.67,40.0
729.73,44.0
729.79,31.0
729.85,41.0
729.92,61.0
729.98,38.0
730.04,40.0
730.11,36.0
730.17,28.0
730.23,48.0
730.3,29.0
730.36,25.0
730.42,41.0
730.48,30.0
730.55,28.0
730.61,38.0
730.67,40.0
730.74,49.0
730.8,51.0
730.86,45.0
730.93,45.0
730.99,41.0
731.05,67.0
731.11,52.0
731.18,76.0
731.24,68.0
731.3,40.0
731.37,58.0
731.43,51.0
731.49,66.0
731.56,51.0
731.62,70.0
731.68,74.0
731.74,61.0
731.81,60.0
731.87,69.0
731.93,75.0
732.0,66.0
732.06,80.0
732.12,70.0
732.19,56.0
732.25,73.0
732.31,73.0
732.37,67.0
732.44,90.0
732.5,78.0
732.56,104.0
732.63,116.0
732.69,98.0
732.75,101.0
732.82,92.0
732.88,125.0
732.94,115.0
733.0,107.0
733.07,120.0
733.13,122.0
733.19,118.0
733.26,121.0
733.32,135.0
733.38,128.0
733.45,116.0
733.51,130.0
733.57,116.0
733.63,120.0
733.7,120.0
733.76,124.0
733.82,126.0
733.89,122.0
733.95,109.0
734.01,119.0
734.08,123.0
734.14,132.0
734.2,127.0
734.26,132.0
734.33,126.0
734.39,118.0
734.45,114.0
734.52,123.0
734.58,110.0
734.64,102.0
734.71,119.0
734.77,129.0
734.83,120.0
734.89,135.0
734.96,126.0
735.02,126.0
735.08,153.0
735.15,150.0
735.21,136.0
735.27,129.0
735.34,126.0
735.4,132.0
735.46,116.0
735.52,123.0
735.59,113.0
735.65,122.0
735.71,124.0
735.78,107.0
735.84,131.0
735.9,101.0
735.97,101.0
736.03,109.0
736.09,128.0
736.15,122.0
736.22,104.0
736.28,99.0
736.34,102.0
736.41,89.0
736.47,81.0
736.53,82.0
736.6,107.0
736.66,127.0
736.72,107.0
736.78,105.0
736.85,124.0
736.91,129.0
736.97,127.0
737.04,117.0
737.1,137.0
737.16,119.0
737.23,113.0
737.29,130.0
737.35,124.0
737.41,131.0
737.48,121.0
737.54,134.0
737.6,163.0
737.67,154.0
737.73,156.0
737.79,171.0
737.86,169.0
737.92,169.0
737.98,189.0
738.04,179.0
738.11,162.0
738.17,164.0
738.23,166.0
738.3,186.0
738.36,179.0
738.42,183.0
738.49,165.0
738.55,181.0
738.61,189.0
738.67,188.0
738.74,211.0
738.8,178.0
738.86,183.0
738.93,187.0
738.99,178.0
739.05,193.0
739.12,180.0
739.18,171.0
739.24,169.0
739.3,184.0
739.37,202.0
739.43,209.0
739.49,195.0
739.56,175.0
739.62,196.0
739.68,179.0
739.75,165.0
739.81,171.0
739.87,174.0
739.93,175.0
740.0,173.0
740.06,183.0
740.12,189.0
740.19,176.0
740.25,179.0
740.31,182.0
740.38,176.0
740.44,181.0
740.5,166.0
740.56,200.0
740.63,184.0
740.69,204.0
740.75,189.0
740.82,166.0
740.88,179.0
740.94,179.0
741.01,192.0
741.07,192.0
741.13,190.0
741.19,189.0
741.26,189.0
741.32,183.0
741.38,197.0
741.45,173.0
741.51,181.0
741.57,201.0
741.64,205.0
741.7,209.0
741.76,196.0
741.82,196.0
741.89,200.0
741.95,192.0
742.01,172.0
742.08,183.0
742.14,168.0
742.2,186.0
742.27,181.0
742.33,152.0
742.39,176.0
742.45,189.0
742.52,160.0
742.58,173.0
742.64,167.0
742.71,155.0
742.77,162.0
742.83,166.0
742.9,158.0
742.96,143.0
743.02,148.0
743.08,162.0
743.15,151.0
743.21,141.0
743.27,166.0
743.34,173.0
743.4,158.0
743.46,156.0
743.53,172.0
743.59,178.0
743.65,144.0
743.71,140.0
743.78,142.0
743.84,117.0
743.9,132.0
743.97,132.0
744.03,117.0
744.09,146.0
744.16,145.0
744.22,123.0
744.28,130.0
744.34,120.0
744.41,126.0
744.47,120.0
744.53,150.0
744.6,157.0
744.66,124.0
744.72,146.0
744.79,135.0
744.85,131.0
744.91,139.0
744.97,138.0
745.04,156.0
745.1,134.0
745.16,137.0
745.23,142.0
745.29,127.0
745.35,109.0
745.42,121.0
745.48,118.0
745.54,109.0
745.6,118.0
745.67,128.0
745.73,115.0
745.79,121.0
745.86,106.0
745.92,97.0
745.98,104.0
746.05,104.0
746.11,94.0
746.17,69.0
746.23,82.0
746.3,99.0
746.36,110.0
746.42,93.0
746.49,95.0
746.55,77.0
746.61,79.0
746.68,82.0
746.74,78.0
746.8,73.0
746.86,81.0
746.93,74.0
746.99,70.0
747.05,82.0
747.12,83.0
747.18,77.0
747.24,107.0
747.31,78.0
747.37,86.0
747.43,100.0
747.49,93.0
747.56,82.0
747.62,93.0
747.68,82.0
747.75,106.0
747.81,96.0
747.87,101.0
747.94,84.0
748.0,106.0
748.06,90.0
748.12,77.0
748.19,101.0
748.25,77.0
748.31,94.0
748.38,101.0
748.44,91.0
748.5,115.0
748.57,113.0
748.63,114.0
748.69,111.0
748.75,108.0
748.82,107.0
748.88,106.0
748.94,124.0
749.01,136.0
749.07,137.0
749.13,145.0
749.2,156.0
749.26,152.0
749.32,156.0
749.38,133.0
749.45,124.0
749.51,121.0
749.57,146.0
749.64,139.0
749.7,134.0
749.76,145.0
749.83,159.0
749.89,154.0
749.95,132.0
750.01,123.0
750.08,154.0
750.14,143.0
750.2,129.0
750.27,129.0
750.33,129.0
750.39,132.0
750.46,139.0
750.52,130.0
750.58,120.0
750.64,118.0
750.71,110.0
750.77,123.0
750.83,135.0
750.9,121.0
750.96,126.0
751.02,124.0
751.09,132.0
751.15,135.0
751.21,131.0
751.27,128.0
751.34,124.0
751.4,124.0
751.46,141.0
751.53,137.0
751.59,119.0
751.65,125.0
751.72,137.0
751.78,135.0
751.84,141.0
751.9,137.0
751.97,124.0
752.03,142.0
752.09,156.0
752.16,152.0
752.22,150.0
752.28,132.0
752.35,136.0
752.41,132.0
752.47,122.0
752.53,115.0
752.6,111.0
752.66,146.0
752.72,116.0
752.79,129.0
752.85,115.0
752.91,118.0
752.98,131.0
753.04,112.0
753.1,128.0
753.16,110.0
753.23,113.0
753.29,121.0
753.35,112.0
753.42,81.0
753.48,94.0
753.54,117.0
753.61,112.0
753.67,102.0
753.73,85.0
753.79,79.0
753.86,90.0
753.92,88.0
753.98,112.0
754.05,114.0
754.11,106.0
754.17,124.0
754.24,119.0
754.3,119.0
754.36,129.0
754.42,145.0
754.49,142.0
754.55,131.0
754.61,145.0
754.68,147.0
754.74,162.0
754.8,158.0
754.87,146.0
754.93,161.0
754.99,152.0
755.05,147.0
755.12,158.0
755.18,159.0
755.24,151.0
755.31,165.0
755.37,154.0
755.43,151.0
755.5,162.0
755.56,150.0
755.62,159.0
755.68,140.0
755.75,141.0
755.81,158.0
755.87,150.0
755.94,134.0
756.0,136.0
756.06,146.0
756.13,137.0
756.19,140.0
756.25,150.0
756.31,131.0
756.38,137.0
756.44,148.0
756.5,133.0
756.57,126.0
756.63,125.0
756.69,137.0
756.76,120.0
756.82,131.0
756.88,113.0
756.94,131.0
757.01,134.0
757.07,143.0
757.13,146.0
757.2,140.0
757.26,155.0
757.32,126.0
757.39,121.0
757.45,143.0
757.51,139.0
757.57,123.0
757.64,125.0
757.7,136.0
757.76,131.0
757.83,144.0
757.89,130.0
757.95,137.0
758.02,135.0
758.08,126.0
758.14,126.0
758.2,95.0
758.27,103.0
758.33,120.0
758.39,95.0
758.46,98.0
758.52,109.0
758.58,90.0
758.65,92.0
758.71,108.0
758.77,98.0
758.83,113.0
758.9,103.0
758.96,108.0
759.02,98.0
759.09,91.0
759.15,114.0
759.21,79.0
759.28,88.0
759.34,84.0
759.4,66.0
759.46,79.0
759.53,80.0
759.59,70.0
759.65,87.0
759.72,87.0
759.78,65.0
759.84,106.0
759.91,111.0
759.97,106.0
760.03,115.0
760.09,109.0
760.16,102.0
760.22,101.0
760.28,99.0
760.35,90.0
760.41,55.0
760.47,57.0
760.54,69.0
760.6,75.0
760.66,75.0
760.72,69.0
760.79,93.0
760.85,94.0
760.91,94.0
760.98,88.0
761.04,71.0
761.1,64.0
761.17,65.0
761.23,59.0
761.29,70.0
761.35,46.0
761.42,43.0
761.48,52.0
761.54,52.0
761.61,20.0
761.67,31.0
761.73,37.0
761.8,49.0
761.86,30.0
761.92,35.0
761.98,32.0
762.05,47.0
762.11,41.0
762.17,42.0
762.24,43.0
762.3,38.0
762.36,51.0
762.43,38.0
762.49,43.0
762.55,46.0
762.61,40.0
762.68,40.0
762.74,19.0
762.8,1.0
762.87,11.0
762.93,6.0
762.99,33.0
763.06,51.0
763.12,40.0
763.18,40.0
763.24,48.0
763.31,47.0
763.37,39.0
763.43,56.0
763.5,57.0
763.56,61.0
763.62,43.0
763.69,37.0
763.75,38.0
763.81,24.0
763.87,20.0
763.94,36.0
764.0,25.0
764.06,46.0
764.13,35.0
764.19,39.0
764.25,54.0
764.32,42.0
764.38,64.0
764.44,44.0
764.5,35.0
764.57,30.0
764.63,43.0
764.69,81.0
764.76,73.0
764.82,59.0
764.88,82.0
764.95,80.0
765.01,74.0
765.07,86.0
765.13,77.0
765.2,73.0
765.26,86.0
765.32,70.0
765.39,81.0
765.45,82.0
765.51,72.0
765.58,78.0
765.64,70.0
765.7,70.0
765.76,90.0
765.83,82.0
765.89,69.0
765.95,74.0
766.02,77.0
766.08,85.0
766.14,77.0
766.21,86.0
766.27,88.0
766.33,104.0
766.39,103.0
766.46,88.0
766.52,103.0
766.58,123.0
766.65,112.0
766.71,101.0
766.77,113.0
766.84,109.0
766.9,96.0
766.96,118.0
767.02,134.0
767.09,117.0
767.15,119.0
767.21,105.0
767.28,105.0
767.34,116.0
767.4,112.0
767.47,82.0
767.53,88.0
767.59,115.0
767.65,110.0
767.72,95.0
767.78,92.0
767.84,89.0
767.91,103.0
767.97,118.0
768.03,90.0
768.1,105.0
768.16,129.0
768.22,94.0
768.28,110.0
768.35,103.0
768.41,117.0
768.47,139.0
768.54,140.0
768.6,139.0
768.66,138.0
768.73,143.0
768.79,118.0
768.85,124.0
768.91,124.0
768.98,107.0
769.04,117.0
769.1,123.0
769.17,143.0
769.23,139.0
769.29,123.0
769.36,154.0
769.42,120.0
769.48,118.0
769.54,104.0
769.61,99.0
769.67,133.0
769.73,117.0
769.8,120.0
769.86,121.0
769.92,124.0
769.99,131.0
770.05,123.0
770.11,136.0
770.17,136.0
770.24,157.0
770.3,163.0
770.36,147.0
770.43,165.0
770.49,154.0
770.55,150.0
770.62,163.0
770.68,187.0
770.74,169.0
770.8,167.0
770.87,174.0
770.93,163.0
770.99,182.0
771.06,187.0
771.12,215.0
771.18,202.0
771.25,199.0
771.31,213.0
771.37,219.0
771.43,217.0
771.5,204.0
771.56,204.0
771.62,195.0
771.69,213.0
771.75,217.0
771.81,213.0
771.88,211.0
771.94,217.0
772.0,210.0
772.06,198.0
772.13,202.0
772.19,212.0
772.25,203.0
772.32,210.0
772.38,214.0
772.44,220.0
772.51,222.0
772.57,224.0
772.63,213.0
772.69,212.0
772.76,200.0
772.82,207.0
772.88,187.0
772.95,186.0
773.01,218.0
773.07,233.0
773.14,228.0
773.2,187.0
773.26,189.0
773.32,212.0
773.39,220.0
773.45,209.0
773.51,209.0
773.58,217.0
773.64,214.0
773.7,208.0
773.77,197.0
773.83,200.0
773.89,184.0
773.95,199.0
774.02,205.0
774.08,208.0
774.14,206.0
774.21,215.0
774.27,199.0
774.33,204.0
774.4,211.0
774.46,189.0
774.52,210.0
774.58,205.0
774.65,212.0
774.71,200.0
774.77,216.0
774.84,199.0
774.9,167.0
774.96,183.0
775.03,182.0
775.09,186.0
775.15,199.0
775.21,171.0
775.28,168.0
775.34,162.0
775.4,159.0
775.47,189.0
775.53,183.0
775.59,187.0
775.66,179.0
775.72,167.0
775.78,166.0
775.84,152.0
775.91,157.0
775.97,180.0
776.03,175.0
776.1,179.0
776.16,173.0
776.22,148.0
776.29,137.0
776.35,132.0
776.41,124.0
776.47,128.0
776.54,128.0
776.6,123.0
776.66,139.0
776.73,111.0
776.79,109.0
776.85,124.0
776.92,136.0
776.98,132.0
777.04,117.0
777.1,121.0
777.17,111.0
777.23,112.0
777.29,109.0
777.36,83.0
777.42,118.0
777.48,104.0
777.55,85.0
777.61,81.0
777.67,97.0
777.73,98.0
777.8,96.0
777.86,112.0
777.92,106.0
777.99,109.0
778.05,89.0
778.11,68.0
778.18,81.0
778.24,83.0
778.3,45.0
778.36,43.0
778.43,37.0
778.49,58.0
778.55,29.0
778.62,46.0
778.68,40.0
778.74,37.0
778.81,29.0
778.87,40.0
778.93,42.0
778.99,61.0
779.06,46.0
779.12,39.0
779.18,32.0
779.25,45.0
779.31,37.0
779.37,18.0
779.44,28.0
779.5,25.0
779.56,25.0
779.62,30.0
779.69,22.0
779.75,25.0
779.81,22.0
779.88,37.0
779.94,26.0
780.0,30.0
780.07,17.0
780.13,41.0
780.19,-3.0
780.25,7.0
780.32,17.0
780.38,24.0
780.44,24.0
780.51,10.0
780.57,28.0
780.63,31.0
780.7,30.0
780.76,21.0
780.82,9.0
780.88,10.0
780.95,5.0
781.01,27.0
781.07,33.0
781.14,6.0
781.2,9.0
781.26,16.0
781.33,-1.0
781.39,2.0
781.45,5.0
781.51,26.0
781.58,13.0
781.64,24.0
781.7,29.0
781.77,64.0
781.83,61.0
781.89,64.0
781.96,62.0
782.02,55.0
782.08,50.0
782.14,41.0
782.21,30.0
782.27,54.0
782.33,40.0
782.4,41.0
782.46,58.0
782.52,35.0
782.59,17.0
782.65,22.0
782.71,24.0
782.77,24.0
782.84,26.0
782.9,35.0
782.96,31.0
783.03,28.0
783.09,41.0
783.15,52.0
783.22,50.0
783.28,46.0
783.34,61.0
783.4,38.0
783.47,33.0
783.53,52.0
783.59,36.0
783.66,61.0
783.72,63.0
783.78,47.0
783.85,52.0
783.91,49.0
783.97,43.0
784.03,53.0
784.1,63.0
784.16,54.0
784.22,44.0
784.29,68.0
784.35,62.0
784.41,68.0
784.48,53.0
784.54,58.0
784.6,65.0
784.66,61.0
784.73,53.0
784.79,55.0
784.85,61.0
784.92,54.0
784.98,65.0
785.04,52.0
785.11,52.0
785.17,56.0
785.23,57.0
785.29,58.0
785.36,49.0
785.42,81.0
785.48,64.0
785.55,60.0
785.61,71.0
785.67,66.0
785.74,81.0
785.8,71.0
785.86,59.0
785.92,65.0
785.99,66.0
786.05,58.0
786.11,76.0
786.18,99.0
786.24,85.0
786.3,83.0
786.37,100.0
786.43,77.0
786.49,85.0
786.55,81.0
786.62,81.0
786.68,72.0
786.74,63.0
786.81,70.0
786.87,93.0
786.93,115.0
787.0,107.0
787.06,88.0
787.12,97.0
787.18,72.0
787.25,61.0
787.31,80.0
787.37,97.0
787.44,94.0
787.5,101.0
787.56,78.0
787.63,74.0
787.69,89.0
787.75,107.0
787.81,105.0
787.88,97.0
787.94,79.0
788.0,88.0
788.07,99.0
788.13,102.0
788.19,123.0
788.26,145.0
788.32,135.0
788.38,146.0
788.44,153.0
788.51,142.0
788.57,145.0
788.63,142.0
788.7,146.0
788.76,150.0
788.82,146.0
788.89,132.0
788.95,147.0
789.01,138.0
789.07,121.0
789.14,143.0
789.2,165.0
789.26,168.0
789.33,152.0
789.39,165.0
789.45,146.0
789.52,145.0
789.58,152.0
789.64,140.0
789.7,168.0
789.77,152.0
789.83,158.0
789.89,148.0
789.96,169.0
790.02,176.0
790.08,169.0
790.15,150.0
790.21,164.0
790.27,179.0
790.33,172.0
790.4,174.0
790.46,176.0
790.52,158.0
790.59,170.0
790.65,203.0
790.71,190.0
790.78,197.0
790.84,184.0
790.9,182.0
790.96,167.0
791.03,193.0
791.09,181.0
791.15,173.0
791.22,182.0
791.28,170.0
791.34,202.0
791.41,177.0
791.47,194.0
791.53,190.0
791.59,194.0
791.66,221.0
791.72,223.0
791.78,219.0
791.85,222.0
791.91,217.0
791.97,216.0
792.04,206.0
792.1,220.0
792.16,200.0
792.22,201.0
792.29,204.0
792.35,212.0
792.41,200.0
792.48,170.0
792.54,161.0
792.6,170.0
792.67,178.0
792.73,167.0
792.79,151.0
792.85,178.0
792.92,181.0
792.98,180.0
793.04,167.0
793.11,178.0
793.17,178.0
793.23,197.0
793.3,173.0
793.36,148.0
793.42,161.0
793.48,154.0
793.55,146.0
793.61,133.0
793.67,149.0
793.74,138.0
793.8,108.0
793.86,114.0
793.93,114.0
793.99,127.0
794.05,127.0
794.11,120.0
794.18,120.0
794.24,115.0
794.3,110.0
794.37,99.0
794.43,105.0
794.49,87.0
794.56,87.0
794.62,89.0
794.68,91.0
794.74,98.0
794.81,78.0
794.87,87.0
794.93,83.0
795.0,88.0
795.06,98.0
795.12,105.0
795.19,105.0
795.25,106.0
795.31,130.0
795.37,112.0
795.44,101.0
795.5,104.0
795.56,93.0
795.63,127.0
795.69,120.0
795.75,119.0
795.82,127.0
795.88,89.0
795.94,89.0
796.0,88.0
796.07,73.0
796.13,77.0
796.19,67.0
796.26,60.0
796.32,60.0
796.38,81.0
796.45,110.0
796.51,84.0
796.57,95.0
796.63,110.0
796.7,102.0
796.76,90.0
796.82,83.0
796.89,83.0
796.95,85.0
797.01,62.0
797.08,71.0
797.14,71.0
797.2,82.0
797.26,85.0
797.33,94.0
797.39,97.0
797.45,109.0
797.52,96.0
797.58,113.0
797.64,83.0
797.71,95.0
797.77,121.0
797.83,95.0
797.89,84.0
797.96,64.0
798.02,81.0
798.08,79.0
798.15,86.0
798.21,88.0
798.27,97.0
798.34,84.0
798.4,86.0
798.46,91.0
798.52,71.0
798.59,91.0
798.65,76.0
798.71,82.0
798.78,87.0
798.84,83.0
798.9,83.0
798.97,80.0
799.03,105.0
799.09,90.0
799.15,92.0
799.22,100.0
799.28,118.0
799.34,108.0
799.41,111.0
799.47,100.0
799.53,101.0
799.6,118.0
799.66,123.0
799.72,112.0
799.78,128.0
799.85,133.0
799.91,110.0
799.97,120.0
800.04,116.0
800.1,138.0
800.16,134.0
800.23,119.0
800.29,123.0
800.35,138.0
800.41,123.0
800.48,103.0
800.54,96.0
800.6,96.0
800.67,113.0
800.73,123.0
800.79,130.0
800.86,142.0
800.92,117.0
800.98,113.0
801.04,112.0
801.11,105.0
801.17,127.0
801.23,126.0
801.3,133.0
801.36,113.0
801.42,120.0
801.49,149.0
801.55,139.0
801.61,111.0
801.67,109.0
801.74,108.0
801.8,101.0
801.86,123.0
801.93,105.0
801.99,98.0
802.05,116.0
802.12,121.0
802.18,117.0
802.24,124.0
802.3,134.0
802.37,124.0
802.43,127.0
802.49,115.0
802.56,113.0
802.62,100.0
802.68,108.0
802.75,101.0
802.81,71.0
802.87,72.0
802.93,89.0
803.0,94.0
803.06,109.0
803.12,90.0
803.19,80.0
803.25,82.0
803.31,66.0
803.38,61.0
803.44,91.0
803.5,97.0
803.56,94.0
803.63,108.0
803.69,99.0
803.75,126.0
803.82,111.0
803.88,123.0
803.94,102.0
804.01,85.0
804.07,96.0
804.13,93.0
804.19,85.0
804.26,94.0
804.32,110.0
804.38,104.0
804.45,119.0
804.51,146.0
804.57,141.0
804.64,141.0
804.7,139.0
804.76,141.0
804.82,143.0
804.89,138.0
804.95,160.0
805.01,163.0
805.08,153.0
805.14,145.0
805.2,134.0
805.27,137.0
805.33,159.0
805.39,133.0
805.45,142.0
805.52,127.0
805.58,108.0
805.64,128.0
805.71,138.0
805.77,128.0
805.83,142.0
805.9,137.0
805.96,149.0
806.02,138.0
806.08,126.0
806.15,123.0
806.21,112.0
806.27,124.0
806.34,138.0
806.4,138.0
806.46,121.0
806.53,119.0
806.59,121.0
806.65,120.0
806.71,127.0
806.78,120.0
806.84,123.0
806.9,143.0
806.97,146.0
807.03,135.0
807.09,135.0
807.16,138.0
807.22,153.0
807.28,157.0
807.34,156.0
807.41,167.0
807.47,168.0
807.53,153.0
807.6,168.0
807.66,175.0
807.72,154.0
807.79,157.0
807.85,170.0
807.91,150.0
807.97,141.0
808.04,149.0
808.1,151.0
808.16,140.0
808.23,151.0
808.29,143.0
808.35,156.0
808.42,134.0
808.48,158.0
808.54,138.0
808.6,148.0
808.67,158.0
808.73,131.0
808.79,139.0
808.86,143.0
808.92,146.0
808.98,128.0
809.05,130.0
809.11,131.0
809.17,129.0
809.23,139.0
809.3,138.0
809.36,136.0
809.42,137.0
809.49,125.0
809.55,129.0
809.61,138.0
809.68,133.0
809.74,141.0
809.8,140.0
809.86,148.0
809.93,176.0
809.99,136.0
810.05,118.0
810.12,105.0
810.18,112.0
810.24,111.0
810.31,87.0
810.37,112.0
810.43,108.0
810.49,113.0
810.56,110.0
810.62,106.0
810.68,86.0
810.75,89.0
810.81,85.0
810.87,77.0
810.94,96.0
811.0,94.0
811.06,103.0
811.12,116.0
811.19,86.0
811.25,101.0
811.31,92.0
811.38,88.0
811.44,100.0
811.5,87.0
811.57,82.0
811.63,85.0
811.69,62.0
811.75,65.0
811.82,84.0
811.88,85.0
811.94,79.0
812.01,78.0
812.07,85.0
812.13,84.0
812.2,63.0
812.26,66.0
812.32,61.0
812.38,53.0
812.45,62.0
812.51,57.0
812.57,60.0
812.64,42.0
812.7,34.0
812.76,39.0
812.83,55.0
812.89,48.0
812.95,32.0
813.01,35.0
813.08,45.0
813.14,31.0
813.2,35.0
813.27,35.0
813.33,36.0
813.39,30.0
813.46,42.0
813.52,30.0
813.58,17.0
813.64,39.0
813.71,24.0
813.77,29.0
813.83,46.0
813.9,23.0
813.96,26.0
814.02,37.0
814.09,25.0
814.15,40.0
814.21,25.0
814.27,46.0
814.34,50.0
814.4,26.0
814.46,19.0
814.53,36.0
814.59,47.0
814.65,27.0
814.72,6.0
814.78,19.0
814.84,16.0
814.9,19.0
814.97,30.0
815.03,38.0
815.09,32.0
815.16,28.0
815.22,28.0
815.28,19.0
815.35,13.0
815.41,11.0
815.47,39.0
815.53,30.0
815.6,36.0
815.66,56.0
815.72,51.0
815.79,39.0
815.85,44.0
815.91,52.0
815.98,49.0
816.04,83.0
816.1,71.0
816.16,60.0
816.23,83.0
816.29,33.0
816.35,50.0
816.42,93.0
816.48,73.0
816.54,79.0
816.61,64.0
816.67,44.0
816.73,59.0
816.79,70.0
816.86,73.0
816.92,84.0
816.98,90.0
817.05,86.0
817.11,86.0
817.17,61.0
817.24,57.0
817.3,76.0
817.36,72.0
817.42,70.0
817.49,75.0
817.55,69.0
817.61,87.0
817.68,79.0
817.74,64.0
817.8,72.0
817.87,71.0
817.93,82.0
817.99,68.0
818.05,76.0
818.12,63.0
818.18,72.0
818.24,68.0
818.31,57.0
818.37,50.0
818.43,66.0
818.5,76.0
818.56,73.0
818.62,80.0
818.68,75.0
818.75,65.0
818.81,67.0
818.87,82.0
818.94,68.0
819.0,60.0
819.06,73.0
819.13,58.0
819.19,57.0
819.25,64.0
819.31,75.0
819.38,60.0
819.44,77.0
819.5,80.0
819.57,68.0
819.63,54.0
819.69,41.0
819.76,67.0
819.82,67.0
819.88,76.0
819.94,75.0
820.01,89.0
820.07,102.0
820.13,90.0
820.2,86.0
820.26,90.0
820.32,86.0
820.39,88.0
820.45,107.0
820.51,99.0
820.57,119.0
820.64,134.0
820.7,105.0
820.76,79.0
820.83,87.0
820.89,105.0
820.95,116.0
821.02,138.0
821.08,133.0
821.14,109.0
821.2,145.0
821.27,147.0
821.33,151.0
821.39,153.0
821.46,158.0
821.52,157.0
821.58,137.0
821.65,120.0
821.71,140.0
821.77,137.0
821.83,131.0
821.9,138.0
821.96,146.0
822.02,155.0
822.09,175.0
822.15,189.0
822.21,181.0
822.28,195.0
822.34,157.0
822.4,193.0
822.46,188.0
822.53,200.0
822.59,188.0
822.65,180.0
822.72,207.0
822.78,195.0
822.84,213.0
822.91,206.0
822.97,212.0
823.03,214.0
823.09,206.0
823.16,207.0
823.22,211.0
823.28,230.0
823.35,231.0
823.41,240.0
823.47,246.0
823.54,247.0
823.6,229.0
823.66,220.0
823.72,233.0
823.79,218.0
823.85,232.0
823.91,247.0
823.98,239.0
824.04,225.0
824.1,204.0
824.17,209.0
824.23,211.0
824.29,220.0
824.35,230.0
824.42,222.0
824.48,217.0
824.54,222.0
824.61,237.0
824.67,222.0
824.73,219.0
824.8,209.0
824.86,212.0
824.92,231.0
824.98,231.0
825.05,214.0
825.11,213.0
825.17,228.0
825.24,219.0
825.3,242.0
825.36,229.0
825.43,227.0
825.49,244.0
825.55,240.0
825.61,245.0
825.68,263.0
825.74,242.0
825.8,238.0
825.87,234.0
825.93,227.0
825.99,215.0
826.06,211.0
826.12,205.0
826.18,203.0
826.24,196.0
826.31,206.0
826.37,190.0
826.43,182.0
826.5,216.0
826.56,186.0
826.62,191.0
826.69,209.0
826.75,182.0
826.81,184.0
826.87,187.0
826.94,197.0
827.0,207.0
827.06,204.0
827.13,222.0
827.19,210.0
827.25,208.0
827.32,203.0
827.38,204.0
827.44,184.0
827.5,192.0
827.57,179.0
827.63,166.0
827.69,174.0
827.76,167.0
827.82,179.0
827.88,171.0
827.95,163.0
828.01,162.0
828.07,169.0
828.13,159.0
828.2,135.0
828.26,157.0
828.32,159.0
828.39,143.0
828.45,133.0
828.51,138.0
828.58,134.0
828.64,150.0
828.7,139.0
828.76,155.0
828.83,159.0
828.89,133.0
828.95,135.0
829.02,129.0
829.08,120.0
829.14,129.0
829.21,122.0
829.27,144.0
829.33,133.0
829.39,130.0
829.46,107.0
829.52,120.0
829.58,129.0
829.65,127.0
829.71,104.0
829.77,104.0
829.84,114.0
829.9,105.0
829.96,94.0
830.02,85.0
830.09,90.0
830.15,93.0
830.21,78.0
830.28,70.0
830.34,64.0
830.4,75.0
830.47,62.0
830.53,72.0
830.59,95.0
830.65,89.0
830.72,65.0
830.78,61.0
830.84,62.0
830.91,71.0
830.97,66.0
831.03,58.0
831.1,53.0
831.16,53.0
831.22,45.0
831.28,65.0
831.35,47.0
831.41,55.0
831.47,48.0
831.54,41.0
831.6,57.0
831.66,55.0
831.73,58.0
831.79,47.0
831.85,54.0
831.91,52.0
831.98,51.0
832.04,44.0
832.1,52.0
832.17,68.0
832.23,55.0
832.29,55.0
832.36,26.0
832.42,37.0
832.48,42.0
832.54,38.0
832.61,81.0
832.67,63.0
832.73,52.0
832.8,64.0
832.86,55.0
832.92,39.0
832.99,50.0
833.05,52.0
833.11,53.0
833.17,60.0
833.24,40.0
833.3,50.0
833.36,49.0
833.43,60.0
833.49,60.0
833.55,72.0
833.62,65.0
833.68,42.0
833.74,38.0
833.8,47.0
833.87,94.0
833.93,84.0
833.99,82.0
834.06,70.0
834.12,54.0
834.18,52.0
834.25,40.0
834.31,49.0
834.37,53.0
834.43,58.0
834.5,50.0
834.56,53.0
834.62,54.0
834.69,61.0
834.75,64.0
834.81,62.0
834.88,54.0
834.94,63.0
835.0,76.0
835.06,47.0
835.13,50.0
835.19,57.0
835.25,50.0
835.32,38.0
835.38,38.0
835.44,34.0
835.51,35.0
835.57,58.0
835.63,41.0
835.69,63.0
835.76,50.0
835.82,41.0
835.88,61.0
835.95,80.0
836.01,54.0
836.07,57.0
836.14,61.0
836.2,68.0
836.26,105.0
836.32,86.0
836.39,79.0
836.45,61.0
836.51,56.0
836.58,90.0
836.64,91.0
836.7,110.0
836.77,84.0
836.83,76.0
836.89,94.0
836.95,79.0
837.02,82.0
837.08,74.0
837.14,59.0
837.21,75.0
837.27,59.0
837.33,79.0
837.4,60.0
837.46,57.0
837.52,66.0
837.58,81.0
837.65,101.0
837.71,105.0
837.77,105.0
837.84,77.0
837.9,86.0
837.96,91.0
838.03,94.0
838.09,125.0
838.15,108.0
838.21,123.0
838.28,98.0
838.34,115.0
838.4,127.0
838.47,110.0
838.53,121.0
838.59,119.0
838.66,104.0
838.72,104.0
838.78,118.0
838.84,110.0
838.91,104.0
838.97,107.0
839.03,115.0
839.1,93.0
839.16,122.0
839.22,113.0
839.29,117.0
839.35,120.0
839.41,114.0
839.47,141.0
839.54,134.0
839.6,145.0
839.66,141.0
839.73,136.0
839.79,148.0
839.85,148.0
839.92,144.0
839.98,149.0
840.04,141.0
840.1,121.0
840.17,112.0
840.23,134.0
840.29,167.0
840.36,164.0
840.42,167.0
840.48,153.0
840.55,149.0
840.61,147.0
840.67,131.0
840.73,154.0
840.8,149.0
840.86,148.0
840.92,180.0
840.99,160.0
841.05,152.0
841.11,155.0
841.18,173.0
841.24,189.0
841.3,156.0
841.36,171.0
841.43,178.0
841.49,183.0
841.55,167.0
841.62,154.0
841.68,164.0
841.74,173.0
841.81,171.0
841.87,170.0
841.93,156.0
841.99,182.0
842.06,170.0
842.12,163.0
842.18,163.0
842.25,157.0
842.31,163.0
842.37,168.0
842.44,163.0
842.5,167.0
842.56,163.0
842.62,161.0
842.69,160.0
842.75,165.0
842.81,191.0
842.88,184.0
842.94,186.0
843.0,186.0
843.07,190.0
843.13,175.0
843.19,160.0
843.25,170.0
843.32,180.0
843.38,166.0
843.44,170.0
843.51,162.0
843.57,168.0
843.63,173.0
843.7,182.0
843.76,193.0
843.82,186.0
843.88,177.0
843.95,165.0
844.01,161.0
844.07,181.0
844.14,161.0
844.2,173.0
844.26,163.0
844.33,165.0
844.39,167.0
844.45,184.0
844.51,195.0
844.58,171.0
844.64,169.0
844.7,160.0
844.77,141.0
844.83,147.0
844.89,152.0
844.96,150.0
845.02,127.0
845.08,117.0
845.14,123.0
845.21,119.0
845.27,142.0
845.33,128.0
845.4,119.0
845.46,113.0
845.52,113.0
845.59,108.0
845.65,94.0
845.71,101.0
845.77,69.0
845.84,93.0
845.9,81.0
845.96,72.0
846.03,77.0
846.09,64.0
846.15,82.0
846.22,80.0
846.28,74.0
846.34,65.0
846.4,53.0
846.47,71.0
846.53,60.0
846.59,75.0
846.66,93.0
846.72,97.0
846.78,83.0
846.85,93.0
846.91,63.0
846.97,87.0
847.03,79.0
847.1,101.0
847.16,86.0
847.22,83.0
847.29,83.0
847.35,73.0
847.41,77.0
847.48,90.0
847.54,104.0
847.6,94.0
847.66,86.0
847.73,64.0
847.79,85.0
847.85,90.0
847.92,96.0
847.98,104.0
848.04,115.0
848.11,118.0
848.17,136.0
848.23,127.0
848.29,103.0
848.36,107.0
848.42,123.0
848.48,116.0
848.55,123.0
848.61,139.0
848.67,140.0
848.74,123.0
848.8,120.0
848.86,107.0
848.92,118.0
848.99,124.0
849.05,104.0
849.11,116.0
849.18,120.0
849.24,129.0
849.3,123.0
849.37,134.0
849.43,147.0
849.49,121.0
849.55,121.0
849.62,115.0
849.68,115.0
849.74,91.0
849.81,117.0
849.87,120.0
849.93,95.0
850.0,119.0
850.06,104.0
850.12,117.0
850.18,123.0
850.25,123.0
850.31,119.0
850.37,138.0
850.44,123.0
850.5,137.0
850.56,121.0
850.63,130.0
850.69,134.0
850.75,130.0
850.81,116.0
850.88,116.0
850.94,116.0
851.0,112.0
851.07,112.0
851.13,121.0
851.19,125.0
851.26,108.0
851.32,113.0
851.38,130.0
851.44,121.0
851.51,111.0
851.57,133.0
851.63,134.0
851.7,121.0
851.76,131.0
851.82,130.0
851.89,128.0
851.95,127.0
852.01,141.0
852.07,113.0
852.14,116.0
852.2,132.0
852.26,123.0
852.33,137.0
852.39,138.0
852.45,126.0
852.52,129.0
852.58,133.0
852.64,131.0
852.7,153.0
852.77,157.0
852.83,158.0
852.89,136.0
852.96,135.0
853.02,151.0
853.08,149.0
853.15,139.0
853.21,135.0
853.27,136.0
853.33,134.0
853.4,123.0
853.46,127.0
853.52,145.0
853.59,141.0
853.65,125.0
853.71,141.0
853.78,145.0
853.84,145.0
853.9,137.0
853.96,138.0
854.03,133.0
854.09,123.0
854.15,133.0
854.22,137.0
854.28,145.0
854.34,127.0
854.41,146.0
854.47,168.0
854.53,157.0
854.59,161.0
854.66,165.0
854.72,167.0
854.78,151.0
854.85,165.0
854.91,153.0
854.97,175.0
855.04,145.0
855.1,146.0
855.16,175.0
855.22,149.0
855.29,142.0
855.35,154.0
855.41,177.0
855.48,173.0
855.54,179.0
855.6,173.0
855.67,168.0
855.73,166.0
855.79,200.0
855.85,190.0
855.92,167.0
855.98,187.0
856.04,154.0
856.11,158.0
856.17,147.0
856.23,162.0
856.3,156.0
856.36,151.0
856.42,171.0
856.48,197.0
856.55,183.0
856.61,182.0
856.67,195.0
856.74,184.0
856.8,205.0
856.86,203.0
856.93,197.0
856.99,200.0
857.05,188.0
857.11,195.0
857.18,212.0
857.24,219.0
857.3,225.0
857.37,213.0
857.43,219.0
857.49,219.0
857.56,216.0
857.62,211.0
857.68,204.0
857.74,222.0
857.81,193.0
857.87,189.0
857.93,209.0
858.0,196.0
858.06,178.0
858.12,192.0
858.19,190.0
858.25,177.0
858.31,162.0
858.37,182.0
858.44,201.0
858.5,192.0
858.56,208.0
858.63,184.0
858.69,175.0
858.75,182.0
858.82,189.0
858.88,167.0
858.94,176.0
859.0,185.0
859.07,176.0
859.13,154.0
859.19,156.0
859.26,168.0
859.32,176.0
859.38,164.0
859.45,162.0
859.51,167.0
859.57,174.0
859.63,178.0
859.7,171.0
859.76,177.0
859.82,173.0
859.89,187.0
859.95,189.0
860.01,170.0
860.08,199.0
860.14,189.0
860.2,189.0
860.26,182.0
860.33,179.0
860.39,172.0
860.45,171.0
860.52,164.0
860.58,180.0
860.64,171.0
860.71,171.0
860.77,163.0
860.83,173.0
860.89,157.0
860.96,183.0
861.02,199.0
861.08,184.0
861.15,165.0
861.21,147.0
861.27,149.0
861.34,137.0
861.4,143.0
861.46,145.0
861.52,145.0
861.59,165.0
861.65,148.0
861.71,132.0
861.78,131.0
861.84,134.0
861.9,124.0
861.97,98.0
862.03,114.0
862.09,111.0
862.15,121.0
862.22,101.0
862.28,102.0
862.34,96.0
862.41,109.0
862.47,113.0
862.53,105.0
862.6,101.0
862.66,104.0
862.72,90.0
862.78,85.0
862.85,91.0
862.91,96.0
862.97,112.0
863.04,117.0
863.1,108.0
863.16,88.0
863.23,96.0
863.29,97.0
863.35,98.0
863.41,97.0
863.48,94.0
863.54,83.0
863.6,84.0
863.67,78.0
863.73,84.0
863.79,91.0
863.86,88.0
863.92,83.0
863.98,83.0
864.04,96.0
864.11,87.0
864.17,78.0
864.23,85.0
864.3,69.0
864.36,74.0
864.42,72.0
864.49,60.0
864.55,43.0
864.61,56.0
864.67,61.0
864.74,54.0
864.8,63.0
864.86,56.0
864.93,58.0
864.99,30.0
865.05,34.0
865.12,43.0
865.18,53.0
865.24,63.0
865.3,45.0
865.37,60.0
865.43,77.0
865.49,49.0
865.56,36.0
865.62,34.0
865.68,41.0
865.75,42.0
865.81,47.0
865.87,53.0
865.93,38.0
866.0,41.0
866.06,35.0
866.12,42.0
866.19,44.0
866.25,32.0
866.31,29.0
866.38,29.0
866.44,10.0
866.5,19.0
866.56,7.0
866.63,13.0
866.69,17.0
866.75,14.0
866.82,5.0
866.88,10.0
866.94,35.0
867.01,35.0
867.07,27.0
867.13,27.0
867.19,25.0
867.26,25.0
867.32,34.0
867.38,32.0
867.45,44.0
867.51,39.0
867.57,45.0
867.64,56.0
867.7,57.0
867.76,48.0
867.82,46.0
867.89,39.0
867.95,58.0
868.01,39.0
868.08,53.0
868.14,52.0
868.2,58.0
868.27,68.0
868.33,79.0
868.39,52.0
868.45,56.0
868.52,49.0
868.58,53.0
868.64,51.0
868.71,34.0
868.77,39.0
868.83,44.0
868.9,42.0
868.96,38.0
869.02,27.0
869.08,48.0
869.15,35.0
869.21,45.0
869.27,49.0
869.34,32.0
869.4,38.0
869.46,50.0
869.53,41.0
869.59,41.0
869.65,35.0
869.71,28.0
869.78,12.0
869.84,14.0
869.9,16.0
869.97,19.0
870.03,32.0
870.09,42.0
870.16,38.0
870.22,41.0
870.28,52.0
870.34,27.0
870.41,47.0
870.47,52.0
870.53,63.0
870.6,44.0
870.66,37.0
870.72,35.0
870.79,39.0
870.85,52.0
870.91,35.0
870.97,75.0
871.04,56.0
871.1,58.0
871.16,73.0
871.23,53.0
871.29,75.0
871.35,60.0
871.42,76.0
871.48,60.0
871.54,48.0
871.6,63.0
871.67,65.0
871.73,64.0
871.79,61.0
871.86,88.0
871.92,69.0
871.98,74.0
872.05,83.0
872.11,84.0
872.17,111.0
872.23,96.0
872.3,110.0
872.36,109.0
872.42,113.0
872.49,112.0
872.55,115.0
872.61,124.0
872.68,127.0
872.74,111.0
872.8,117.0
872.86,125.0
872.93,107.0
872.99,98.0
873.05,101.0
873.12,103.0
873.18,112.0
873.24,106.0
873.31,112.0
873.37,132.0
873.43,129.0
873.49,145.0
873.56,129.0
873.62,126.0
873.68,138.0
873.75,140.0
873.81,145.0
873.87,135.0
873.94,165.0
874.0,149.0
874.06,168.0
874.12,175.0
874.19,175.0
874.25,171.0
874.31,180.0
874.38,184.0
874.44,183.0
874.5,203.0
874.57,171.0
874.63,204.0
874.69,189.0
874.75,184.0
874.82,198.0
874.88,175.0
874.94,184.0
875.01,165.0
875.07,203.0
875.13,191.0
875.2,186.0
875.26,171.0
875.32,168.0
875.38,175.0
875.45,188.0
875.51,206.0
875.57,226.0
875.64,232.0
875.7,227.0
875.76,217.0
875.83,223.0
875.89,244.0
875.95,239.0
876.01,240.0
876.08,237.0
876.14,218.0
876.2,240.0
876.27,226.0
876.33,204.0
876.39,215.0
876.46,218.0
876.52,200.0
876.58,215.0
876.64,231.0
876.71,214.0
876.77,212.0
876.83,218.0
876.9,233.0
876.96,240.0
877.02,229.0
877.09,232.0
877.15,234.0
877.21,229.0
877.27,217.0
877.34,234.0
877.4,233.0
877.46,244.0
877.53,249.0
877.59,266.0
877.65,255.0
877.72,250.0
877.78,233.0
877.84,235.0
877.9,222.0
877.97,222.0
878.03,215.0
878.09,208.0
878.16,221.0
878.22,220.0
878.28,211.0
878.35,198.0
878.41,183.0
878.47,167.0
878.53,171.0
878.6,182.0
878.66,181.0
878.72,187.0
878.79,189.0
878.85,178.0
878.91,168.0
878.98,158.0
879.04,160.0
879.1,160.0
879.16,150.0
879.23,141.0
879.29,134.0
879.35,123.0
879.42,126.0
879.48,107.0
879.54,116.0
879.61,124.0
879.67,110.0
879.73,105.0
879.79,90.0
879.86,120.0
879.92,113.0
879.98,97.0
880.05,105.0
880.11,97.0
880.17,103.0
880.24,105.0
880.3,112.0
880.36,108.0
880.42,116.0
880.49,116.0
880.55,122.0
880.61,126.0
880.68,110.0
880.74,123.0
880.8,131.0
880.87,124.0
880.93,120.0
880.99,96.0
881.05,118.0
881.12,120.0
881.18,118.0
881.24,118.0
881.31,97.0
881.37,106.0
881.43,137.0
881.5,137.0
881.56,129.0
881.62,121.0
881.68,119.0
881.75,132.0
881.81,132.0
881.87,130.0
881.94,146.0
882.0,128.0
882.06,117.0
882.13,111.0
882.19,134.0
882.25,102.0
882.31,120.0
882.38,119.0
882.44,96.0
882.5,96.0
882.57,105.0
882.63,107.0
882.69,83.0
882.76,111.0
882.82,111.0
882.88,116.0
882.94,115.0
883.01,78.0
883.07,88.0
883.13,102.0
883.2,104.0
883.26,74.0
883.32,90.0
883.39,77.0
883.45,75.0
883.51,77.0
883.57,76.0
883.64,92.0
883.7,79.0
883.76,91.0
883.83,77.0
883.89,84.0
883.95,92.0
884.02,90.0
884.08,79.0
884.14,90.0
884.2,81.0
884.27,76.0
884.33,64.0
884.39,61.0
884.46,87.0
884.52,99.0
884.58,70.0
884.65,70.0
884.71,70.0
884.77,85.0
884.83,71.0
884.9,57.0
884.96,62.0
885.02,72.0
885.09,66.0
885.15,80.0
885.21,66.0
885.28,63.0
885.34,57.0
885.4,42.0
885.46,39.0
885.53,56.0
885.59,53.0
885.65,40.0
885.72,31.0
885.78,47.0
885.84,52.0
885.91,55.0
885.97,63.0
886.03,60.0
886.09,55.0
886.16,59.0
886.22,82.0
886.28,55.0
886.35,47.0
886.41,59.0
886.47,54.0
886.54,45.0
886.6,24.0
886.66,51.0
886.72,57.0
886.79,46.0
886.85,38.0
886.91,60.0
886.98,48.0
887.04,29.0
887.1,46.0
887.17,41.0
887.23,37.0
887.29,39.0
887.35,46.0
887.42,31.0
887.48,35.0
887.54,27.0
887.61,21.0
887.67,35.0
887.73,43.0
887.8,27.0
887.86,37.0
887.92,37.0
887.98,41.0
888.05,39.0
888.11,34.0
888.17,24.0
888.24,31.0
888.3,34.0
888.36,24.0
888.43,39.0
888.49,50.0
888.55,61.0
888.61,54.0
888.68,53.0
888.74,75.0
888.8,63.0
888.87,82.0
888.93,82.0
888.99,75.0
889.06,94.0
889.12,88.0
889.18,99.0
889.24,105.0
889.31,98.0
889.37,115.0
889.43,116.0
889.5,121.0
889.56,108.0
889.62,110.0
889.69,111.0
889.75,128.0
889.81,109.0
889.87,107.0
889.94,117.0
890.0,129.0
890.06,135.0
890.13,118.0
890.19,95.0
890.25,99.0
890.32,101.0
890.38,94.0
890.44,90.0
890.5,98.0
890.57,101.0
890.63,104.0
890.69,102.0
890.76,91.0
890.82,85.0
890.88,72.0
890.95,80.0
891.01,104.0
891.07,93.0
891.13,63.0
891.2,61.0
891.26,62.0
891.32,75.0
891.39,84.0
891.45,108.0
891.51,101.0
891.58,96.0
891.64,104.0
891.7,118.0
891.76,116.0
891.83,110.0
891.89,109.0
891.95,123.0
892.02,126.0
892.08,134.0
892.14,144.0
892.21,118.0
892.27,133.0
892.33,144.0
892.39,136.0
892.46,133.0
892.52,149.0
892.58,136.0
892.65,133.0
892.71,134.0
892.77,138.0
892.84,150.0
892.9,143.0
892.96,143.0
893.02,146.0
893.09,152.0
893.15,141.0
893.21,154.0
893.28,149.0
893.34,173.0
893.4,151.0
893.47,159.0
893.53,179.0
893.59,174.0
893.65,173.0
893.72,165.0
893.78,169.0
893.84,164.0
893.91,184.0
893.97,179.0
894.03,167.0
894.1,164.0
894.16,161.0
894.22,148.0
894.28,152.0
894.35,150.0
894.41,143.0
894.47,147.0
894.54,152.0
894.6,154.0
894.66,152.0
894.73,146.0
894.79,145.0
894.85,129.0
894.91,125.0
894.98,149.0
895.04,149.0
895.1,139.0
895.17,136.0
895.23,123.0
895.29,128.0
895.36,138.0
895.42,136.0
895.48,123.0
895.54,115.0
895.61,108.0
895.67,119.0
895.73,93.0
895.8,99.0
895.86,109.0
895.92,100.0
895.99,82.0
896.05,77.0
896.11,68.0
896.17,71.0
896.24,94.0
896.3,96.0
896.36,82.0
896.43,68.0
896.49,92.0
896.55,82.0
896.62,83.0
896.68,84.0
896.74,71.0
896.8,79.0
896.87,101.0
896.93,105.0
896.99,116.0
897.06,121.0
897.12,117.0
897.18,119.0
897.25,122.0
897.31,131.0
897.37,149.0
897.43,145.0
897.5,141.0
897.56,120.0
897.62,134.0
897.69,141.0
897.75,138.0
897.81,128.0
897.88,122.0
897.94,127.0
898.0,103.0
898.06,120.0
898.13,113.0
898.19,109.0
898.25,113.0
898.32,109.0
898.38,120.0
898.44,96.0
898.51,105.0
898.57,97.0
898.63,108.0
898.69,105.0
898.76,110.0
898.82,129.0
898.88,117.0
898.95,103.0
899.01,116.0
899.07,114.0
899.14,126.0
899.2,135.0
899.26,124.0
899.32,133.0
899.39,126.0
899.45,113.0
899.51,111.0
899.58,106.0
899.64,118.0
899.7,123.0
899.77,108.0
899.83,104.0
899.89,117.0
899.95,133.0
900.02,142.0
900.08,132.0
900.14,117.0
900.21,113.0
900.27,125.0
900.33,123.0
900.4,128.0
900.46,124.0
900.52,112.0
900.58,137.0
900.65,161.0
900.71,134.0
900.77,134.0
900.84,142.0
900.9,141.0
900.96,135.0
901.03,137.0
901.09,151.0
901.15,147.0
901.21,135.0
901.28,119.0
901.34,138.0
901.4,155.0
901.47,156.0
901.53,156.0
901.59,162.0
901.66,162.0
901.72,140.0
901.78,140.0
901.84,140.0
901.91,156.0
901.97,139.0
902.03,126.0
902.1,123.0
902.16,103.0
902.22,108.0
902.29,99.0
902.35,112.0
902.41,125.0
902.47,112.0
902.54,140.0
902.6,120.0
902.66,116.0
902.73,107.0
902.79,120.0
902.85,125.0
902.92,129.0
902.98,138.0
903.04,133.0
903.1,108.0
903.17,120.0
903.23,134.0
903.29,111.0
903.36,107.0
903.42,130.0
903.48,143.0
903.55,144.0
903.61,141.0
903.67,138.0
903.73,133.0
903.8,158.0
903.86,164.0
903.92,154.0
903.99,160.0
904.05,159.0
904.11,159.0
904.18,138.0
904.24,137.0
904.3,129.0
904.36,135.0
904.43,120.0
904.49,118.0
904.55,121.0
904.62,119.0
904.68,126.0
904.74,126.0
904.81,146.0
904.87,145.0
904.93,147.0
904.99,140.0
905.06,134.0
905.12,143.0
905.18,148.0
905.25,143.0
905.31,139.0
905.37,156.0
905.44,159.0
905.5,157.0
905.56,130.0
905.62,128.0
905.69,123.0
905.75,127.0
905.81,132.0
905.88,130.0
905.94,142.0
906.0,136.0
906.07,131.0
906.13,127.0
906.19,153.0
906.25,147.0
906.32,134.0
906.38,157.0
906.44,131.0
906.51,156.0
906.57,171.0
906.63,151.0
906.7,149.0
906.76,160.0
906.82,162.0
906.88,154.0
906.95,151.0
907.01,171.0
907.07,181.0
907.14,183.0
907.2,184.0
907.26,186.0
907.33,149.0
907.39,161.0
907.45,157.0
907.51,162.0
907.58,190.0
907.64,158.0
907.7,168.0
907.77,140.0
907.83,160.0
907.89,167.0
907.96,167.0
908.02,181.0
908.08,181.0
908.14,173.0
908.21,179.0
908.27,168.0
908.33,169.0
908.4,168.0
908.46,180.0
908.52,209.0
908.59,193.0
908.65,200.0
908.71,198.0
908.77,206.0
908.84,204.0
908.9,197.0
908.96,208.0
909.03,212.0
909.09,211.0
909.15,203.0
909.22,193.0
909.28,204.0
909.34,189.0
909.4,191.0
909.47,194.0
909.53,170.0
909.59,195.0
909.66,208.0
909.72,204.0
909.78,204.0
909.85,201.0
909.91,195.0
909.97,213.0
910.03,203.0
910.1,188.0
910.16,214.0
910.22,204.0
910.29,199.0
910.35,195.0
910.41,195.0
910.48,205.0
910.54,192.0
910.6,196.0
910.66,196.0
910.73,212.0
910.79,193.0
910.85,189.0
910.92,215.0
910.98,203.0
911.04,175.0
911.11,183.0
911.17,171.0
911.23,189.0
911.29,166.0
911.36,150.0
911.42,165.0
911.48,183.0
911.55,167.0
911.61,134.0
911.67,138.0
911.74,127.0
911.8,128.0
911.86,147.0
911.92,125.0
911.99,134.0
912.05,135.0
912.11,125.0
912.18,149.0
912.24,130.0
912.3,134.0
912.37,124.0
912.43,106.0
912.49,119.0
912.55,127.0
912.62,130.0
912.68,140.0
912.74,140.0
912.81,142.0
912.87,126.0
912.93,130.0
913.0,112.0
913.06,126.0
913.12,116.0
913.18,120.0
913.25,123.0
913.31,130.0
913.37,125.0
913.44,101.0
913.5,90.0
913.56,96.0
913.63,116.0
913.69,107.0
913.75,117.0
913.81,94.0
913.88,108.0
913.94,107.0
914.0,82.0
914.07,88.0
914.13,72.0
914.19,68.0
914.26,64.0
914.32,55.0
914.38,58.0
914.44,61.0
914.51,59.0
914.57,51.0
914.63,60.0
914.7,58.0
914.76,53.0
914.82,64.0
914.89,59.0
914.95,55.0
915.01,81.0
915.07,67.0
915.14,88.0
915.2,71.0
915.26,67.0
915.33,76.0
915.39,60.0
915.45,79.0
915.52,94.0
915.58,72.0
915.64,69.0
915.7,74.0
915.77,74.0
915.83,92.0
915.89,73.0
915.96,63.0
916.02,81.0
916.08,56.0
916.15,48.0
916.21,50.0
916.27,61.0
916.33,53.0
916.4,28.0
916.46,16.0
916.52,24.0
916.59,6.0
916.65,36.0
916.71,24.0
916.78,22.0
916.84,7.0
916.9,35.0
916.96,28.0
917.03,39.0
917.09,28.0
917.15,13.0
917.22,17.0
917.28,10.0
917.34,4.0
917.41,16.0
917.47,38.0
917.53,3.0
917.59,21.0
917.66,21.0
917.72,10.0
917.78,20.0
917.85,5.0
917.91,6.0
917.97,7.0
918.04,15.0
918.1,18.0
918.16,8.0
918.22,20.0
918.29,9.0
918.35,-8.0
918.41,-7.0
918.48,-13.0
918.54,-27.0
918.6,-27.0
918.67,-21.0
918.73,12.0
918.79,-1.0
918.85,17.0
918.92,10.0
918.98,23.0
919.04,27.0
919.11,12.0
919.17,13.0
919.23,15.0
919.3,16.0
919.36,25.0
919.42,7.0
919.48,16.0
919.55,-3.0
919.61,17.0
919.67,16.0
919.74,28.0
919.8,30.0
919.86,10.0
919.93,19.0
919.99,26.0
920.05,27.0
920.11,40.0
920.18,52.0
920.24,36.0
920.3,38.0
920.37,41.0
920.43,18.0
920.49,31.0
920.56,37.0
920.62,30.0
920.68,23.0
920.74,33.0
920.81,40.0
920.87,29.0
920.93,22.0
921.0,30.0
921.06,39.0
921.12,43.0
921.19,43.0
921.25,26.0
921.31,26.0
921.37,46.0
921.44,41.0
921.5,28.0
921.56,22.0
921.63,55.0
921.69,46.0
921.75,42.0
921.82,56.0
921.88,54.0
921.94,74.0
922.0,63.0
922.07,73.0
922.13,81.0
922.19,65.0
922.26,96.0
922.32,93.0
922.38,93.0
922.45,110.0
922.51,83.0
922.57,94.0
922.63,115.0
922.7,110.0
922.76,118.0
922.82,95.0
922.89,96.0
922.95,100.0
923.01,109.0
923.08,117.0
923.14,98.0
923.2,130.0
923.26,110.0
923.33,84.0
923.39,92.0
923.45,105.0
923.52,103.0
923.58,93.0
923.64,102.0
923.71,107.0
923.77,121.0
923.83,146.0
923.89,118.0
923.96,132.0
924.02,140.0
924.08,124.0
924.15,116.0
924.21,122.0
924.27,154.0
924.34,143.0
924.4,125.0
924.46,137.0
924.52,134.0
924.59,136.0
924.65,137.0
924.71,146.0
924.78,166.0
924.84,178.0
924.9,142.0
924.97,122.0
925.03,125.0
925.09,133.0
925.15,143.0
925.22,169.0
925.28,156.0
925.34,135.0
925.41,126.0
925.47,170.0
925.53,183.0
925.6,185.0
925.66,168.0
925.72,182.0
925.78,174.0
925.85,162.0
925.91,162.0
925.97,175.0
926.04,181.0
926.1,143.0
926.16,146.0
926.23,158.0
926.29,169.0
926.35,176.0
926.41,176.0
926.48,194.0
926.54,197.0
926.6,185.0
926.67,197.0
926.73,170.0
926.79,191.0
926.86,171.0
926.92,170.0
926.98,194.0
927.04,184.0
927.11,198.0
927.17,210.0
927.23,209.0
927.3,205.0
927.36,202.0
927.42,191.0
927.49,209.0
927.55,183.0
927.61,202.0
927.67,210.0
927.74,204.0
927.8,203.0
927.86,228.0
927.93,214.0
927.99,210.0
928.05,203.0
928.12,191.0
928.18,194.0
928.24,191.0
928.3,227.0
928.37,210.0
928.43,194.0
928.49,188.0
928.56,176.0
928.62,202.0
928.68,203.0
928.75,211.0
928.81,190.0
928.87,183.0
928.93,179.0
929.0,189.0
929.06,187.0
929.12,175.0
929.19,178.0
929.25,177.0
929.31,180.0
929.38,188.0
929.44,210.0
929.5,198.0
929.56,188.0
929.63,184.0
929.69,204.0
929.75,209.0
929.82,199.0
929.88,195.0
929.94,200.0
930.01,204.0
930.07,188.0
930.13,180.0
930.19,175.0
930.26,178.0
930.32,167.0
930.38,172.0
930.45,165.0
930.51,162.0
930.57,166.0
930.64,169.0
930.7,152.0
930.76,156.0
930.82,147.0
930.89,165.0
930.95,178.0
931.01,176.0
931.08,169.0
931.14,176.0
931.2,160.0
931.27,170.0
931.33,180.0
931.39,164.0
931.45,163.0
931.52,176.0
931.58,173.0
931.64,176.0
931.71,173.0
931.77,152.0
931.83,178.0
931.9,162.0
931.96,162.0
932.02,157.0
932.08,163.0
932.15,149.0
932.21,125.0
932.27,140.0
932.34,140.0
932.4,137.0
932.46,141.0
932.53,135.0
932.59,128.0
932.65,155.0
932.71,129.0
932.78,139.0
932.84,155.0
932.9,147.0
932.97,147.0
933.03,118.0
933.09,111.0
933.16,116.0
933.22,134.0
933.28,130.0
933.34,140.0
933.41,143.0
933.47,125.0
933.53,134.0
933.6,133.0
933.66,143.0
933.72,145.0
933.79,148.0
933.85,155.0
933.91,151.0
933.97,145.0
934.04,143.0
934.1,118.0
934.16,121.0
934.23,126.0
934.29,119.0
934.35,132.0
934.42,124.0
934.48,104.0
934.54,121.0
934.6,111.0
934.67,111.0
934.73,109.0
934.79,95.0
934.86,111.0
934.92,109.0
934.98,101.0
935.05,123.0
935.11,111.0
935.17,132.0
935.23,117.0
935.3,114.0
935.36,140.0
935.42,121.0
935.49,96.0
935.55,85.0
935.61,101.0
935.68,96.0
935.74,76.0
935.8,49.0
935.86,55.0
935.93,61.0
935.99,52.0
936.05,49.0
936.12,48.0
936.18,57.0
936.24,79.0
936.31,78.0
936.37,90.0
936.43,80.0
936.49,72.0
936.56,79.0
936.62,62.0
936.68,59.0
936.75,59.0
936.81,47.0
936.87,68.0
936.94,60.0
937.0,75.0
937.06,65.0
937.12,59.0
937.19,101.0
937.25,82.0
937.31,74.0
937.38,92.0
937.44,85.0
937.5,81.0
937.57,67.0
937.63,65.0
937.69,55.0
937.75,65.0
937.82,63.0
937.88,62.0
937.94,61.0
938.01,46.0
938.07,45.0
938.13,52.0
938.2,60.0
938.26,69.0
938.32,59.0
938.38,61.0
938.45,73.0
938.51,71.0
938.57,52.0
938.64,49.0
938.7,65.0
938.76,69.0
938.83,56.0
938.89,61.0
938.95,68.0
939.01,72.0
939.08,58.0
939.14,58.0
939.2,52.0
939.27,60.0
939.33,32.0
939.39,38.0
939.46,63.0
939.52,58.0
939.58,67.0
939.64,65.0
939.71,54.0
939.77,60.0
939.83,42.0
939.9,54.0
939.96,73.0
940.02,53.0
940.09,48.0
940.15,66.0
940.21,54.0
940.27,48.0
940.34,38.0
940.4,44.0
940.46,46.0
940.53,56.0
940.59,43.0
940.65,56.0
940.72,54.0
940.78,68.0
940.84,60.0
940.9,43.0
940.97,42.0
941.03,62.0
941.09,66.0
941.16,69.0
941.22,56.0
941.28,52.0
941.35,73.0
941.41,66.0
941.47,65.0
941.53,49.0
941.6,76.0
941.66,54.0
941.72,82.0
941.79,104.0
941.85,81.0
941.91,81.0
941.98,81.0
942.04,86.0
942.1,75.0
942.16,77.0
942.23,95.0
942.29,86.0
942.35,81.0
942.42,93.0
942.48,91.0
942.54,92.0
942.61,58.0
942.67,78.0
942.73,103.0
942.79,96.0
942.86,94.0
942.92,96.0
942.98,88.0
943.05,93.0
943.11,102.0
943.17,86.0
943.24,87.0
943.3,94.0
943.36,94.0
943.42,95.0
943.49,106.0
943.55,92.0
943.61,115.0
943.68,142.0
943.74,121.0
943.8,128.0
943.87,118.0
943.93,107.0
943.99,120.0
944.05,120.0
944.12,121.0
944.18,130.0
944.24,121.0
944.31,111.0
944.37,128.0
944.43,120.0
944.5,115.0
944.56,135.0
944.62,147.0
944.68,132.0
944.75,144.0
944.81,147.0
944.87,136.0
944.94,139.0
945.0,127.0
945.06,148.0
945.13,136.0
945.19,128.0
945.25,130.0
945.31,114.0
945.38,120.0
945.44,111.0
945.5,110.0
945.57,114.0
945.63,99.0
945.69,101.0
945.76,118.0
945.82,125.0
945.88,104.0
945.94,98.0
946.01,106.0
946.07,116.0
946.13,105.0
946.2,104.0
946.26,115.0
946.32,100.0
946.39,98.0
946.45,89.0
946.51,98.0
946.57,98.0
946.64,105.0
946.7,91.0
946.76,95.0
946.83,87.0
946.89,106.0
946.95,109.0
947.02,81.0
947.08,74.0
947.14,81.0
947.2,86.0
947.27,81.0
947.33,73.0
947.39,85.0
947.46,115.0
947.52,99.0
947.58,104.0
947.65,96.0
947.71,96.0
947.77,107.0
947.83,94.0
947.9,75.0
947.96,90.0
948.02,76.0
948.09,74.0
948.15,79.0
948.21,81.0
948.28,65.0
948.34,59.0
948.4,73.0
948.46,87.0
948.53,85.0
948.59,94.0
948.65,108.0
948.72,110.0
948.78,121.0
948.84,111.0
948.91,100.0
948.97,121.0
949.03,103.0
949.09,96.0
949.16,100.0
949.22,120.0
949.28,103.0
949.35,116.0
949.41,102.0
949.47,93.0
949.54,98.0
949.6,101.0
949.66,97.0
949.72,95.0
949.79,97.0
949.85,97.0
949.91,87.0
949.98,80.0
950.04,87.0
950.1,96.0
950.17,99.0
950.23,107.0
950.29,116.0
950.35,125.0
950.42,111.0
950.48,106.0
950.54,105.0
950.61,126.0
950.67,101.0
950.73,104.0
950.8,118.0
950.86,114.0
950.92,112.0
950.98,104.0
951.05,109.0
951.11,92.0
951.17,101.0
951.24,84.0
951.3,73.0
951.36,93.0
951.43,85.0
951.49,54.0
951.55,30.0
951.61,77.0
951.68,95.0
951.74,71.0
951.8,77.0
951.87,93.0
951.93,100.0
951.99,88.0
952.06,78.0
952.12,93.0
952.18,112.0
952.24,93.0
952.31,111.0
952.37,95.0
952.43,109.0
952.5,110.0
952.56,88.0
952.62,83.0
952.69,101.0
952.75,100.0
952.81,91.0
952.87,100.0
952.94,112.0
953.0,102.0
953.06,98.0
953.13,89.0
953.19,91.0
953.25,123.0
953.32,114.0
953.38,102.0
953.44,108.0
953.5,115.0
953.57,99.0
953.63,77.0
953.69,65.0
953.76,74.0
953.82,73.0
953.88,70.0
953.95,65.0
954.01,63.0
954.07,48.0
954.13,56.0
954.2,68.0
954.26,42.0
954.32,46.0
954.39,37.0
954.45,50.0
954.51,52.0
954.58,32.0
954.64,43.0
954.7,50.0
954.76,54.0
954.83,62.0
954.89,72.0
954.95,63.0
955.02,77.0
955.08,99.0
955.14,83.0
955.21,75.0
955.27,90.0
955.33,84.0
955.39,71.0
955.46,77.0
955.52,92.0
955.58,97.0
955.65,115.0
955.71,124.0
955.77,125.0
955.84,122.0
955.9,127.0
955.96,123.0
956.02,105.0
956.09,120.0
956.15,128.0
956.21,132.0
956.28,139.0
956.34,123.0
956.4,140.0
956.47,140.0
956.53,148.0
956.59,166.0
956.65,163.0
956.72,169.0
956.78,154.0
956.84,166.0
956.91,158.0
956.97,168.0
957.03,144.0
957.1,173.0
957.16,199.0
957.22,172.0
957.28,188.0
957.35,178.0
957.41,160.0
957.47,170.0
957.54,165.0
957.6,181.0
957.66,192.0
957.73,189.0
957.79,213.0
957.85,202.0
957.91,187.0
957.98,172.0
958.04,154.0
958.1,192.0
958.17,196.0
958.23,181.0
958.29,188.0
958.36,194.0
958.42,198.0
958.48,165.0
958.54,181.0
958.61,206.0
958.67,215.0
958.73,227.0
958.8,214.0
958.86,218.0
958.92,224.0
958.99,219.0
959.05,208.0
959.11,214.0
959.17,208.0
959.24,213.0
959.3,213.0
959.36,208.0
959.43,209.0
959.49,214.0
959.55,208.0
959.62,215.0
959.68,223.0
959.74,235.0
959.8,223.0
959.87,211.0
959.93,209.0
959.99,223.0
960.06,226.0
960.12,222.0
960.18,242.0
960.25,250.0
960.31,249.0
960.37,246.0
960.43,235.0
960.5,220.0
960.56,214.0
960.62,219.0
960.69,228.0
960.75,222.0
960.81,214.0
960.88,229.0
960.94,208.0
961.0,206.0
961.06,218.0
961.13,237.0
961.19,215.0
961.25,223.0
961.32,208.0
961.38,208.0
961.44,205.0
961.51,186.0
961.57,193.0
961.63,217.0
961.69,213.0
961.76,191.0
961.82,213.0
961.88,220.0
961.95,202.0
962.01,206.0
962.07,216.0
962.14,180.0
962.2,170.0
962.26,195.0
962.32,188.0
962.39,175.0
962.45,166.0
962.51,148.0
962.58,162.0
962.64,162.0
962.7,168.0
962.77,176.0
962.83,186.0
962.89,175.0
962.95,180.0
963.02,199.0
963.08,172.0
963.14,169.0
963.21,170.0
963.27,158.0
963.33,161.0
963.4,167.0
963.46,153.0
963.52,151.0
963.58,146.0
963.65,145.0
963.71,142.0
963.77,150.0
963.84,153.0
963.9,152.0
963.96,155.0
964.03,137.0
964.09,153.0
964.15,140.0
964.21,137.0
964.28,150.0
964.34,133.0
964.4,161.0
964.47,154.0
964.53,139.0
964.59,126.0
964.66,138.0
964.72,134.0
964.78,136.0
964.84,137.0
964.91,149.0
964.97,141.0
965.03,132.0
965.1,166.0
965.16,160.0
965.22,162.0
965.29,148.0
965.35,126.0
965.41,136.0
965.47,152.0
965.54,145.0
965.6,142.0
965.66,114.0
965.73,122.0
965.79,125.0
965.85,118.0
965.92,123.0
965.98,109.0
966.04,138.0
966.1,132.0
966.17,140.0
966.23,117.0
966.29,112.0
966.36,131.0
966.42,115.0
966.48,110.0
966.55,112.0
966.61,110.0
966.67,114.0
966.73,111.0
966.8,111.0
966.86,119.0
966.92,108.0
966.99,118.0
967.05,96.0
967.11,109.0
967.18,117.0
967.24,111.0
967.3,104.0
967.36,115.0
967.43,121.0
967.49,102.0
967.55,76.0
967.62,85.0
967.68,94.0
967.74,101.0
967.81,70.0
967.87,79.0
967.93,83.0
967.99,82.0
968.06,95.0
968.12,88.0
968.18,86.0
968.25,78.0
968.31,66.0
968.37,68.0
968.44,72.0
968.5,73.0
968.56,73.0
968.62,66.0
968.69,51.0
968.75,48.0
968.81,59.0
968.88,49.0
968.94,30.0
969.0,50.0
969.07,40.0
969.13,33.0
969.19,41.0
969.25,56.0
969.32,34.0
969.38,31.0
969.44,38.0
969.51,40.0
969.57,33.0
969.63,28.0
969.7,26.0
969.76,36.0
969.82,35.0
969.88,30.0
969.95,29.0
970.01,16.0
970.07,21.0
970.14,14.0
970.2,29.0
970.26,30.0
970.33,21.0
970.39,43.0
970.45,37.0
970.51,34.0
970.58,19.0
970.64,21.0
970.7,29.0
970.77,20.0
970.83,32.0
970.89,19.0
970.96,-3.0
971.02,14.0
971.08,9.0
971.14,32.0
971.21,30.0
971.27,28.0
971.33,21.0
971.4,32.0
971.46,32.0
971.52,27.0
971.59,51.0
971.65,45.0
971.71,49.0
971.77,52.0
971.84,48.0
971.9,48.0
971.96,48.0
972.03,68.0
972.09,65.0
972.15,63.0
972.22,78.0
972.28,76.0
972.34,88.0
972.4,93.0
972.47,55.0
972.53,70.0
972.59,81.0
972.66,87.0
972.72,55.0
972.78,59.0
972.85,74.0
972.91,88.0
972.97,95.0
973.03,80.0
973.1,91.0
973.16,88.0
973.22,84.0
973.29,82.0
973.35,86.0
973.41,103.0
973.48,97.0
973.54,88.0
973.6,90.0
973.66,87.0
973.73,95.0
973.79,90.0
973.85,101.0
973.92,93.0
973.98,104.0
974.04,108.0
974.11,83.0
974.17,74.0
974.23,66.0
974.29,75.0
974.36,82.0
974.42,95.0
974.48,80.0
974.55,76.0
974.61,71.0
974.67,93.0
974.74,107.0
974.8,112.0
974.86,111.0
974.92,111.0
974.99,118.0
975.05,111.0
975.11,110.0
975.18,107.0
975.24,117.0
975.3,112.0
975.37,121.0
975.43,110.0
975.49,110.0
975.55,132.0
975.62,132.0
975.68,132.0
975.74,135.0
975.81,135.0
975.87,138.0
975.93,140.0
976.0,148.0
976.06,131.0
976.12,146.0
976.18,148.0
976.25,121.0
976.31,142.0
976.37,139.0
976.44,122.0
976.5,124.0
976.56,129.0
976.63,130.0
976.69,136.0
976.75,125.0
976.81,147.0
976.88,159.0
976.94,166.0
977.0,153.0
977.07,131.0
977.13,146.0
977.19,165.0
977.26,185.0
977.32,180.0
977.38,154.0
977.44,143.0
977.51,158.0
977.57,172.0
977.63,162.0
977.7,158.0
977.76,161.0
977.82,173.0
977.89,150.0
977.95,177.0
978.01,181.0
978.07,181.0
978.14,185.0
978.2,187.0
978.26,172.0
978.33,182.0
978.39,178.0
978.45,167.0
978.52,177.0
978.58,169.0
978.64,185.0
978.7,172.0
978.77,169.0
978.83,154.0
978.89,155.0
978.96,153.0
979.02,139.0
979.08,147.0
979.15,140.0
979.21,137.0
979.27,149.0
979.33,140.0
979.4,140.0
979.46,154.0
979.52,161.0
979.59,158.0
979.65,160.0
979.71,163.0
979.78,148.0
979.84,150.0
979.9,153.0
979.96,140.0
980.03,147.0
980.09,160.0
980.15,136.0
980.22,142.0
980.28,148.0
980.34,118.0
980.41,139.0
980.47,125.0
980.53,128.0
980.59,161.0
980.66,164.0
980.72,156.0
980.78,142.0
980.85,146.0
980.91,173.0
980.97,163.0
981.04,157.0
981.1,120.0
981.16,118.0
981.22,148.0
981.29,153.0
981.35,152.0
981.41,165.0
981.48,144.0
981.54,165.0
981.6,173.0
981.67,160.0
981.73,182.0
981.79,180.0
981.85,178.0
981.92,172.0
981.98,192.0
982.04,199.0
982.11,163.0
982.17,172.0
982.23,174.0
982.3,156.0
982.36,170.0
982.42,182.0
982.48,189.0
982.55,176.0
982.61,172.0
982.67,158.0
982.74,150.0
982.8,180.0
982.86,162.0
982.93,162.0
982.99,172.0
983.05,169.0
983.11,171.0
983.18,169.0
983.24,161.0
983.3,161.0
983.37,158.0
983.43,157.0
983.49,164.0
983.56,162.0
983.62,175.0
983.68,156.0
983.74,150.0
983.81,177.0
983.87,159.0
983.93,162.0
984.0,170.0
984.06,157.0
984.12,145.0
984.19,175.0
984.25,162.0
984.31,162.0
984.37,145.0
984.44,178.0
984.5,183.0
984.56,168.0
984.63,163.0
984.69,151.0
984.75,159.0
984.82,178.0
984.88,168.0
984.94,140.0
985.0,154.0
985.07,167.0
985.13,166.0
985.19,156.0
985.26,158.0
985.32,158.0
985.38,172.0
985.45,160.0
985.51,162.0
985.57,157.0
985.63,180.0
985.7,171.0
985.76,159.0
985.82,150.0
985.89,145.0
985.95,146.0
986.01,141.0
986.08,139.0
986.14,127.0
986.2,120.0
986.26,137.0
986.33,134.0
986.39,120.0
986.45,128.0
986.52,128.0
986.58,135.0
986.64,124.0
986.71,104.0
986.77,126.0
986.83,122.0
986.89,97.0
986.96,116.0
987.02,115.0
987.08,111.0
987.15,95.0
987.21,96.0
987.27,99.0
987.34,105.0
987.4,94.0
987.46,78.0
987.52,80.0
987.59,96.0
987.65,110.0
987.71,106.0
987.78,113.0
987.84,114.0
987.9,107.0
987.97,82.0
988.03,98.0
988.09,74.0
988.15,62.0
988.22,91.0
988.28,99.0
988.34,86.0
988.41,63.0
988.47,68.0
988.53,81.0
988.6,66.0
988.66,79.0
988.72,73.0
988.78,76.0
988.85,86.0
988.91,69.0
988.97,76.0
989.04,69.0
989.1,97.0
989.16,96.0
989.23,111.0
989.29,111.0
989.35,118.0
989.41,95.0
989.48,99.0
989.54,109.0
989.6,101.0
989.67,103.0
989.73,112.0
989.79,98.0
989.86,106.0
989.92,115.0
989.98,92.0
990.04,108.0
990.11,114.0
990.17,114.0
990.23,97.0
990.3,95.0
990.36,98.0
990.42,99.0
990.49,109.0
990.55,106.0
990.61,79.0
990.67,85.0
990.74,96.0
990.8,100.0
990.86,102.0
990.93,90.0
990.99,95.0
991.05,106.0
991.12,118.0
991.18,126.0
991.24,144.0
991.3,143.0
991.37,99.0
991.43,112.0
991.49,131.0
991.56,108.0
991.62,124.0
991.68,130.0
991.75,124.0
991.81,105.0
991.87,114.0
991.93,99.0
992.0,94.0
992.06,90.0
992.12,94.0
992.19,103.0
992.25,104.0
992.31,105.0
992.38,95.0
992.44,131.0
992.5,122.0
992.56,104.0
992.63,97.0
992.69,103.0
992.75,104.0
992.82,132.0
992.88,134.0
992.94,118.0
993.01,117.0
993.07,137.0
993.13,129.0
993.19,124.0
993.26,122.0
993.32,141.0
993.38,145.0
993.45,129.0
993.51,147.0
993.57,135.0
993.64,125.0
993.7,133.0
993.76,144.0
993.82,136.0
993.89,142.0
993.95,141.0
994.01,158.0
994.08,152.0
994.14,156.0
994.2,172.0
994.27,146.0
994.33,178.0
994.39,168.0
994.45,162.0
994.52,156.0
994.58,185.0
994.64,163.0
994.71,174.0
994.77,159.0
994.83,163.0
994.9,178.0
994.96,172.0
995.02,182.0
995.08,172.0
995.15,183.0
995.21,164.0
995.27,162.0
995.34,137.0
995.4,149.0
995.46,148.0
995.53,138.0
995.59,157.0
995.65,129.0
995.71,132.0
995.78,134.0
995.84,125.0
995.9,118.0
995.97,120.0
996.03,133.0
996.09,124.0
996.16,143.0
996.22,124.0
996.28,130.0
996.34,121.0
996.41,112.0
996.47,107.0
996.53,97.0
996.6,137.0
996.66,121.0
996.72,126.0
996.79,110.0
996.85,106.0
996.91,109.0
996.97,128.0
997.04,120.0
997.1,118.0
997.16,137.0
997.23,142.0
997.29,140.0
997.35,140.0
997.42,131.0
997.48,129.0
997.54,127.0
997.6,148.0
997.67,139.0
997.73,118.0
997.79,147.0
997.86,128.0
997.92,109.0
997.98,122.0
998.05,145.0
998.11,111.0
998.17,136.0
998.23,129.0
998.3,130.0
998.36,123.0
998.42,125.0
998.49,145.0
998.55,152.0
998.61,152.0
998.68,148.0
998.74,117.0
998.8,145.0
998.86,139.0
998.93,148.0
998.99,154.0
999.05,148.0
999.12,163.0
999.18,164.0
999.24,150.0
999.31,165.0
999.37,149.0
999.43,143.0
999.49,142.0
999.56,159.0
999.62,180.0
999.68,156.0
999.75,151.0
999.81,146.0
999.87,156.0
