timestamp,intensity
0,-273.0
0.06,-274.0
0.13,-272.0
0.19,-290.0
0.25,-292.0
0.32,-284.0
0.38,-273.0
0.44,-282.0
0.5,-266.0
0.57,-272.0
0.63,-265.0
0.69,-263.0
0.76,-266.0
0.82,-266.0
0.88,-290.0
0.94,-263.0
1.01,-258.0
1.07,-245.0
1.13,-257.0
1.2,-253.0
1.26,-241.0
1.32,-260.0
1.39,-238.0
1.45,-253.0
1.51,-263.0
1.57,-251.0
1.64,-243.0
1.7,-256.0
1.76,-245.0
1.83,-241.0
1.89,-227.0
1.95,-237.0
2.02,-221.0
2.08,-224.0
2.14,-249.0
2.2,-246.0
2.27,-251.0
2.33,-237.0
2.39,-226.0
2.46,-251.0
2.52,-252.0
2.58,-248.0
2.65,-266.0
2.71,-259.0
2.77,-257.0
2.84,-252.0
2.9,-266.0
2.96,-246.0
3.02,-248.0
3.09,-264.0
3.15,-244.0
3.21,-256.0
3.28,-236.0
3.34,-248.0
3.4,-241.0
3.47,-237.0
3.53,-245.0
3.59,-257.0
3.65,-238.0
3.72,-250.0
3.78,-256.0
3.84,-250.0
3.91,-254.0
3.97,-277.0
4.03,-265.0
4.1,-270.0
4.16,-263.0
4.22,-272.0
4.28,-275.0
4.35,-289.0
4.41,-277.0
4.47,-267.0
4.54,-270.0
4.6,-263.0
4.66,-277.0
4.73,-285.0
4.79,-298.0
4.85,-284.0
4.91,-285.0
4.98,-293.0
5.04,-292.0
5.1,-285.0
5.17,-285.0
5.23,-287.0
5.29,-284.0
5.35,-297.0
5.42,-299.0
5.48,-302.0
5.54,-311.0
5.61,-313.0
5.67,-307.0
5.73,-300.0
5.8,-298.0
5.86,-306.0
5.92,-300.0
5.98,-296.0
6.05,-288.0
6.11,-308.0
6.17,-309.0
6.24,-294.0
6.3,-314.0
6.36,-298.0
6.43,-306.0
6.49,-321.0
6.55,-319.0
6.61,-322.0
6.68,-328.0
6.74,-332.0
6.8,-318.0
6.87,-335.0
6.93,-334.0
6.99,-336.0
7.06,-325.0
7.12,-313.0
7.18,-300.0
7.24,-309.0
7.31,-308.0
7.37,-277.0
7.43,-289.0
7.5,-300.0
7.56,-301.0
7.62,-300.0
7.69,-304.0
7.75,-314.0
7.81,-288.0
7.87,-283.0
7.94,-283.0
8.0,-300.0
8.06,-301.0
8.13,-285.0
8.19,-291.0
8.25,-293.0
8.32,-298.0
8.38,-292.0
8.44,-293.0
8.5,-296.0
8.57,-291.0
8.63,-318.0
8.69,-314.0
8.76,-345.0
8.82,-339.0
8.88,-349.0
8.95,-343.0
9.01,-334.0
9.07,-356.0
9.13,-358.0
9.2,-339.0
9.26,-337.0
9.32,-341.0
9.39,-345.0
9.45,-351.0
9.51,-359.0
9.58,-356.0
9.64,-349.0
9.7,-356.0
9.77,-348.0
9.83,-365.0
9.89,-370.0
9.95,-383.0
10.02,-382.0
10.08,-376.0
10.14,-381.0
10.21,-369.0
10.27,-370.0
10.33,-371.0
10.4,-357.0
10.46,-376.0
10.52,-358.0
10.58,-340.0
10.65,-334.0
10.71,-331.0
10.77,-336.0
10.84,-327.0
10.9,-305.0
10.96,-313.0
11.03,-317.0
11.09,-308.0
11.15,-296.0
11.21,-317.0
11.28,-317.0
11.34,-292.0
11.4,-277.0
11.47,-290.0
11.53,-300.0
11.59,-306.0
11.66,-275.0
11.72,-281.0
11.78,-281.0
11.84,-280.0
11.91,-293.0
11.97,-292.0
12.03,-279.0
12.1,-263.0
12.16,-259.0
12.22,-261.0
12.29,-268.0
12.35,-275.0
12.41,-279.0
12.47,-270.0
12.54,-265.0
12.6,-245.0
12.66,-248.0
12.73,-248.0
12.79,-236.0
12.85,-246.0
12.92,-262.0
12.98,-255.0
13.04,-243.0
13.1,-253.0
13.17,-256.0
13.23,-242.0
13.29,-246.0
13.36,-235.0
13.42,-259.0
13.48,-248.0
13.55,-245.0
13.61,-234.0
13.67,-237.0
13.73,-235.0
13.8,-221.0
13.86,-221.0
13.92,-237.0
13.99,-234.0
14.05,-237.0
14.11,-224.0
14.18,-218.0
14.24,-227.0
14.3,-205.0
14.36,-205.0
14.43,-201.0
14.49,-190.0
14.55,-195.0
14.62,-196.0
14.68,-205.0
14.74,-207.0
14.81,-190.0
14.87,-218.0
14.93,-196.0
14.99,-164.0
15.06,-157.0
15.12,-159.0
15.18,-160.0
15.25,-155.0
15.31,-166.0
15.37,-175.0
15.44,-183.0
15.5,-174.0
15.56,-191.0
15.62,-177.0
15.69,-175.0
15.75,-165.0
15.81,-166.0
15.88,-158.0
15.94,-148.0
16.0,-153.0
16.07,-171.0
16.13,-165.0
16.19,-165.0
16.25,-159.0
16.32,-164.0
16.38,-170.0
16.44,-163.0
16.51,-190.0
16.57,-191.0
16.63,-181.0
16.7,-169.0
16.76,-183.0
16.82,-188.0
16.88,-173.0
16.95,-165.0
17.01,-157.0
17.07,-173.0
17.14,-168.0
17.2,-176.0
17.26,-173.0
17.33,-170.0
17.39,-179.0
17.45,-165.0
17.51,-151.0
17.58,-153.0
17.64,-149.0
17.7,-149.0
17.77,-126.0
17.83,-159.0
17.89,-164.0
17.96,-136.0
18.02,-131.0
18.08,-140.0
18.14,-140.0
18.21,-154.0
18.27,-143.0
18.33,-133.0
18.4,-144.0
18.46,-126.0
18.52,-126.0
18.59,-119.0
18.65,-119.0
18.71,-126.0
18.77,-125.0
18.84,-111.0
18.9,-106.0
18.96,-111.0
19.03,-129.0
19.09,-124.0
19.15,-120.0
19.22,-133.0
19.28,-114.0
19.34,-114.0
19.4,-104.0
19.47,-93.0
19.53,-100.0
19.59,-97.0
19.66,-105.0
19.72,-96.0
19.78,-92.0
19.84,-96.0
19.91,-112.0
19.97,-121.0
20.03,-98.0
20.1,-103.0
20.16,-122.0
20.22,-119.0
20.29,-119.0
20.35,-102.0
20.41,-107.0
20.47,-132.0
20.54,-119.0
20.6,-103.0
20.66,-97.0
20.73,-113.0
20.79,-114.0
20.85,-133.0
20.92,-120.0
20.98,-129.0
21.04,-146.0
21.1,-132.0
21.17,-142.0
21.23,-110.0
21.29,-110.0
21.36,-121.0
21.42,-115.0
21.48,-127.0
21.55,-128.0
21.61,-135.0
21.67,-121.0
21.73,-124.0
21.8,-139.0
21.86,-110.0
21.92,-112.0
21.99,-124.0
22.05,-143.0
22.11,-134.0
22.18,-147.0
22.24,-149.0
22.3,-148.0
22.36,-159.0
22.43,-146.0
22.49,-153.0
22.55,-184.0
22.62,-155.0
22.68,-148.0
22.74,-150.0
22.81,-154.0
22.87,-155.0
22.93,-144.0
22.99,-153.0
23.06,-160.0
23.12,-144.0
23.18,-141.0
23.25,-145.0
23.31,-148.0
23.37,-165.0
23.44,-147.0
23.5,-149.0
23.56,-160.0
23.62,-163.0
23.69,-167.0
23.75,-190.0
23.81,-168.0
23.88,-173.0
23.94,-185.0
24.0,-183.0
24.07,-184.0
24.13,-177.0
24.19,-167.0
24.25,-159.0
24.32,-173.0
24.38,-189.0
24.44,-193.0
24.51,-183.0
24.57,-208.0
24.63,-190.0
24.7,-203.0
24.76,-215.0
24.82,-216.0
24.88,-232.0
24.95,-227.0
25.01,-208.0
25.07,-204.0
25.14,-232.0
25.2,-231.0
25.26,-246.0
25.33,-223.0
25.39,-220.0
25.45,-233.0
25.51,-239.0
25.58,-261.0
25.64,-259.0
25.7,-263.0
25.77,-267.0
25.83,-270.0
25.89,-264.0
25.96,-272.0
26.02,-261.0
26.08,-258.0
26.14,-261.0
26.21,-271.0
26.27,-261.0
26.33,-264.0
26.4,-262.0
26.46,-240.0
26.52,-242.0
26.59,-262.0
26.65,-239.0
26.71,-262.0
26.77,-259.0
26.84,-222.0
26.9,-233.0
26.96,-254.0
27.03,-244.0
27.09,-227.0
27.15,-240.0
27.22,-229.0
27.28,-232.0
27.34,-220.0
27.4,-214.0
27.47,-226.0
27.53,-197.0
27.59,-220.0
27.66,-209.0
27.72,-197.0
27.78,-208.0
27.85,-201.0
27.91,-194.0
27.97,-205.0
28.03,-210.0
28.1,-223.0
28.16,-218.0
28.22,-190.0
28.29,-183.0
28.35,-180.0
28.41,-170.0
28.48,-189.0
28.54,-185.0
28.6,-171.0
28.66,-170.0
28.73,-191.0
28.79,-169.0
28.85,-169.0
28.92,-185.0
28.98,-200.0
29.04,-183.0
29.11,-155.0
29.17,-167.0
29.23,-187.0
29.29,-168.0
29.36,-168.0
29.42,-168.0
29.48,-176.0
29.55,-179.0
29.61,-171.0
29.67,-160.0
29.74,-137.0
29.8,-133.0
29.86,-149.0
29.92,-142.0
29.99,-156.0
30.05,-117.0
30.11,-124.0
30.18,-152.0
30.24,-155.0
30.3,-161.0
30.37,-142.0
30.43,-151.0
30.49,-148.0
30.55,-154.0
30.62,-123.0
30.68,-132.0
30.74,-152.0
30.81,-120.0
30.87,-122.0
30.93,-130.0
31.0,-146.0
31.06,-117.0
31.12,-114.0
31.18,-120.0
31.25,-129.0
31.31,-134.0
31.37,-134.0
31.44,-112.0
31.5,-144.0
31.56,-104.0
31.63,-131.0
31.69,-142.0
31.75,-127.0
31.81,-130.0
31.88,-153.0
31.94,-138.0
32.0,-127.0
32.07,-162.0
32.13,-154.0
32.19,-139.0
32.26,-163.0
32.32,-151.0
32.38,-167.0
32.44,-174.0
32.51,-181.0
32.57,-164.0
32.63,-155.0
32.7,-156.0
32.76,-172.0
32.82,-156.0
32.89,-152.0
32.95,-170.0
33.01,-159.0
33.07,-166.0
33.14,-145.0
33.2,-146.0
33.26,-139.0
33.33,-136.0
33.39,-145.0
33.45,-144.0
33.52,-155.0
33.58,-138.0
33.64,-122.0
33.7,-122.0
33.77,-124.0
33.83,-124.0
33.89,-138.0
33.96,-117.0
34.02,-117.0
34.08,-120.0
34.15,-135.0
34.21,-111.0
34.27,-133.0
34.33,-152.0
34.4,-111.0
34.46,-82.0
34.52,-98.0
34.59,-87.0
34.65,-86.0
34.71,-86.0
34.78,-82.0
34.84,-82.0
34.9,-83.0
34.96,-87.0
35.03,-75.0
35.09,-67.0
35.15,-82.0
35.22,-63.0
35.28,-76.0
35.34,-82.0
35.41,-93.0
35.47,-84.0
35.53,-79.0
35.59,-88.0
35.66,-90.0
35.72,-86.0
35.78,-86.0
35.85,-86.0
35.91,-84.0
35.97,-72.0
36.04,-78.0
36.1,-83.0
36.16,-83.0
36.22,-72.0
36.29,-75.0
36.35,-74.0
36.41,-69.0
36.48,-69.0
36.54,-69.0
36.6,-41.0
36.67,-64.0
36.73,-55.0
36.79,-62.0
36.85,-54.0
36.92,-69.0
36.98,-80.0
37.04,-53.0
37.11,-58.0
37.17,-46.0
37.23,-19.0
37.3,-37.0
37.36,-51.0
37.42,-56.0
37.48,-44.0
37.55,-47.0
37.61,-53.0
37.67,-25.0
37.74,-31.0
37.8,-49.0
37.86,-46.0
37.93,-43.0
37.99,-46.0
38.05,-56.0
38.12,-50.0
38.18,-57.0
38.24,-43.0
38.3,-51.0
38.37,-56.0
38.43,-65.0
38.49,-52.0
38.56,-54.0
38.62,-81.0
38.68,-58.0
38.75,-70.0
38.81,-55.0
38.87,-46.0
38.93,-56.0
39.0,-48.0
39.06,-62.0
39.12,-64.0
39.19,-39.0
39.25,-54.0
39.31,-39.0
39.38,-65.0
39.44,-48.0
39.5,-76.0
39.56,-78.0
39.63,-57.0
39.69,-47.0
39.75,-72.0
39.82,-86.0
39.88,-85.0
39.94,-91.0
40.01,-89.0
40.07,-92.0
40.13,-68.0
40.19,-86.0
40.26,-87.0
40.32,-111.0
40.38,-84.0
40.45,-91.0
40.51,-86.0
40.57,-97.0
40.64,-104.0
40.7,-105.0
40.76,-87.0
40.82,-98.0
40.89,-112.0
40.95,-123.0
41.01,-109.0
41.08,-107.0
41.14,-92.0
41.2,-82.0
41.27,-78.0
41.33,-91.0
41.39,-119.0
41.45,-106.0
41.52,-101.0
41.58,-70.0
41.64,-60.0
41.71,-99.0
41.77,-98.0
41.83,-117.0
41.9,-100.0
41.96,-95.0
42.02,-91.0
42.08,-111.0
42.15,-87.0
42.21,-96.0
42.27,-108.0
42.34,-126.0
42.4,-113.0
42.46,-105.0
42.53,-113.0
42.59,-127.0
42.65,-139.0
42.71,-123.0
42.78,-150.0
42.84,-132.0
42.9,-147.0
42.97,-143.0
43.03,-138.0
43.09,-163.0
43.16,-140.0
43.22,-141.0
43.28,-168.0
43.34,-165.0
43.41,-159.0
43.47,-146.0
43.53,-165.0
43.6,-167.0
43.66,-164.0
43.72,-140.0
43.79,-149.0
43.85,-127.0
43.91,-114.0
43.97,-115.0
44.04,-102.0
44.1,-107.0
44.16,-110.0
44.23,-123.0
44.29,-122.0
44.35,-125.0
44.42,-123.0
44.48,-96.0
44.54,-111.0
44.6,-143.0
44.67,-108.0
44.73,-124.0
44.79,-138.0
44.86,-127.0
44.92,-114.0
44.98,-97.0
45.05,-100.0
45.11,-86.0
45.17,-72.0
45.23,-76.0
45.3,-81.0
45.36,-90.0
45.42,-82.0
45.49,-72.0
45.55,-76.0
45.61,-87.0
45.68,-98.0
45.74,-97.0
45.8,-74.0
45.86,-73.0
45.93,-92.0
45.99,-77.0
46.05,-96.0
46.12,-97.0
46.18,-93.0
46.24,-76.0
46.31,-94.0
46.37,-102.0
46.43,-100.0
46.49,-87.0
46.56,-88.0
46.62,-87.0
46.68,-92.0
46.75,-84.0
46.81,-77.0
46.87,-88.0
46.94,-86.0
47.0,-85.0
47.06,-82.0
47.12,-76.0
47.19,-89.0
47.25,-77.0
47.31,-70.0
47.38,-94.0
47.44,-92.0
47.5,-96.0
47.57,-99.0
47.63,-100.0
47.69,-100.0
47.75,-113.0
47.82,-127.0
47.88,-117.0
47.94,-113.0
48.01,-114.0
48.07,-115.0
48.13,-127.0
48.2,-124.0
48.26,-127.0
48.32,-126.0
48.38,-132.0
48.45,-123.0
48.51,-117.0
48.57,-133.0
48.64,-105.0
48.7,-97.0
48.76,-95.0
48.83,-126.0
48.89,-142.0
48.95,-115.0
49.01,-115.0
49.08,-112.0
49.14,-120.0
49.2,-110.0
49.27,-114.0
49.33,-101.0
49.39,-108.0
49.46,-138.0
49.52,-151.0
49.58,-145.0
49.64,-123.0
49.71,-122.0
49.77,-107.0
49.83,-100.0
49.9,-122.0
49.96,-108.0
50.02,-113.0
50.09,-102.0
50.15,-131.0
50.21,-137.0
50.27,-124.0
50.34,-121.0
50.4,-112.0
50.46,-118.0
50.53,-116.0
50.59,-114.0
50.65,-106.0
50.72,-96.0
50.78,-94.0
50.84,-93.0
50.9,-111.0
50.97,-109.0
51.03,-115.0
51.09,-118.0
51.16,-100.0
51.22,-101.0
51.28,-89.0
51.35,-92.0
51.41,-92.0
51.47,-85.0
51.53,-86.0
51.6,-89.0
51.66,-87.0
51.72,-83.0
51.79,-99.0
51.85,-81.0
51.91,-95.0
51.98,-84.0
52.04,-78.0
52.1,-90.0
52.16,-89.0
52.23,-84.0
52.29,-106.0
52.35,-119.0
52.42,-112.0
52.48,-94.0
52.54,-115.0
52.61,-109.0
52.67,-112.0
52.73,-94.0
52.79,-107.0
52.86,-103.0
52.92,-85.0
52.98,-73.0
53.05,-81.0
53.11,-88.0
53.17,-92.0
53.24,-70.0
53.3,-75.0
53.36,-82.0
53.42,-101.0
53.49,-72.0
53.55,-98.0
53.61,-121.0
53.68,-112.0
53.74,-118.0
53.8,-80.0
53.87,-82.0
53.93,-73.0
53.99,-82.0
54.05,-73.0
54.12,-57.0
54.18,-68.0
54.24,-80.0
54.31,-56.0
54.37,-68.0
54.43,-79.0
54.5,-65.0
54.56,-74.0
54.62,-63.0
54.68,-75.0
54.75,-55.0
54.81,-57.0
54.87,-67.0
54.94,-54.0
55.0,-53.0
55.06,-44.0
55.13,-53.0
55.19,-68.0
55.25,-58.0
55.31,-71.0
55.38,-67.0
55.44,-56.0
55.5,-72.0
55.57,-75.0
55.63,-65.0
55.69,-44.0
55.76,-34.0
55.82,-44.0
55.88,-43.0
55.94,-47.0
56.01,-74.0
56.07,-67.0
56.13,-63.0
56.2,-53.0
56.26,-33.0
56.32,-58.0
56.39,-66.0
56.45,-63.0
56.51,-58.0
56.57,-69.0
56.64,-61.0
56.7,-60.0
56.76,-69.0
56.83,-90.0
56.89,-97.0
56.95,-94.0
57.02,-82.0
57.08,-100.0
57.14,-82.0
57.2,-84.0
57.27,-77.0
57.33,-67.0
57.39,-80.0
57.46,-76.0
57.52,-86.0
57.58,-76.0
57.65,-78.0
57.71,-66.0
57.77,-49.0
57.83,-63.0
57.9,-65.0
57.96,-69.0
58.02,-80.0
58.09,-98.0
58.15,-88.0
58.21,-99.0
58.28,-92.0
58.34,-80.0
58.4,-90.0
58.46,-81.0
58.53,-75.0
58.59,-93.0
58.65,-74.0
58.72,-94.0
58.78,-111.0
58.84,-110.0
58.91,-82.0
58.97,-80.0
59.03,-102.0
59.09,-104.0
59.16,-107.0
59.22,-85.0
59.28,-105.0
59.35,-111.0
59.41,-111.0
59.47,-118.0
59.54,-102.0
59.6,-94.0
59.66,-89.0
59.72,-87.0
59.79,-100.0
59.85,-79.0
59.91,-78.0
59.98,-96.0
60.04,-83.0
60.1,-83.0
60.17,-81.0
60.23,-89.0
60.29,-90.0
60.35,-86.0
60.42,-72.0
60.48,-69.0
60.54,-59.0
60.61,-61.0
60.67,-51.0
60.73,-44.0
60.8,-64.0
60.86,-78.0
60.92,-68.0
60.98,-46.0
61.05,-70.0
61.11,-51.0
61.17,-53.0
61.24,-48.0
61.3,-35.0
61.36,-55.0
61.43,-59.0
61.49,-75.0
61.55,-73.0
61.61,-58.0
61.68,-43.0
61.74,-57.0
61.8,-48.0
61.87,-41.0
61.93,-33.0
61.99,-70.0
62.06,-86.0
62.12,-64.0
62.18,-63.0
62.24,-66.0
62.31,-63.0
62.37,-49.0
62.43,-57.0
62.5,-54.0
62.56,-65.0
62.62,-59.0
62.69,-59.0
62.75,-67.0
62.81,-80.0
62.87,-87.0
62.94,-66.0
63.0,-50.0
63.06,-53.0
63.13,-47.0
63.19,-55.0
63.25,-58.0
63.32,-50.0
63.38,-63.0
63.44,-54.0
63.5,-43.0
63.57,-54.0
63.63,-37.0
63.69,-40.0
63.76,-32.0
63.82,-38.0
63.88,-43.0
63.95,-39.0
64.01,-48.0
64.07,-10.0
64.13,-30.0
64.2,-28.0
64.26,-33.0
64.32,-26.0
64.39,-27.0
64.45,-32.0
64.51,-27.0
64.58,-30.0
64.64,-37.0
64.7,-42.0
64.76,-37.0
64.83,-27.0
64.89,-21.0
64.95,-30.0
65.02,-40.0
65.08,-26.0
65.14,-44.0
65.21,-38.0
65.27,-43.0
65.33,-51.0
65.39,-47.0
65.46,-36.0
65.52,-46.0
65.58,-32.0
65.65,-32.0
65.71,-33.0
65.77,-19.0
65.84,-16.0
65.9,-10.0
65.96,-34.0
66.02,-30.0
66.09,-19.0
66.15,-9.0
66.21,-7.0
66.28,-19.0
66.34,-16.0
66.4,1.0
66.47,-15.0
66.53,-13.0
66.59,-5.0
66.65,-13.0
66.72,-12.0
66.78,-20.0
66.84,-35.0
66.91,-31.0
66.97,-24.0
67.03,-32.0
67.1,-14.0
67.16,-15.0
67.22,-27.0
67.28,-12.0
67.35,-36.0
67.41,-31.0
67.47,-29.0
67.54,-37.0
67.6,0.0
67.66,-26.0
67.73,0.0
67.79,9.0
67.85,-3.0
67.91,-4.0
67.98,-14.0
68.04,-7.0
68.1,-15.0
68.17,-11.0
68.23,-9.0
68.29,15.0
68.36,-3.0
68.42,-17.0
68.48,-20.0
68.54,-15.0
68.61,-19.0
68.67,-28.0
68.73,-14.0
68.8,0.0
68.86,19.0
68.92,13.0
68.99,17.0
69.05,-3.0
69.11,-11.0
69.17,0.0
69.24,17.0
69.3,6.0
69.36,-4.0
69.43,-18.0
69.49,-20.0
69.55,-15.0
69.62,0.0
69.68,14.0
69.74,11.0
69.8,24.0
69.87,19.0
69.93,4.0
69.99,2.0
70.06,12.0
70.12,10.0
70.18,20.0
70.25,38.0
70.31,27.0
70.37,22.0
70.43,5.0
70.5,11.0
70.56,-1.0
70.62,19.0
70.69,22.0
70.75,19.0
70.81,33.0
70.88,31.0
70.94,35.0
71.0,49.0
71.06,30.0
71.13,32.0
71.19,58.0
71.25,56.0
71.32,73.0
71.38,79.0
71.44,77.0
71.51,68.0
71.57,71.0
71.63,70.0
71.69,84.0
71.76,72.0
71.82,83.0
71.88,83.0
71.95,79.0
72.01,85.0
72.07,79.0
72.14,83.0
72.2,80.0
72.26,69.0
72.32,67.0
72.39,61.0
72.45,82.0
72.51,76.0
72.58,99.0
72.64,110.0
72.7,93.0
72.77,93.0
72.83,88.0
72.89,95.0
72.95,64.0
73.02,74.0
73.08,74.0
73.14,76.0
73.21,71.0
73.27,84.0
73.33,88.0
73.4,87.0
73.46,96.0
73.52,104.0
73.58,103.0
73.65,84.0
73.71,102.0
73.77,74.0
73.84,62.0
73.9,87.0
73.96,81.0
74.03,91.0
74.09,105.0
74.15,105.0
74.21,90.0
74.28,105.0
74.34,93.0
74.4,112.0
74.47,110.0
74.53,94.0
74.59,89.0
74.66,90.0
74.72,96.0
74.78,88.0
74.84,73.0
74.91,92.0
74.97,81.0
75.03,77.0
75.1,79.0
75.16,76.0
75.22,69.0
75.29,66.0
75.35,71.0
75.41,52.0
75.47,63.0
75.54,57.0
75.6,48.0
75.66,38.0
75.73,51.0
75.79,78.0
75.85,51.0
75.92,69.0
75.98,48.0
76.04,33.0
76.1,35.0
76.17,32.0
76.23,37.0
76.29,51.0
76.36,40.0
76.42,35.0
76.48,49.0
76.55,47.0
76.61,40.0
76.67,34.0
76.73,36.0
76.8,34.0
76.86,57.0
76.92,62.0
76.99,36.0
77.05,39.0
77.11,34.0
77.18,68.0
77.24,65.0
77.3,60.0
77.36,76.0
77.43,57.0
77.49,53.0
77.55,58.0
77.62,56.0
77.68,58.0
77.74,64.0
77.81,70.0
77.87,72.0
77.93,80.0
77.99,46.0
78.06,56.0
78.12,60.0
78.18,65.0
78.25,55.0
78.31,67.0
78.37,77.0
78.44,90.0
78.5,88.0
78.56,84.0
78.62,93.0
78.69,90.0
78.75,86.0
78.81,74.0
78.88,78.0
78.94,81.0
79.0,85.0
79.07,80.0
79.13,91.0
79.19,109.0
79.25,115.0
79.32,104.0
79.38,98.0
79.44,107.0
79.51,100.0
79.57,109.0
79.63,103.0
79.7,103.0
79.76,104.0
79.82,110.0
79.88,106.0
79.95,95.0
80.01,87.0
80.07,104.0
80.14,91.0
80.2,73.0
80.26,116.0
80.33,91.0
80.39,75.0
80.45,85.0
80.51,102.0
80.58,95.0
80.64,89.0
80.7,85.0
80.77,79.0
80.83,73.0
80.89,76.0
80.96,61.0
81.02,73.0
81.08,59.0
81.14,48.0
81.21,60.0
81.27,57.0
81.33,80.0
81.4,84.0
81.46,77.0
81.52,61.0
81.59,67.0
81.65,67.0
81.71,43.0
81.77,69.0
81.84,60.0
81.9,29.0
81.96,35.0
82.03,29.0
82.09,30.0
82.15,38.0
82.22,34.0
82.28,22.0
82.34,8.0
82.4,3.0
82.47,2.0
82.53,2.0
82.59,1.0
82.66,25.0
82.72,11.0
82.78,14.0
82.85,23.0
82.91,12.0
82.97,21.0
83.03,37.0
83.1,33.0
83.16,37.0
83.22,29.0
83.29,17.0
83.35,21.0
83.41,20.0
83.48,27.0
83.54,9.0
83.6,12.0
83.66,22.0
83.73,21.0
83.79,16.0
83.85,26.0
83.92,15.0
83.98,5.0
84.04,15.0
84.11,-1.0
84.17,-1.0
84.23,-8.0
84.29,-11.0
84.36,2.0
84.42,-4.0
84.48,-15.0
84.55,7.0
84.61,-14.0
84.67,-9.0
84.74,-10.0
84.8,-6.0
84.86,-6.0
84.92,-1.0
84.99,19.0
85.05,9.0
85.11,-17.0
85.18,-11.0
85.24,-16.0
85.3,-10.0
85.37,-5.0
85.43,0.0
85.49,7.0
85.55,6.0
85.62,-11.0
85.68,-15.0
85.74,-10.0
85.81,-4.0
85.87,-9.0
85.93,1.0
86.0,-16.0
86.06,-8.0
86.12,-36.0
86.18,-22.0
86.25,-12.0
86.31,-18.0
86.37,-22.0
86.44,-28.0
86.5,-23.0
86.56,-22.0
86.63,-14.0
86.69,-16.0
86.75,8.0
86.81,12.0
86.88,17.0
86.94,-9.0
87.0,-13.0
87.07,-21.0
87.13,-14.0
87.19,-10.0
87.26,-12.0
87.32,-17.0
87.38,-20.0
87.44,-23.0
87.51,-12.0
87.57,-1.0
87.63,-19.0
87.7,-26.0
87.76,-29.0
87.82,-22.0
87.89,-25.0
87.95,-13.0
88.01,-18.0
88.07,-22.0
88.14,-17.0
88.2,-32.0
88.26,-38.0
88.33,-43.0
88.39,-55.0
88.45,-32.0
88.52,-24.0
88.58,-34.0
88.64,-46.0
88.7,-45.0
88.77,-24.0
88.83,-54.0
88.89,-42.0
88.96,-36.0
89.02,-32.0
89.08,-17.0
89.15,-26.0
89.21,-25.0
89.27,-12.0
89.33,-26.0
89.4,-35.0
89.46,-27.0
89.52,-43.0
89.59,-34.0
89.65,-38.0
89.71,-42.0
89.78,-35.0
89.84,-38.0
89.9,-34.0
89.96,-41.0
90.03,-42.0
90.09,-29.0
90.15,-19.0
90.22,-19.0
90.28,-14.0
90.34,-29.0
90.41,-5.0
90.47,-3.0
90.53,-5.0
90.59,-7.0
90.66,-20.0
90.72,-24.0
90.78,-17.0
90.85,-13.0
90.91,14.0
90.97,29.0
91.04,5.0
91.1,-13.0
91.16,5.0
91.22,11.0
91.29,21.0
91.35,7.0
91.41,20.0
91.48,-23.0
91.54,-22.0
91.6,-2.0
91.67,-14.0
91.73,-7.0
91.79,-2.0
91.85,0.0
91.92,-9.0
91.98,-37.0
92.04,-39.0
92.11,-37.0
92.17,-11.0
92.23,-13.0
92.3,18.0
92.36,13.0
92.42,-14.0
92.48,16.0
92.55,10.0
92.61,2.0
92.67,-14.0
92.74,-13.0
92.8,-13.0
92.86,2.0
92.93,8.0
92.99,-13.0
93.05,-7.0
93.11,17.0
93.18,-9.0
93.24,15.0
93.3,-1.0
93.37,-6.0
93.43,7.0
93.49,-22.0
93.56,-1.0
93.62,4.0
93.68,-5.0
93.74,-6.0
93.81,12.0
93.87,21.0
93.93,23.0
94.0,28.0
94.06,24.0
94.12,11.0
94.19,25.0
94.25,3.0
94.31,5.0
94.37,29.0
94.44,5.0
94.5,4.0
94.56,12.0
94.63,-3.0
94.69,10.0
94.75,-11.0
94.82,-2.0
94.88,28.0
94.94,28.0
95.0,16.0
95.07,15.0
95.13,29.0
95.19,29.0
95.26,33.0
95.32,23.0
95.38,31.0
95.45,24.0
95.51,27.0
95.57,39.0
95.63,37.0
95.7,43.0
95.76,37.0
95.82,75.0
95.89,69.0
95.95,57.0
96.01,47.0
96.08,38.0
96.14,54.0
96.2,60.0
96.26,61.0
96.33,65.0
96.39,40.0
96.45,59.0
96.52,61.0
96.58,55.0
96.64,51.0
96.71,73.0
96.77,62.0
96.83,61.0
96.89,60.0
96.96,38.0
97.02,75.0
97.08,73.0
97.15,97.0
97.21,98.0
97.27,80.0
97.34,84.0
97.4,76.0
97.46,90.0
97.52,86.0
97.59,95.0
97.65,93.0
97.71,78.0
97.78,86.0
97.84,95.0
97.9,97.0
97.97,81.0
98.03,77.0
98.09,94.0
98.15,91.0
98.22,86.0
98.28,86.0
98.34,81.0
98.41,102.0
98.47,69.0
98.53,51.0
98.6,63.0
98.66,53.0
98.72,48.0
98.78,69.0
98.85,72.0
98.91,90.0
98.97,51.0
99.04,43.0
99.1,51.0
99.16,54.0
99.23,55.0
99.29,39.0
99.35,37.0
99.41,46.0
99.48,28.0
99.54,38.0
99.6,48.0
99.67,32.0
99.73,29.0
99.79,33.0
99.86,28.0
99.92,23.0
99.98,33.0
100.04,23.0
100.11,39.0
100.17,32.0
100.23,31.0
100.3,27.0
100.36,28.0
100.42,39.0
100.49,30.0
100.55,32.0
100.61,14.0
100.67,24.0
100.74,26.0
100.8,7.0
100.86,-3.0
100.93,4.0
100.99,-1.0
101.05,-13.0
101.12,-2.0
101.18,13.0
101.24,-16.0
101.3,-6.0
101.37,33.0
101.43,49.0
101.49,50.0
101.56,38.0
101.62,51.0
101.68,39.0
101.75,30.0
101.81,36.0
101.87,39.0
101.93,44.0
102.0,55.0
102.06,47.0
102.12,43.0
102.19,51.0
102.25,36.0
102.31,22.0
102.38,-4.0
102.44,-8.0
102.5,-6.0
102.56,-3.0
102.63,4.0
102.69,7.0
102.75,19.0
102.82,4.0
102.88,28.0
102.94,11.0
103.01,-5.0
103.07,-9.0
103.13,-11.0
103.19,2.0
103.26,3.0
103.32,-18.0
103.38,-30.0
103.45,-11.0
103.51,-14.0
103.57,-21.0
103.64,-29.0
103.7,-14.0
103.76,-28.0
103.82,-29.0
103.89,-40.0
103.95,-65.0
104.01,-67.0
104.08,-43.0
104.14,-26.0
104.2,-11.0
104.27,-33.0
104.33,-30.0
104.39,-8.0
104.45,-11.0
104.52,-6.0
104.58,-8.0
104.64,-12.0
104.71,2.0
104.77,-15.0
104.83,-24.0
104.9,-8.0
104.96,-11.0
105.02,-5.0
105.08,-11.0
105.15,-13.0
105.21,-32.0
105.27,-26.0
105.34,-24.0
105.4,-28.0
105.46,-35.0
105.53,-30.0
105.59,-23.0
105.65,-44.0
105.71,-49.0
105.78,-36.0
105.84,-39.0
105.9,-29.0
105.97,-29.0
106.03,-28.0
106.09,-42.0
106.16,-32.0
106.22,-46.0
106.28,-37.0
106.34,-50.0
106.41,-53.0
106.47,-68.0
106.53,-50.0
106.6,-50.0
106.66,-64.0
106.72,-68.0
106.79,-65.0
106.85,-64.0
106.91,-90.0
106.97,-71.0
107.04,-69.0
107.1,-67.0
107.16,-79.0
107.23,-81.0
107.29,-65.0
107.35,-80.0
107.42,-54.0
107.48,-32.0
107.54,-48.0
107.6,-56.0
107.67,-42.0
107.73,-66.0
107.79,-57.0
107.86,-63.0
107.92,-66.0
107.98,-54.0
108.05,-73.0
108.11,-67.0
108.17,-40.0
108.23,-49.0
108.3,-47.0
108.36,-47.0
108.42,-44.0
108.49,-68.0
108.55,-80.0
108.61,-73.0
108.68,-66.0
108.74,-56.0
108.8,-53.0
108.86,-57.0
108.93,-57.0
108.99,-67.0
109.05,-82.0
109.12,-67.0
109.18,-51.0
109.24,-50.0
109.31,-61.0
109.37,-64.0
109.43,-71.0
109.49,-61.0
109.56,-56.0
109.62,-62.0
109.68,-41.0
109.75,-39.0
109.81,-54.0
109.87,-43.0
109.94,-35.0
110.0,-42.0
110.06,-24.0
110.12,-21.0
110.19,-24.0
110.25,-27.0
110.31,-13.0
110.38,-15.0
110.44,-5.0
110.5,4.0
110.57,-2.0
110.63,10.0
110.69,-7.0
110.75,-1.0
110.82,8.0
110.88,3.0
110.94,3.0
111.01,-11.0
111.07,-1.0
111.13,8.0
111.2,7.0
111.26,-30.0
111.32,-17.0
111.38,-9.0
111.45,-9.0
111.51,8.0
111.57,19.0
111.64,13.0
111.7,39.0
111.76,34.0
111.83,34.0
111.89,38.0
111.95,38.0
112.01,38.0
112.08,45.0
112.14,45.0
112.2,37.0
112.27,52.0
112.33,47.0
112.39,37.0
112.46,56.0
112.52,78.0
112.58,49.0
112.64,64.0
112.71,64.0
112.77,73.0
112.83,78.0
112.9,60.0
112.96,70.0
113.02,74.0
113.09,86.0
113.15,103.0
113.21,104.0
113.27,102.0
113.34,102.0
113.4,108.0
113.46,103.0
113.53,100.0
113.59,100.0
113.65,101.0
113.72,93.0
113.78,104.0
113.84,96.0
113.9,96.0
113.97,99.0
114.03,106.0
114.09,110.0
114.16,101.0
114.22,90.0
114.28,96.0
114.35,89.0
114.41,70.0
114.47,82.0
114.53,82.0
114.6,101.0
114.66,92.0
114.72,93.0
114.79,89.0
114.85,78.0
114.91,80.0
114.98,69.0
115.04,62.0
115.1,46.0
115.16,77.0
115.23,73.0
115.29,67.0
115.35,71.0
115.42,66.0
115.48,78.0
115.54,68.0
115.61,80.0
115.67,67.0
115.73,57.0
115.79,55.0
115.86,69.0
115.92,82.0
115.98,68.0
116.05,87.0
116.11,86.0
116.17,67.0
116.24,49.0
116.3,60.0
116.36,64.0
116.42,67.0
116.49,63.0
116.55,45.0
116.61,49.0
116.68,61.0
116.74,49.0
116.8,47.0
116.87,56.0
116.93,34.0
116.99,29.0
117.05,41.0
117.12,44.0
117.18,42.0
117.24,35.0
117.31,36.0
117.37,36.0
117.43,38.0
117.5,37.0
117.56,53.0
117.62,34.0
117.68,29.0
117.75,34.0
117.81,50.0
117.87,38.0
117.94,31.0
118.0,37.0
118.06,44.0
118.13,38.0
118.19,31.0
118.25,34.0
118.31,48.0
118.38,52.0
118.44,55.0
118.5,55.0
118.57,67.0
118.63,56.0
118.69,62.0
118.76,58.0
118.82,56.0
118.88,62.0
118.94,51.0
119.01,75.0
119.07,75.0
119.13,51.0
119.2,82.0
119.26,84.0
119.32,63.0
119.39,67.0
119.45,56.0
119.51,70.0
119.57,60.0
119.64,54.0
119.7,58.0
119.76,78.0
119.83,80.0
119.89,78.0
119.95,82.0
120.02,76.0
120.08,93.0
120.14,83.0
120.2,86.0
120.27,81.0
120.33,74.0
120.39,62.0
120.46,71.0
120.52,87.0
120.58,82.0
120.65,68.0
120.71,70.0
120.77,79.0
120.83,62.0
120.9,61.0
120.96,71.0
121.02,71.0
121.09,72.0
121.15,81.0
121.21,56.0
121.28,78.0
121.34,86.0
121.4,73.0
121.46,57.0
121.53,52.0
121.59,67.0
121.65,62.0
121.72,64.0
121.78,70.0
121.84,51.0
121.91,71.0
121.97,45.0
122.03,51.0
122.09,68.0
122.16,60.0
122.22,43.0
122.28,48.0
122.35,46.0
122.41,45.0
122.47,46.0
122.54,28.0
122.6,58.0
122.66,20.0
122.72,22.0
122.79,39.0
122.85,48.0
122.91,48.0
122.98,50.0
123.04,51.0
123.1,36.0
123.17,34.0
123.23,50.0
123.29,48.0
123.35,59.0
123.42,64.0
123.48,61.0
123.54,75.0
123.61,64.0
123.67,58.0
123.73,50.0
123.8,47.0
123.86,70.0
123.92,54.0
123.98,40.0
124.05,38.0
124.11,62.0
124.17,58.0
124.24,56.0
124.3,56.0
124.36,49.0
124.43,42.0
124.49,57.0
124.55,59.0
124.61,59.0
124.68,48.0
124.74,50.0
124.8,54.0
124.87,38.0
124.93,16.0
124.99,38.0
125.06,27.0
125.12,27.0
125.18,27.0
125.24,27.0
125.31,30.0
125.37,15.0
125.43,13.0
125.5,21.0
125.56,7.0
125.62,2.0
125.69,8.0
125.75,18.0
125.81,36.0
125.87,18.0
125.94,23.0
126.0,24.0
126.06,23.0
126.13,2.0
126.19,13.0
126.25,4.0
126.32,12.0
126.38,27.0
126.44,41.0
126.5,34.0
126.57,35.0
126.63,45.0
126.69,43.0
126.76,60.0
126.82,43.0
126.88,46.0
126.95,59.0
127.01,55.0
127.07,69.0
127.13,57.0
127.2,56.0
127.26,75.0
127.32,59.0
127.39,65.0
127.45,76.0
127.51,75.0
127.58,86.0
127.64,73.0
127.7,88.0
127.76,70.0
127.83,82.0
127.89,76.0
127.95,85.0
128.02,102.0
128.08,111.0
128.14,109.0
128.21,108.0
128.27,108.0
128.33,98.0
128.39,108.0
128.46,115.0
128.52,127.0
128.58,136.0
128.65,135.0
128.71,135.0
128.77,137.0
128.84,151.0
128.9,148.0
128.96,134.0
129.02,142.0
129.09,140.0
129.15,144.0
129.21,145.0
129.28,155.0
129.34,154.0
129.4,158.0
129.47,167.0
129.53,168.0
129.59,166.0
129.65,178.0
129.72,159.0
129.78,159.0
129.84,168.0
129.91,170.0
129.97,176.0
130.03,177.0
130.1,182.0
130.16,175.0
130.22,183.0
130.28,166.0
130.35,183.0
130.41,179.0
130.47,169.0
130.54,173.0
130.6,161.0
130.66,172.0
130.73,170.0
130.79,159.0
130.85,153.0
130.91,180.0
130.98,176.0
131.04,196.0
131.1,195.0
131.17,196.0
131.23,188.0
131.29,186.0
131.36,190.0
131.42,189.0
131.48,198.0
131.54,190.0
131.61,200.0
131.67,199.0
131.73,197.0
131.8,216.0
131.86,200.0
131.92,196.0
131.99,199.0
132.05,193.0
132.11,176.0
132.17,181.0
132.24,198.0
132.3,177.0
132.36,190.0
132.43,189.0
132.49,195.0
132.55,192.0
132.62,180.0
132.68,172.0
132.74,169.0
132.8,189.0
132.87,184.0
132.93,193.0
132.99,179.0
133.06,200.0
133.12,197.0
133.18,200.0
133.25,218.0
133.31,200.0
133.37,192.0
133.43,197.0
133.5,181.0
133.56,166.0
133.62,184.0
133.69,191.0
133.75,180.0
133.81,163.0
133.88,159.0
133.94,185.0
134.0,166.0
134.06,181.0
134.13,203.0
134.19,192.0
134.25,158.0
134.32,190.0
134.38,176.0
134.44,164.0
134.51,163.0
134.57,167.0
134.63,169.0
134.69,166.0
134.76,181.0
134.82,166.0
134.88,159.0
134.95,142.0
135.01,152.0
135.07,167.0
135.14,180.0
135.2,172.0
135.26,169.0
135.32,162.0
135.39,163.0
135.45,161.0
135.51,189.0
135.58,185.0
135.64,193.0
135.7,197.0
135.77,197.0
135.83,183.0
135.89,188.0
135.95,195.0
136.02,190.0
136.08,189.0
136.14,175.0
136.21,168.0
136.27,183.0
136.33,183.0
136.4,180.0
136.46,166.0
136.52,153.0
136.58,154.0
136.65,160.0
136.71,166.0
136.77,181.0
136.84,178.0
136.9,169.0
136.96,137.0
137.03,126.0
137.09,134.0
137.15,144.0
137.21,144.0
137.28,138.0
137.34,129.0
137.4,142.0
137.47,128.0
137.53,122.0
137.59,108.0
137.66,117.0
137.72,137.0
137.78,126.0
137.84,124.0
137.91,100.0
137.97,105.0
138.03,90.0
138.1,121.0
138.16,122.0
138.22,118.0
138.29,98.0
138.35,99.0
138.41,106.0
138.47,107.0
138.54,96.0
138.6,89.0
138.66,90.0
138.73,87.0
138.79,75.0
138.85,84.0
138.92,85.0
138.98,72.0
139.04,82.0
139.1,63.0
139.17,58.0
139.23,64.0
139.29,58.0
139.36,60.0
139.42,52.0
139.48,51.0
139.55,53.0
139.61,45.0
139.67,40.0
139.73,65.0
139.8,48.0
139.86,38.0
139.92,19.0
139.99,16.0
140.05,21.0
140.11,18.0
140.18,20.0
140.24,13.0
140.3,11.0
140.36,8.0
140.43,22.0
140.49,-5.0
140.55,1.0
140.62,-3.0
140.68,11.0
140.74,19.0
140.81,-7.0
140.87,-23.0
140.93,0.0
140.99,-5.0
141.06,-5.0
141.12,-8.0
141.18,19.0
141.25,8.0
141.31,-13.0
141.37,0.0
141.44,-15.0
141.5,-16.0
141.56,-24.0
141.62,-3.0
141.69,-7.0
141.75,-8.0
141.81,1.0
141.88,-5.0
141.94,-6.0
142.0,-15.0
142.07,-33.0
142.13,-33.0
142.19,-6.0
142.25,-27.0
142.32,-29.0
142.38,-27.0
142.44,-45.0
142.51,-33.0
142.57,-50.0
142.63,-37.0
142.7,-37.0
142.76,-45.0
142.82,-59.0
142.88,-67.0
142.95,-45.0
143.01,-34.0
143.07,-38.0
143.14,-47.0
143.2,-41.0
143.26,-37.0
143.33,-23.0
143.39,-31.0
143.45,-39.0
143.51,-21.0
143.58,-30.0
143.64,-51.0
143.7,-48.0
143.77,-64.0
143.83,-57.0
143.89,-64.0
143.96,-42.0
144.02,-62.0
144.08,-66.0
144.14,-64.0
144.21,-69.0
144.27,-67.0
144.33,-59.0
144.4,-51.0
144.46,-40.0
144.52,-29.0
144.59,-38.0
144.65,-34.0
144.71,-45.0
144.77,-42.0
144.84,-29.0
144.9,-31.0
144.96,-20.0
145.03,-36.0
145.09,-28.0
145.15,-37.0
145.22,-48.0
145.28,-40.0
145.34,-33.0
145.4,-31.0
145.47,-27.0
145.53,-32.0
145.59,-22.0
145.66,-6.0
145.72,-5.0
145.78,-31.0
145.85,-7.0
145.91,-11.0
145.97,-15.0
146.03,4.0
146.1,-5.0
146.16,2.0
146.22,8.0
146.29,-16.0
146.35,3.0
146.41,25.0
146.47,25.0
146.54,19.0
146.6,39.0
146.66,59.0
146.73,56.0
146.79,66.0
146.85,43.0
146.92,47.0
146.98,30.0
147.04,46.0
147.1,37.0
147.17,25.0
147.23,44.0
147.29,59.0
147.36,38.0
147.42,40.0
147.48,49.0
147.55,33.0
147.61,36.0
147.67,35.0
147.73,45.0
147.8,44.0
147.86,38.0
147.92,33.0
147.99,37.0
148.05,49.0
148.11,48.0
148.18,58.0
148.24,36.0
148.3,20.0
148.36,23.0
148.43,44.0
148.49,48.0
148.55,66.0
148.62,54.0
148.68,74.0
148.74,71.0
148.81,67.0
148.87,92.0
148.93,97.0
148.99,104.0
149.06,106.0
149.12,82.0
149.18,77.0
149.25,97.0
149.31,90.0
149.37,93.0
149.44,107.0
149.5,95.0
149.56,116.0
149.62,100.0
149.69,86.0
149.75,110.0
149.81,116.0
149.88,104.0
149.94,107.0
150.0,100.0
150.07,103.0
150.13,107.0
150.19,114.0
150.25,107.0
150.32,94.0
150.38,85.0
150.44,98.0
150.51,88.0
150.57,88.0
150.63,98.0
150.7,105.0
150.76,107.0
150.82,99.0
150.88,99.0
150.95,107.0
151.01,105.0
151.07,90.0
151.14,90.0
151.2,86.0
151.26,111.0
151.33,108.0
151.39,128.0
151.45,126.0
151.51,130.0
151.58,137.0
151.64,137.0
151.7,147.0
151.77,150.0
151.83,157.0
151.89,170.0
151.96,151.0
152.02,153.0
152.08,154.0
152.14,150.0
152.21,162.0
152.27,175.0
152.33,177.0
152.4,183.0
152.46,171.0
152.52,171.0
152.59,188.0
152.65,200.0
152.71,181.0
152.77,188.0
152.84,178.0
152.9,184.0
152.96,175.0
153.03,168.0
153.09,174.0
153.15,171.0
153.22,165.0
153.28,165.0
153.34,179.0
153.4,165.0
153.47,163.0
153.53,168.0
153.59,163.0
153.66,161.0
153.72,138.0
153.78,146.0
153.85,161.0
153.91,145.0
153.97,146.0
154.03,138.0
154.1,126.0
154.16,115.0
154.22,90.0
154.29,107.0
154.35,126.0
154.41,104.0
154.48,111.0
154.54,115.0
154.6,133.0
154.66,118.0
154.73,96.0
154.79,116.0
154.85,124.0
154.92,105.0
154.98,104.0
155.04,110.0
155.11,108.0
155.17,101.0
155.23,100.0
155.29,95.0
155.36,96.0
155.42,88.0
155.48,83.0
155.55,78.0
155.61,101.0
155.67,86.0
155.74,90.0
155.8,97.0
155.86,113.0
155.92,108.0
155.99,99.0
156.05,85.0
156.11,100.0
156.18,106.0
156.24,77.0
156.3,64.0
156.37,62.0
156.43,59.0
156.49,68.0
156.55,53.0
156.62,55.0
156.68,58.0
156.74,64.0
156.81,58.0
156.87,61.0
156.93,81.0
157.0,75.0
157.06,61.0
157.12,64.0
157.18,64.0
157.25,75.0
157.31,64.0
157.37,57.0
157.44,64.0
157.5,42.0
157.56,46.0
157.63,21.0
157.69,42.0
157.75,44.0
157.81,38.0
157.88,48.0
157.94,24.0
158.0,38.0
158.07,39.0
158.13,38.0
158.19,47.0
158.26,49.0
158.32,33.0
158.38,8.0
158.44,42.0
158.51,31.0
158.57,36.0
158.63,57.0
158.7,50.0
158.76,42.0
158.82,38.0
158.89,27.0
158.95,23.0
159.01,31.0
159.07,23.0
159.14,46.0
159.2,43.0
159.26,23.0
159.33,10.0
159.39,18.0
159.45,20.0
159.52,16.0
159.58,-6.0
159.64,-13.0
159.7,-27.0
159.77,-32.0
159.83,-38.0
159.89,-33.0
159.96,-32.0
160.02,-41.0
160.08,-33.0
160.15,-44.0
160.21,-56.0
160.27,-50.0
160.33,-5.0
160.4,-21.0
160.46,-38.0
160.52,-45.0
160.59,-38.0
160.65,-42.0
160.71,-33.0
160.78,-31.0
160.84,-33.0
160.9,-47.0
160.96,-36.0
161.03,-32.0
161.09,-33.0
161.15,-27.0
161.22,-15.0
161.28,-19.0
161.34,-24.0
161.41,-9.0
161.47,-14.0
161.53,-16.0
161.59,-11.0
161.66,14.0
161.72,7.0
161.78,5.0
161.85,-11.0
161.91,-11.0
161.97,-11.0
162.04,-4.0
162.1,-8.0
162.16,10.0
162.22,17.0
162.29,2.0
162.35,35.0
162.41,39.0
162.48,14.0
162.54,9.0
162.6,8.0
162.67,15.0
162.73,6.0
162.79,28.0
162.85,32.0
162.92,11.0
162.98,39.0
163.04,33.0
163.11,34.0
163.17,43.0
163.23,43.0
163.3,37.0
163.36,23.0
163.42,20.0
163.48,31.0
163.55,27.0
163.61,42.0
163.67,41.0
163.74,29.0
163.8,25.0
163.86,34.0
163.93,35.0
163.99,46.0
164.05,35.0
164.11,49.0
164.18,39.0
164.24,44.0
164.3,49.0
164.37,44.0
164.43,47.0
164.49,51.0
164.56,35.0
164.62,33.0
164.68,56.0
164.74,40.0
164.81,35.0
164.87,54.0
164.93,40.0
165.0,29.0
165.06,31.0
165.12,46.0
165.19,39.0
165.25,45.0
165.31,34.0
165.37,48.0
165.44,57.0
165.5,47.0
165.56,78.0
165.63,64.0
165.69,58.0
165.75,54.0
165.82,46.0
165.88,45.0
165.94,44.0
166.0,41.0
166.07,51.0
166.13,42.0
166.19,56.0
166.26,53.0
166.32,53.0
166.38,51.0
166.45,50.0
166.51,65.0
166.57,60.0
166.63,89.0
166.7,77.0
166.76,56.0
166.82,65.0
166.89,87.0
166.95,72.0
167.01,59.0
167.08,79.0
167.14,96.0
167.2,98.0
167.26,90.0
167.33,83.0
167.39,97.0
167.45,95.0
167.52,73.0
167.58,85.0
167.64,69.0
167.71,75.0
167.77,79.0
167.83,70.0
167.89,92.0
167.96,89.0
168.02,78.0
168.08,92.0
168.15,76.0
168.21,101.0
168.27,94.0
168.34,100.0
168.4,134.0
168.46,104.0
168.52,89.0
168.59,89.0
168.65,112.0
168.71,116.0
168.78,103.0
168.84,123.0
168.9,124.0
168.97,112.0
169.03,100.0
169.09,103.0
169.15,108.0
169.22,108.0
169.28,104.0
169.34,123.0
169.41,133.0
169.47,127.0
169.53,137.0
169.6,136.0
169.66,121.0
169.72,123.0
169.78,119.0
169.85,116.0
169.91,134.0
169.97,128.0
170.04,137.0
170.1,139.0
170.16,137.0
170.23,110.0
170.29,139.0
170.35,144.0
170.41,147.0
170.48,153.0
170.54,152.0
170.6,141.0
170.67,141.0
170.73,141.0
170.79,145.0
170.86,137.0
170.92,126.0
170.98,145.0
171.04,134.0
171.11,131.0
171.17,141.0
171.23,126.0
171.3,145.0
171.36,142.0
171.42,131.0
171.49,150.0
171.55,162.0
171.61,149.0
171.67,155.0
171.74,163.0
171.8,182.0
171.86,177.0
171.93,156.0
171.99,156.0
172.05,160.0
172.12,152.0
172.18,169.0
172.24,167.0
172.3,156.0
172.37,173.0
172.43,170.0
172.49,173.0
172.56,172.0
172.62,169.0
172.68,156.0
172.75,156.0
172.81,156.0
172.87,145.0
172.93,134.0
173.0,137.0
173.06,139.0
173.12,143.0
173.19,156.0
173.25,148.0
173.31,136.0
173.38,128.0
173.44,137.0
173.5,142.0
173.56,136.0
173.63,131.0
173.69,155.0
173.75,145.0
173.82,137.0
173.88,156.0
173.94,150.0
174.01,149.0
174.07,145.0
174.13,146.0
174.19,165.0
174.26,157.0
174.32,164.0
174.38,172.0
174.45,151.0
174.51,145.0
174.57,137.0
174.64,142.0
174.7,143.0
174.76,145.0
174.82,136.0
174.89,149.0
174.95,156.0
175.01,156.0
175.08,145.0
175.14,153.0
175.2,167.0
175.27,143.0
175.33,136.0
175.39,141.0
175.45,154.0
175.52,146.0
175.58,129.0
175.64,108.0
175.71,104.0
175.77,117.0
175.83,132.0
175.9,128.0
175.96,125.0
176.02,106.0
176.08,123.0
176.15,114.0
176.21,94.0
176.27,87.0
176.34,72.0
176.4,68.0
176.46,92.0
176.53,96.0
176.59,101.0
176.65,109.0
176.71,102.0
176.78,98.0
176.84,81.0
176.9,85.0
176.97,77.0
177.03,79.0
177.09,74.0
177.16,71.0
177.22,66.0
177.28,74.0
177.34,65.0
177.41,84.0
177.47,77.0
177.53,67.0
177.6,81.0
177.66,68.0
177.72,79.0
177.79,96.0
177.85,86.0
177.91,91.0
177.97,92.0
178.04,86.0
178.1,84.0
178.16,85.0
178.23,99.0
178.29,101.0
178.35,104.0
178.42,97.0
178.48,107.0
178.54,111.0
178.6,116.0
178.67,119.0
178.73,108.0
178.79,108.0
178.86,122.0
178.92,122.0
178.98,132.0
179.05,111.0
179.11,128.0
179.17,125.0
179.23,119.0
179.3,121.0
179.36,126.0
179.42,135.0
179.49,149.0
179.55,120.0
179.61,137.0
179.68,146.0
179.74,142.0
179.8,128.0
179.86,140.0
179.93,143.0
179.99,146.0
180.05,139.0
180.12,139.0
180.18,153.0
180.24,158.0
180.31,163.0
180.37,165.0
180.43,164.0
180.49,162.0
180.56,156.0
180.62,134.0
180.68,144.0
180.75,158.0
180.81,153.0
180.87,133.0
180.94,161.0
181.0,149.0
181.06,127.0
181.12,150.0
181.19,140.0
181.25,136.0
181.31,124.0
181.38,145.0
181.44,137.0
181.5,134.0
181.57,135.0
181.63,134.0
181.69,137.0
181.75,157.0
181.82,129.0
181.88,137.0
181.94,119.0
182.01,104.0
182.07,97.0
182.13,108.0
182.2,87.0
182.26,86.0
182.32,102.0
182.38,110.0
182.45,90.0
182.51,86.0
182.57,87.0
182.64,91.0
182.7,104.0
182.76,122.0
182.83,122.0
182.89,107.0
182.95,113.0
183.01,119.0
183.08,114.0
183.14,122.0
183.2,120.0
183.27,117.0
183.33,138.0
183.39,142.0
183.46,147.0
183.52,146.0
183.58,156.0
183.64,149.0
183.71,128.0
183.77,141.0
183.83,137.0
183.9,130.0
183.96,138.0
184.02,121.0
184.09,128.0
184.15,129.0
184.21,133.0
184.27,116.0
184.34,130.0
184.4,142.0
184.46,142.0
184.53,123.0
184.59,118.0
184.65,125.0
184.72,134.0
184.78,120.0
184.84,138.0
184.9,146.0
184.97,118.0
185.03,125.0
185.09,131.0
185.16,160.0
185.22,144.0
185.28,120.0
185.35,137.0
185.41,150.0
185.47,126.0
185.53,144.0
185.6,147.0
185.66,150.0
185.72,160.0
185.79,152.0
185.85,164.0
185.91,163.0
185.98,138.0
186.04,151.0
186.1,145.0
186.16,137.0
186.23,150.0
186.29,152.0
186.35,169.0
186.42,168.0
186.48,178.0
186.54,180.0
186.61,189.0
186.67,195.0
186.73,175.0
186.79,147.0
186.86,141.0
186.92,137.0
186.98,143.0
187.05,155.0
187.11,134.0
187.17,139.0
187.24,172.0
187.3,144.0
187.36,156.0
187.42,127.0
187.49,122.0
187.55,145.0
187.61,150.0
187.68,149.0
187.74,141.0
187.8,143.0
187.87,160.0
187.93,166.0
187.99,149.0
188.05,156.0
188.12,173.0
188.18,172.0
188.24,177.0
188.31,184.0
188.37,177.0
188.43,172.0
188.5,179.0
188.56,177.0
188.62,171.0
188.68,180.0
188.75,193.0
188.81,185.0
188.87,185.0
188.94,181.0
189.0,174.0
189.06,171.0
189.13,185.0
189.19,188.0
189.25,163.0
189.31,171.0
189.38,172.0
189.44,167.0
189.5,174.0
189.57,185.0
189.63,164.0
189.69,167.0
189.76,174.0
189.82,196.0
189.88,177.0
189.94,187.0
190.01,181.0
190.07,200.0
190.13,201.0
190.2,183.0
190.26,191.0
190.32,205.0
190.39,208.0
190.45,199.0
190.51,189.0
190.57,196.0
190.64,177.0
190.7,180.0
190.76,182.0
190.83,180.0
190.89,185.0
190.95,170.0
191.02,185.0
191.08,186.0
191.14,143.0
191.2,168.0
191.27,170.0
191.33,168.0
191.39,173.0
191.46,132.0
191.52,130.0
191.58,121.0
191.65,108.0
191.71,123.0
191.77,113.0
191.83,108.0
191.9,111.0
191.96,113.0
192.02,122.0
192.09,132.0
192.15,109.0
192.21,117.0
192.28,117.0
192.34,119.0
192.4,115.0
192.46,105.0
192.53,101.0
192.59,89.0
192.65,98.0
192.72,97.0
192.78,95.0
192.84,103.0
192.91,82.0
192.97,64.0
193.03,71.0
193.09,73.0
193.16,84.0
193.22,54.0
193.28,71.0
193.35,61.0
193.41,62.0
193.47,65.0
193.54,75.0
193.6,76.0
193.66,88.0
193.72,82.0
193.79,75.0
193.85,89.0
193.91,73.0
193.98,73.0
194.04,80.0
194.1,87.0
194.17,86.0
194.23,83.0
194.29,88.0
194.35,80.0
194.42,76.0
194.48,73.0
194.54,78.0
194.61,72.0
194.67,55.0
194.73,68.0
194.8,56.0
194.86,47.0
194.92,55.0
194.98,60.0
195.05,58.0
195.11,44.0
195.17,37.0
195.24,43.0
195.3,54.0
195.36,68.0
195.43,51.0
195.49,69.0
195.55,52.0
195.61,62.0
195.68,49.0
195.74,43.0
195.8,71.0
195.87,50.0
195.93,61.0
195.99,59.0
196.06,72.0
196.12,86.0
196.18,75.0
196.24,71.0
196.31,59.0
196.37,65.0
196.43,58.0
196.5,55.0
196.56,78.0
196.62,75.0
196.69,78.0
196.75,66.0
196.81,71.0
196.87,73.0
196.94,83.0
197.0,102.0
197.06,86.0
197.13,92.0
197.19,103.0
197.25,91.0
197.32,87.0
197.38,87.0
197.44,78.0
197.5,74.0
197.57,54.0
197.63,59.0
197.69,76.0
197.76,69.0
197.82,66.0
197.88,50.0
197.95,58.0
198.01,58.0
198.07,42.0
198.13,75.0
198.2,64.0
198.26,78.0
198.32,84.0
198.39,79.0
198.45,70.0
198.51,81.0
198.58,74.0
198.64,87.0
198.7,77.0
198.76,82.0
198.83,77.0
198.89,70.0
198.95,67.0
199.02,59.0
199.08,92.0
199.14,76.0
199.21,60.0
199.27,89.0
199.33,78.0
199.39,82.0
199.46,83.0
199.52,80.0
199.58,93.0
199.65,74.0
199.71,59.0
199.77,70.0
199.84,58.0
199.9,67.0
199.96,71.0
200.02,59.0
200.09,71.0
200.15,74.0
200.21,67.0
200.28,80.0
200.34,68.0
200.4,52.0
200.47,60.0
200.53,49.0
200.59,72.0
200.65,81.0
200.72,68.0
200.78,76.0
200.84,68.0
200.91,45.0
200.97,64.0
201.03,75.0
201.1,60.0
201.16,73.0
201.22,73.0
201.28,59.0
201.35,57.0
201.41,58.0
201.47,66.0
201.54,70.0
201.6,74.0
201.66,66.0
201.73,58.0
201.79,71.0
201.85,72.0
201.91,93.0
201.98,75.0
202.04,91.0
202.1,90.0
202.17,93.0
202.23,108.0
202.29,83.0
202.36,101.0
202.42,104.0
202.48,98.0
202.54,104.0
202.61,109.0
202.67,114.0
202.73,86.0
202.8,78.0
202.86,91.0
202.92,97.0
202.99,115.0
203.05,89.0
203.11,112.0
203.17,130.0
203.24,100.0
203.3,106.0
203.36,93.0
203.43,118.0
203.49,113.0
203.55,117.0
203.62,159.0
203.68,129.0
203.74,123.0
203.8,132.0
203.87,126.0
203.93,145.0
203.99,132.0
204.06,115.0
204.12,120.0
204.18,152.0
204.25,130.0
204.31,138.0
204.37,134.0
204.43,127.0
204.5,137.0
204.56,144.0
204.62,132.0
204.69,131.0
204.75,138.0
204.81,144.0
204.88,115.0
204.94,122.0
205.0,125.0
205.06,118.0
205.13,112.0
205.19,116.0
205.25,130.0
205.32,141.0
205.38,137.0
205.44,141.0
205.51,139.0
205.57,149.0
205.63,149.0
205.69,141.0
205.76,145.0
205.82,135.0
205.88,161.0
205.95,165.0
206.01,159.0
206.07,159.0
206.14,119.0
206.2,149.0
206.26,126.0
206.32,130.0
206.39,130.0
206.45,131.0
206.51,141.0
206.58,124.0
206.64,119.0
206.7,130.0
206.77,140.0
206.83,123.0
206.89,126.0
206.95,159.0
207.02,170.0
207.08,131.0
207.14,138.0
207.21,143.0
207.27,120.0
207.33,125.0
207.4,146.0
207.46,121.0
207.52,142.0
207.58,145.0
207.65,133.0
207.71,134.0
207.77,141.0
207.84,134.0
207.9,120.0
207.96,158.0
208.03,155.0
208.09,150.0
208.15,134.0
208.21,134.0
208.28,136.0
208.34,130.0
208.4,128.0
208.47,137.0
208.53,122.0
208.59,118.0
208.66,90.0
208.72,102.0
208.78,119.0
208.84,122.0
208.91,108.0
208.97,101.0
209.03,115.0
209.1,107.0
209.16,104.0
209.22,124.0
209.29,117.0
209.35,110.0
209.41,102.0
209.47,80.0
209.54,76.0
209.6,87.0
209.66,84.0
209.73,82.0
209.79,83.0
209.85,84.0
209.92,71.0
209.98,65.0
210.04,75.0
210.1,63.0
210.17,75.0
210.23,53.0
210.29,65.0
210.36,64.0
210.42,64.0
210.48,54.0
210.55,60.0
210.61,45.0
210.67,55.0
210.73,60.0
210.8,61.0
210.86,55.0
210.92,40.0
210.99,57.0
211.05,68.0
211.11,48.0
211.18,53.0
211.24,43.0
211.3,55.0
211.36,56.0
211.43,62.0
211.49,65.0
211.55,88.0
211.62,78.0
211.68,65.0
211.74,59.0
211.81,54.0
211.87,59.0
211.93,55.0
211.99,42.0
212.06,28.0
212.12,40.0
212.18,57.0
212.25,48.0
212.31,45.0
212.37,38.0
212.44,37.0
212.5,27.0
212.56,29.0
212.62,46.0
212.69,54.0
212.75,54.0
212.81,35.0
212.88,35.0
212.94,61.0
213.0,53.0
213.07,62.0
213.13,42.0
213.19,47.0
213.25,50.0
213.32,45.0
213.38,35.0
213.44,37.0
213.51,45.0
213.57,54.0
213.63,59.0
213.7,51.0
213.76,48.0
213.82,56.0
213.88,25.0
213.95,42.0
214.01,52.0
214.07,32.0
214.14,39.0
214.2,53.0
214.26,26.0
214.33,24.0
214.39,65.0
214.45,35.0
214.51,27.0
214.58,29.0
214.64,28.0
214.7,21.0
214.77,4.0
214.83,20.0
214.89,30.0
214.96,6.0
215.02,17.0
215.08,25.0
215.14,25.0
215.21,27.0
215.27,17.0
215.33,20.0
215.4,8.0
215.46,7.0
215.52,13.0
215.59,7.0
215.65,8.0
215.71,21.0
215.77,31.0
215.84,21.0
215.9,27.0
215.96,29.0
216.03,10.0
216.09,20.0
216.15,21.0
216.22,17.0
216.28,2.0
216.34,3.0
216.4,3.0
216.47,17.0
216.53,19.0
216.59,23.0
216.66,6.0
216.72,5.0
216.78,7.0
216.85,23.0
216.91,21.0
216.97,23.0
217.03,34.0
217.1,45.0
217.16,45.0
217.22,38.0
217.29,19.0
217.35,1.0
217.41,20.0
217.48,1.0
217.54,3.0
217.6,2.0
217.66,2.0
217.73,-2.0
217.79,-14.0
217.85,-11.0
217.92,-26.0
217.98,-22.0
218.04,-15.0
218.11,-21.0
218.17,-21.0
218.23,-32.0
218.29,-46.0
218.36,-23.0
218.42,-27.0
218.48,-15.0
218.55,-16.0
218.61,3.0
218.67,-10.0
218.74,-14.0
218.8,-10.0
218.86,28.0
218.92,11.0
218.99,11.0
219.05,9.0
219.11,-1.0
219.18,12.0
219.24,14.0
219.3,27.0
219.37,32.0
219.43,40.0
219.49,44.0
219.55,39.0
219.62,41.0
219.68,43.0
219.74,33.0
219.81,46.0
219.87,25.0
219.93,34.0
220.0,58.0
220.06,43.0
220.12,47.0
220.18,44.0
220.25,41.0
220.31,52.0
220.37,50.0
220.44,38.0
220.5,56.0
220.56,69.0
220.63,75.0
220.69,67.0
220.75,64.0
220.81,49.0
220.88,67.0
220.94,59.0
221.0,63.0
221.07,67.0
221.13,58.0
221.19,67.0
221.26,72.0
221.32,59.0
221.38,74.0
221.44,74.0
221.51,76.0
221.57,54.0
221.63,50.0
221.7,62.0
221.76,48.0
221.82,63.0
221.89,57.0
221.95,73.0
222.01,67.0
222.07,67.0
222.14,58.0
222.2,63.0
222.26,73.0
222.33,82.0
222.39,91.0
222.45,89.0
222.52,97.0
222.58,102.0
222.64,104.0
222.7,102.0
222.77,111.0
222.83,112.0
222.89,99.0
222.96,106.0
223.02,99.0
223.08,102.0
223.15,114.0
223.21,114.0
223.27,123.0
223.33,115.0
223.4,102.0
223.46,99.0
223.52,99.0
223.59,113.0
223.65,131.0
223.71,112.0
223.78,104.0
223.84,106.0
223.9,108.0
223.96,100.0
224.03,91.0
224.09,110.0
224.15,113.0
224.22,100.0
224.28,94.0
224.34,100.0
224.41,99.0
224.47,104.0
224.53,108.0
224.59,103.0
224.66,92.0
224.72,90.0
224.78,105.0
224.85,104.0
224.91,87.0
224.97,85.0
225.04,55.0
225.1,64.0
225.16,88.0
225.22,80.0
225.29,66.0
225.35,85.0
225.41,85.0
225.48,59.0
225.54,100.0
225.6,68.0
225.67,77.0
225.73,93.0
225.79,65.0
225.85,88.0
225.92,107.0
225.98,85.0
226.04,101.0
226.11,98.0
226.17,96.0
226.23,88.0
226.3,65.0
226.36,86.0
226.42,84.0
226.48,102.0
226.55,102.0
226.61,99.0
226.67,89.0
226.74,86.0
226.8,97.0
226.86,109.0
226.93,101.0
226.99,98.0
227.05,85.0
227.11,91.0
227.18,96.0
227.24,107.0
227.3,115.0
227.37,129.0
227.43,127.0
227.49,130.0
227.56,148.0
227.62,117.0
227.68,140.0
227.74,155.0
227.81,129.0
227.87,124.0
227.93,129.0
228.0,137.0
228.06,145.0
228.12,147.0
228.19,147.0
228.25,137.0
228.31,143.0
228.37,156.0
228.44,148.0
228.5,169.0
228.56,155.0
228.63,158.0
228.69,165.0
228.75,178.0
228.82,179.0
228.88,184.0
228.94,163.0
229.0,188.0
229.07,192.0
229.13,196.0
229.19,202.0
229.26,215.0
229.32,214.0
229.38,168.0
229.45,205.0
229.51,202.0
229.57,199.0
229.63,208.0
229.7,219.0
229.76,219.0
229.82,217.0
229.89,218.0
229.95,212.0
230.01,233.0
230.08,239.0
230.14,251.0
230.2,228.0
230.26,229.0
230.33,255.0
230.39,249.0
230.45,240.0
230.52,250.0
230.58,253.0
230.64,245.0
230.71,250.0
230.77,238.0
230.83,247.0
230.89,228.0
230.96,229.0
231.02,246.0
231.08,246.0
231.15,253.0
231.21,245.0
231.27,232.0
231.34,239.0
231.4,234.0
231.46,231.0
231.52,226.0
231.59,251.0
231.65,240.0
231.71,250.0
231.78,239.0
231.84,228.0
231.9,231.0
231.97,208.0
232.03,220.0
232.09,219.0
232.15,217.0
232.22,210.0
232.28,208.0
232.34,211.0
232.41,203.0
232.47,210.0
232.53,206.0
232.6,198.0
232.66,180.0
232.72,183.0
232.78,204.0
232.85,222.0
232.91,223.0
232.97,210.0
233.04,232.0
233.1,218.0
233.16,216.0
233.23,218.0
233.29,212.0
233.35,222.0
233.41,217.0
233.48,217.0
233.54,202.0
233.6,218.0
233.67,196.0
233.73,180.0
233.79,198.0
233.86,189.0
233.92,182.0
233.98,179.0
234.04,180.0
234.11,179.0
234.17,180.0
234.23,172.0
234.3,152.0
234.36,176.0
234.42,192.0
234.49,157.0
234.55,128.0
234.61,158.0
234.67,146.0
234.74,143.0
234.8,133.0
234.86,126.0
234.93,151.0
234.99,141.0
235.05,135.0
235.12,143.0
235.18,146.0
235.24,143.0
235.3,157.0
235.37,155.0
235.43,167.0
235.49,170.0
235.56,168.0
235.62,174.0
235.68,166.0
235.75,154.0
235.81,168.0
235.87,184.0
235.93,168.0
236.0,189.0
236.06,170.0
236.12,160.0
236.19,155.0
236.25,164.0
236.31,152.0
236.38,164.0
236.44,163.0
236.5,162.0
236.56,164.0
236.63,155.0
236.69,162.0
236.75,170.0
236.82,178.0
236.88,168.0
236.94,143.0
237.01,136.0
237.07,140.0
237.13,136.0
237.19,141.0
237.26,128.0
237.32,154.0
237.38,147.0
237.45,143.0
237.51,148.0
237.57,134.0
237.64,144.0
237.7,152.0
237.76,154.0
237.82,141.0
237.89,143.0
237.95,151.0
238.01,114.0
238.08,127.0
238.14,111.0
238.2,97.0
238.27,111.0
238.33,118.0
238.39,105.0
238.45,106.0
238.52,96.0
238.58,117.0
238.64,114.0
238.71,103.0
238.77,108.0
238.83,104.0
238.9,110.0
238.96,115.0
239.02,110.0
239.08,101.0
239.15,82.0
239.21,88.0
239.27,83.0
239.34,85.0
239.4,102.0
239.46,102.0
239.53,79.0
239.59,70.0
239.65,78.0
239.71,78.0
239.78,82.0
239.84,55.0
239.9,72.0
239.97,72.0
240.03,66.0
240.09,58.0
240.16,62.0
240.22,68.0
240.28,54.0
240.34,71.0
240.41,47.0
240.47,53.0
240.53,52.0
240.6,38.0
240.66,39.0
240.72,58.0
240.79,41.0
240.85,52.0
240.91,43.0
240.97,37.0
241.04,38.0
241.1,42.0
241.16,38.0
241.23,50.0
241.29,38.0
241.35,47.0
241.42,70.0
241.48,54.0
241.54,48.0
241.6,44.0
241.67,67.0
241.73,39.0
241.79,38.0
241.86,47.0
241.92,55.0
241.98,49.0
242.05,53.0
242.11,50.0
242.17,43.0
242.23,52.0
242.3,30.0
242.36,29.0
242.42,64.0
242.49,45.0
242.55,49.0
242.61,44.0
242.68,27.0
242.74,20.0
242.8,12.0
242.86,21.0
242.93,7.0
242.99,19.0
243.05,15.0
243.12,-2.0
243.18,10.0
243.24,-11.0
243.31,-1.0
243.37,18.0
243.43,8.0
243.49,14.0
243.56,39.0
243.62,57.0
243.68,48.0
243.75,35.0
243.81,16.0
243.87,24.0
243.94,25.0
244.0,26.0
244.06,-1.0
244.12,10.0
244.19,25.0
244.25,29.0
244.31,9.0
244.38,10.0
244.44,31.0
244.5,37.0
244.57,64.0
244.63,58.0
244.69,55.0
244.75,53.0
244.82,62.0
244.88,49.0
244.94,42.0
245.01,71.0
245.07,45.0
245.13,58.0
245.2,69.0
245.26,49.0
245.32,77.0
245.38,46.0
245.45,57.0
245.51,84.0
245.57,107.0
245.64,97.0
245.7,92.0
245.76,103.0
245.83,93.0
245.89,101.0
245.95,93.0
246.01,87.0
246.08,83.0
246.14,121.0
246.2,126.0
246.27,123.0
246.33,110.0
246.39,109.0
246.46,122.0
246.52,137.0
246.58,134.0
246.64,130.0
246.71,137.0
246.77,127.0
246.83,126.0
246.9,142.0
246.96,142.0
247.02,125.0
247.09,130.0
247.15,139.0
247.21,137.0
247.27,141.0
247.34,156.0
247.4,158.0
247.46,139.0
247.53,164.0
247.59,163.0
247.65,159.0
247.72,155.0
247.78,146.0
247.84,130.0
247.9,136.0
247.97,131.0
248.03,121.0
248.09,129.0
248.16,125.0
248.22,153.0
248.28,140.0
248.35,117.0
248.41,125.0
248.47,116.0
248.53,117.0
248.6,145.0
248.66,136.0
248.72,135.0
248.79,118.0
248.85,131.0
248.91,133.0
248.98,135.0
249.04,137.0
249.1,156.0
249.16,139.0
249.23,147.0
249.29,145.0
249.35,132.0
249.42,160.0
249.48,142.0
249.54,138.0
249.61,156.0
249.67,149.0
249.73,147.0
249.79,133.0
249.86,124.0
249.92,119.0
249.98,119.0
250.05,118.0
250.11,115.0
250.17,109.0
250.24,122.0
250.3,117.0
250.36,127.0
250.42,134.0
250.49,126.0
250.55,110.0
250.61,124.0
250.68,101.0
250.74,112.0
250.8,101.0
250.87,85.0
250.93,107.0
250.99,113.0
251.05,116.0
251.12,102.0
251.18,86.0
251.24,79.0
251.31,92.0
251.37,70.0
251.43,89.0
251.5,100.0
251.56,98.0
251.62,90.0
251.68,83.0
251.75,101.0
251.81,106.0
251.87,105.0
251.94,98.0
252.0,114.0
252.06,108.0
252.13,113.0
252.19,107.0
252.25,92.0
252.31,109.0
252.38,105.0
252.44,104.0
252.5,106.0
252.57,125.0
252.63,148.0
252.69,131.0
252.76,119.0
252.82,141.0
252.88,109.0
252.94,105.0
253.01,134.0
253.07,124.0
253.13,128.0
253.2,137.0
253.26,135.0
253.32,135.0
253.39,135.0
253.45,130.0
253.51,148.0
253.57,134.0
253.64,127.0
253.7,145.0
253.76,126.0
253.83,133.0
253.89,141.0
253.95,136.0
254.02,142.0
254.08,127.0
254.14,129.0
254.2,130.0
254.27,123.0
254.33,122.0
254.39,123.0
254.46,106.0
254.52,119.0
254.58,118.0
254.65,121.0
254.71,121.0
254.77,120.0
254.83,117.0
254.9,117.0
254.96,133.0
255.02,132.0
255.09,125.0
255.15,158.0
255.21,158.0
255.28,130.0
255.34,137.0
255.4,145.0
255.46,138.0
255.53,127.0
255.59,129.0
255.65,126.0
255.72,122.0
255.78,120.0
255.84,126.0
255.91,136.0
255.97,120.0
256.03,120.0
256.09,117.0
256.16,102.0
256.22,108.0
256.28,114.0
256.35,117.0
256.41,110.0
256.47,106.0
256.54,100.0
256.6,105.0
256.66,94.0
256.72,90.0
256.79,119.0
256.85,108.0
256.91,97.0
256.98,119.0
257.04,102.0
257.1,93.0
257.17,82.0
257.23,63.0
257.29,84.0
257.35,68.0
257.42,75.0
257.48,90.0
257.54,73.0
257.61,71.0
257.67,71.0
257.73,79.0
257.8,83.0
257.86,65.0
257.92,79.0
257.98,69.0
258.05,52.0
258.11,75.0
258.17,73.0
258.24,46.0
258.3,57.0
258.36,65.0
258.43,46.0
258.49,39.0
258.55,37.0
258.61,40.0
258.68,34.0
258.74,34.0
258.8,43.0
258.87,23.0
258.93,32.0
258.99,27.0
259.06,14.0
259.12,24.0
259.18,21.0
259.24,7.0
259.31,0.0
259.37,-2.0
259.43,-7.0
259.5,-3.0
259.56,-3.0
259.62,6.0
259.69,-23.0
259.75,-23.0
259.81,-11.0
259.87,-7.0
259.94,7.0
260.0,-20.0
260.06,-36.0
260.13,-18.0
260.19,-6.0
260.25,-23.0
260.32,-34.0
260.38,-8.0
260.44,-20.0
260.5,0.0
260.57,-19.0
260.63,-15.0
260.69,19.0
260.76,-7.0
260.82,15.0
260.88,5.0
260.95,9.0
261.01,-2.0
261.07,11.0
261.13,14.0
261.2,-15.0
261.26,-16.0
261.32,-15.0
261.39,10.0
261.45,12.0
261.51,-10.0
261.58,-2.0
261.64,6.0
261.7,-10.0
261.76,-20.0
261.83,-18.0
261.89,-8.0
261.95,-9.0
262.02,-13.0
262.08,6.0
262.14,2.0
262.21,14.0
262.27,23.0
262.33,28.0
262.39,29.0
262.46,10.0
262.52,15.0
262.58,7.0
262.65,-2.0
262.71,-8.0
262.77,-5.0
262.84,-3.0
262.9,3.0
262.96,0.0
263.02,19.0
263.09,22.0
263.15,-1.0
263.21,12.0
263.28,9.0
263.34,22.0
263.4,48.0
263.47,41.0
263.53,23.0
263.59,28.0
263.65,46.0
263.72,40.0
263.78,33.0
263.84,18.0
263.91,26.0
263.97,32.0
264.03,45.0
264.1,43.0
264.16,48.0
264.22,59.0
264.28,50.0
264.35,69.0
264.41,62.0
264.47,53.0
264.54,79.0
264.6,76.0
264.66,60.0
264.73,55.0
264.79,73.0
264.85,74.0
264.91,85.0
264.98,86.0
265.04,72.0
265.1,72.0
265.17,79.0
265.23,71.0
265.29,63.0
265.36,73.0
265.42,82.0
265.48,55.0
265.54,71.0
265.61,60.0
265.67,77.0
265.73,75.0
265.8,85.0
265.86,90.0
265.92,78.0
265.99,75.0
266.05,84.0
266.11,84.0
266.17,66.0
266.24,55.0
266.3,55.0
266.36,73.0
266.43,56.0
266.49,73.0
266.55,59.0
266.62,48.0
266.68,69.0
266.74,85.0
266.8,79.0
266.87,67.0
266.93,54.0
266.99,77.0
267.06,81.0
267.12,76.0
267.18,85.0
267.25,68.0
267.31,82.0
267.37,76.0
267.43,72.0
267.5,84.0
267.56,84.0
267.62,79.0
267.69,73.0
267.75,95.0
267.81,69.0
267.88,91.0
267.94,79.0
268.0,93.0
268.06,80.0
268.13,81.0
268.19,72.0
268.25,77.0
268.32,88.0
268.38,77.0
268.44,87.0
268.51,86.0
268.57,76.0
268.63,85.0
268.69,82.0
268.76,90.0
268.82,120.0
268.88,88.0
268.95,93.0
269.01,87.0
269.07,91.0
269.14,101.0
269.2,93.0
269.26,96.0
269.32,120.0
269.39,120.0
269.45,126.0
269.51,145.0
269.58,151.0
269.64,140.0
269.7,128.0
269.77,122.0
269.83,107.0
269.89,122.0
269.95,121.0
270.02,128.0
270.08,132.0
270.14,149.0
270.21,146.0
270.27,149.0
270.33,146.0
270.4,159.0
270.46,145.0
270.52,137.0
270.58,143.0
270.65,150.0
270.71,160.0
270.77,177.0
270.84,139.0
270.9,157.0
270.96,167.0
271.03,175.0
271.09,178.0
271.15,172.0
271.21,186.0
271.28,181.0
271.34,163.0
271.4,156.0
271.47,159.0
271.53,172.0
271.59,175.0
271.66,193.0
271.72,175.0
271.78,172.0
271.84,165.0
271.91,150.0
271.97,167.0
272.03,176.0
272.1,185.0
272.16,185.0
272.22,173.0
272.29,172.0
272.35,177.0
272.41,173.0
272.47,170.0
272.54,151.0
272.6,144.0
272.66,161.0
272.73,178.0
272.79,161.0
272.85,178.0
272.92,167.0
272.98,163.0
273.04,150.0
273.1,129.0
273.17,143.0
273.23,153.0
273.29,165.0
273.36,160.0
273.42,155.0
273.48,142.0
273.55,137.0
273.61,124.0
273.67,124.0
273.73,114.0
273.8,120.0
273.86,117.0
273.92,105.0
273.99,115.0
274.05,112.0
274.11,112.0
274.18,109.0
274.24,103.0
274.3,96.0
274.36,103.0
274.43,100.0
274.49,82.0
274.55,94.0
274.62,92.0
274.68,80.0
274.74,109.0
274.81,107.0
274.87,99.0
274.93,94.0
274.99,76.0
275.06,82.0
275.12,96.0
275.18,84.0
275.25,99.0
275.31,91.0
275.37,74.0
275.44,92.0
275.5,74.0
275.56,67.0
275.62,72.0
275.69,61.0
275.75,67.0
275.81,63.0
275.88,65.0
275.94,46.0
276.0,57.0
276.07,49.0
276.13,66.0
276.19,67.0
276.25,41.0
276.32,56.0
276.38,51.0
276.44,52.0
276.51,28.0
276.57,20.0
276.63,18.0
276.7,9.0
276.76,2.0
276.82,11.0
276.88,14.0
276.95,13.0
277.01,4.0
277.07,1.0
277.14,6.0
277.2,3.0
277.26,15.0
277.33,6.0
277.39,11.0
277.45,8.0
277.51,9.0
277.58,12.0
277.64,-2.0
277.7,-3.0
277.77,-11.0
277.83,5.0
277.89,-6.0
277.96,-19.0
278.02,-34.0
278.08,-27.0
278.14,-41.0
278.21,-2.0
278.27,15.0
278.33,-14.0
278.4,-9.0
278.46,-14.0
278.52,-6.0
278.59,-13.0
278.65,-2.0
278.71,-11.0
278.77,6.0
278.84,6.0
278.9,-8.0
278.96,0.0
279.03,-18.0
279.09,13.0
279.15,-10.0
279.22,6.0
279.28,27.0
279.34,-6.0
279.4,0.0
279.47,-1.0
279.53,29.0
279.59,10.0
279.66,2.0
279.72,29.0
279.78,38.0
279.85,44.0
279.91,40.0
279.97,44.0
280.03,37.0
280.1,45.0
280.16,54.0
280.22,67.0
280.29,63.0
280.35,59.0
280.41,59.0
280.48,52.0
280.54,65.0
280.6,69.0
280.66,82.0
280.73,92.0
280.79,80.0
280.85,85.0
280.92,87.0
280.98,91.0
281.04,80.0
281.11,109.0
281.17,114.0
281.23,118.0
281.29,125.0
281.36,127.0
281.42,131.0
281.48,127.0
281.55,129.0
281.61,124.0
281.67,132.0
281.74,134.0
281.8,133.0
281.86,142.0
281.92,152.0
281.99,154.0
282.05,147.0
282.11,170.0
282.18,174.0
282.24,162.0
282.3,164.0
282.37,162.0
282.43,142.0
282.49,143.0
282.55,145.0
282.62,159.0
282.68,148.0
282.74,147.0
282.81,153.0
282.87,175.0
282.93,142.0
283.0,149.0
283.06,151.0
283.12,149.0
283.18,148.0
283.25,165.0
283.31,158.0
283.37,175.0
283.44,174.0
283.5,172.0
283.56,177.0
283.63,161.0
283.69,176.0
283.75,179.0
283.81,165.0
283.88,180.0
283.94,180.0
284.0,177.0
284.07,189.0
284.13,176.0
284.19,172.0
284.26,185.0
284.32,175.0
284.38,187.0
284.44,182.0
284.51,179.0
284.57,191.0
284.63,181.0
284.7,194.0
284.76,195.0
284.82,172.0
284.89,165.0
284.95,185.0
285.01,176.0
285.07,195.0
285.14,202.0
285.2,184.0
285.26,185.0
285.33,181.0
285.39,194.0
285.45,193.0
285.52,191.0
285.58,180.0
285.64,175.0
285.7,191.0
285.77,184.0
285.83,189.0
285.89,188.0
285.96,188.0
286.02,221.0
286.08,221.0
286.15,240.0
286.21,217.0
286.27,232.0
286.33,239.0
286.4,233.0
286.46,239.0
286.52,236.0
286.59,243.0
286.65,238.0
286.71,247.0
286.78,237.0
286.84,242.0
286.9,255.0
286.96,255.0
287.03,287.0
287.09,268.0
287.15,263.0
287.22,268.0
287.28,279.0
287.34,272.0
287.41,274.0
287.47,268.0
287.53,264.0
287.59,263.0
287.66,284.0
287.72,292.0
287.78,283.0
287.85,298.0
287.91,296.0
287.97,297.0
288.04,279.0
288.1,273.0
288.16,297.0
288.22,299.0
288.29,294.0
288.35,295.0
288.41,293.0
288.48,311.0
288.54,313.0
288.6,302.0
288.67,298.0
288.73,298.0
288.79,312.0
288.85,304.0
288.92,304.0
288.98,304.0
289.04,300.0
289.11,301.0
289.17,283.0
289.23,291.0
289.3,290.0
289.36,269.0
289.42,282.0
289.48,282.0
289.55,263.0
289.61,281.0
289.67,292.0
289.74,272.0
289.8,275.0
289.86,267.0
289.93,261.0
289.99,246.0
290.05,257.0
290.11,249.0
290.18,217.0
290.24,227.0
290.3,224.0
290.37,243.0
290.43,242.0
290.49,232.0
290.56,214.0
290.62,228.0
290.68,230.0
290.74,230.0
290.81,224.0
290.87,239.0
290.93,231.0
291.0,242.0
291.06,224.0
291.12,219.0
291.19,241.0
291.25,224.0
291.31,217.0
291.37,197.0
291.44,200.0
291.5,195.0
291.56,197.0
291.63,192.0
291.69,195.0
291.75,191.0
291.82,197.0
291.88,197.0
291.94,185.0
292.0,204.0
292.07,198.0
292.13,228.0
292.19,195.0
292.26,209.0
292.32,190.0
292.38,167.0
292.45,180.0
292.51,189.0
292.57,185.0
292.63,166.0
292.7,161.0
292.76,179.0
292.82,164.0
292.89,133.0
292.95,148.0
293.01,136.0
293.08,122.0
293.14,130.0
293.2,120.0
293.26,127.0
293.33,107.0
293.39,115.0
293.45,112.0
293.52,117.0
293.58,103.0
293.64,101.0
293.71,101.0
293.77,102.0
293.83,104.0
293.89,96.0
293.96,98.0
294.02,74.0
294.08,91.0
294.15,85.0
294.21,80.0
294.27,45.0
294.34,74.0
294.4,62.0
294.46,48.0
294.52,55.0
294.59,58.0
294.65,56.0
294.71,46.0
294.78,55.0
294.84,20.0
294.9,50.0
294.97,37.0
295.03,28.0
295.09,38.0
295.15,31.0
295.22,7.0
295.28,26.0
295.34,19.0
295.41,22.0
295.47,34.0
295.53,19.0
295.6,29.0
295.66,28.0
295.72,38.0
295.78,28.0
295.85,27.0
295.91,35.0
295.97,52.0
296.04,54.0
296.1,65.0
296.16,57.0
296.23,44.0
296.29,49.0
296.35,48.0
296.41,59.0
296.48,58.0
296.54,63.0
296.6,66.0
296.67,52.0
296.73,56.0
296.79,77.0
296.86,78.0
296.92,70.0
296.98,89.0
297.04,96.0
297.11,73.0
297.17,62.0
297.23,58.0
297.3,60.0
297.36,59.0
297.42,67.0
297.49,59.0
297.55,71.0
297.61,65.0
297.67,64.0
297.74,91.0
297.8,93.0
297.86,88.0
297.93,82.0
297.99,65.0
298.05,59.0
298.12,52.0
298.18,60.0
298.24,68.0
298.3,92.0
298.37,93.0
298.43,97.0
298.49,84.0
298.56,85.0
298.62,85.0
298.68,94.0
298.75,88.0
298.81,92.0
298.87,85.0
298.93,59.0
299.0,81.0
299.06,82.0
299.12,91.0
299.19,74.0
299.25,67.0
299.31,84.0
299.38,73.0
299.44,78.0
299.5,73.0
299.56,62.0
299.63,59.0
299.69,76.0
299.75,75.0
299.82,55.0
299.88,74.0
299.94,61.0
300.01,60.0
300.07,67.0
300.13,53.0
300.19,50.0
300.26,41.0
300.32,47.0
300.38,58.0
300.45,58.0
300.51,54.0
300.57,64.0
300.64,48.0
300.7,69.0
300.76,63.0
300.82,41.0
300.89,63.0
300.95,41.0
301.01,32.0
301.08,25.0
301.14,27.0
301.2,22.0
301.27,41.0
301.33,33.0
301.39,38.0
301.45,41.0
301.52,25.0
301.58,26.0
301.64,30.0
301.71,61.0
301.77,55.0
301.83,66.0
301.9,71.0
301.96,79.0
302.02,61.0
302.08,70.0
302.15,81.0
302.21,75.0
302.27,93.0
302.34,60.0
302.4,79.0
302.46,81.0
302.53,88.0
302.59,92.0
302.65,81.0
302.71,74.0
302.78,93.0
302.84,81.0
302.9,85.0
302.97,104.0
303.03,88.0
303.09,99.0
303.16,103.0
303.22,96.0
303.28,106.0
303.34,112.0
303.41,113.0
303.47,109.0
303.53,131.0
303.6,123.0
303.66,115.0
303.72,118.0
303.79,132.0
303.85,138.0
303.91,113.0
303.97,127.0
304.04,112.0
304.1,96.0
304.16,100.0
304.23,109.0
304.29,120.0
304.35,119.0
304.42,137.0
304.48,125.0
304.54,124.0
304.6,115.0
304.67,126.0
304.73,137.0
304.79,137.0
304.86,133.0
304.92,124.0
304.98,146.0
305.05,138.0
305.11,158.0
305.17,143.0
305.23,166.0
305.3,187.0
305.36,150.0
305.42,163.0
305.49,180.0
305.55,169.0
305.61,166.0
305.68,177.0
305.74,189.0
305.8,166.0
305.86,169.0
305.93,157.0
305.99,153.0
306.05,157.0
306.12,170.0
306.18,176.0
306.24,150.0
306.31,172.0
306.37,168.0
306.43,177.0
306.49,162.0
306.56,173.0
306.62,181.0
306.68,154.0
306.75,161.0
306.81,156.0
306.87,166.0
306.94,146.0
307.0,171.0
307.06,175.0
307.12,169.0
307.19,191.0
307.25,180.0
307.31,177.0
307.38,168.0
307.44,187.0
307.5,183.0
307.57,179.0
307.63,187.0
307.69,189.0
307.75,189.0
307.82,192.0
307.88,199.0
307.94,183.0
308.01,184.0
308.07,183.0
308.13,176.0
308.2,193.0
308.26,200.0
308.32,198.0
308.38,175.0
308.45,194.0
308.51,206.0
308.57,195.0
308.64,184.0
308.7,170.0
308.76,156.0
308.83,172.0
308.89,161.0
308.95,158.0
309.01,161.0
309.08,138.0
309.14,163.0
309.2,166.0
309.27,152.0
309.33,131.0
309.39,121.0
309.46,136.0
309.52,131.0
309.58,137.0
309.64,128.0
309.71,133.0
309.77,123.0
309.83,114.0
309.9,110.0
309.96,96.0
310.02,101.0
310.09,96.0
310.15,89.0
310.21,103.0
310.27,116.0
310.34,109.0
310.4,88.0
310.46,92.0
310.53,73.0
310.59,74.0
310.65,67.0
310.72,62.0
310.78,88.0
310.84,61.0
310.9,70.0
310.97,34.0
311.03,30.0
311.09,47.0
311.16,57.0
311.22,31.0
311.28,18.0
311.35,27.0
311.41,20.0
311.47,36.0
311.53,29.0
311.6,19.0
311.66,24.0
311.72,32.0
311.79,19.0
311.85,31.0
311.91,24.0
311.98,18.0
312.04,21.0
312.1,22.0
312.16,8.0
312.23,8.0
312.29,35.0
312.35,11.0
312.42,21.0
312.48,27.0
312.54,24.0
312.61,16.0
312.67,21.0
312.73,21.0
312.79,11.0
312.86,35.0
312.92,24.0
312.98,11.0
313.05,-5.0
313.11,-8.0
313.17,-24.0
313.24,5.0
313.3,15.0
313.36,16.0
313.42,-5.0
313.49,30.0
313.55,30.0
313.61,20.0
313.68,30.0
313.74,30.0
313.8,36.0
313.87,27.0
313.93,50.0
313.99,58.0
314.05,51.0
314.12,58.0
314.18,49.0
314.24,27.0
314.31,52.0
314.37,54.0
314.43,38.0
314.5,36.0
314.56,46.0
314.62,60.0
314.68,61.0
314.75,35.0
314.81,38.0
314.87,35.0
314.94,30.0
315.0,32.0
315.06,20.0
315.13,20.0
315.19,37.0
315.25,32.0
315.31,17.0
315.38,33.0
315.44,8.0
315.5,19.0
315.57,7.0
315.63,5.0
315.69,20.0
315.76,7.0
315.82,12.0
315.88,19.0
315.94,17.0
316.01,21.0
316.07,17.0
316.13,13.0
316.2,23.0
316.26,49.0
316.32,25.0
316.39,37.0
316.45,38.0
316.51,32.0
316.57,37.0
316.64,28.0
316.7,37.0
316.76,40.0
316.83,49.0
316.89,35.0
316.95,27.0
317.02,31.0
317.08,27.0
317.14,49.0
317.2,49.0
317.27,27.0
317.33,35.0
317.39,40.0
317.46,34.0
317.52,41.0
317.58,52.0
317.65,23.0
317.71,47.0
317.77,62.0
317.83,52.0
317.9,46.0
317.96,39.0
318.02,42.0
318.09,15.0
318.15,23.0
318.21,42.0
318.28,29.0
318.34,20.0
318.4,19.0
318.46,20.0
318.53,33.0
318.59,28.0
318.65,49.0
318.72,35.0
318.78,33.0
318.84,44.0
318.91,55.0
318.97,60.0
319.03,62.0
319.09,57.0
319.16,65.0
319.22,52.0
319.28,71.0
319.35,60.0
319.41,69.0
319.47,72.0
319.54,78.0
319.6,78.0
319.66,60.0
319.72,63.0
319.79,73.0
319.85,72.0
319.91,80.0
319.98,77.0
320.04,87.0
320.1,88.0
320.17,91.0
320.23,89.0
320.29,94.0
320.35,96.0
320.42,99.0
320.48,95.0
320.54,95.0
320.61,91.0
320.67,94.0
320.73,97.0
320.8,101.0
320.86,103.0
320.92,116.0
320.98,108.0
321.05,130.0
321.11,136.0
321.17,141.0
321.24,141.0
321.3,146.0
321.36,154.0
321.43,152.0
321.49,140.0
321.55,122.0
321.61,127.0
321.68,115.0
321.74,136.0
321.8,159.0
321.87,146.0
321.93,154.0
321.99,140.0
322.06,122.0
322.12,127.0
322.18,132.0
322.24,140.0
322.31,147.0
322.37,144.0
322.43,137.0
322.5,154.0
322.56,147.0
322.62,137.0
322.69,127.0
322.75,132.0
322.81,129.0
322.87,145.0
322.94,166.0
323.0,182.0
323.06,167.0
323.13,162.0
323.19,173.0
323.25,184.0
323.32,190.0
323.38,211.0
323.44,200.0
323.5,203.0
323.57,207.0
323.63,202.0
323.69,207.0
323.76,210.0
323.82,218.0
323.88,215.0
323.95,214.0
324.01,214.0
324.07,214.0
324.13,207.0
324.2,214.0
324.26,209.0
324.32,203.0
324.39,192.0
324.45,217.0
324.51,232.0
324.58,224.0
324.64,208.0
324.7,194.0
324.76,196.0
324.83,174.0
324.89,200.0
324.95,203.0
325.02,204.0
325.08,196.0
325.14,183.0
325.21,186.0
325.27,187.0
325.33,184.0
325.39,184.0
325.46,189.0
325.52,200.0
325.58,176.0
325.65,174.0
325.71,160.0
325.77,159.0
325.84,159.0
325.9,162.0
325.96,171.0
326.02,169.0
326.09,171.0
326.15,161.0
326.21,165.0
326.28,171.0
326.34,154.0
326.4,144.0
326.47,163.0
326.53,139.0
326.59,141.0
326.65,126.0
326.72,121.0
326.78,116.0
326.84,106.0
326.91,129.0
326.97,119.0
327.03,110.0
327.1,111.0
327.16,92.0
327.22,98.0
327.28,100.0
327.35,97.0
327.41,93.0
327.47,86.0
327.54,85.0
327.6,82.0
327.66,81.0
327.73,97.0
327.79,91.0
327.85,93.0
327.91,84.0
327.98,83.0
328.04,86.0
328.1,81.0
328.17,82.0
328.23,89.0
328.29,91.0
328.36,93.0
328.42,69.0
328.48,61.0
328.54,67.0
328.61,85.0
328.67,103.0
328.73,80.0
328.8,69.0
328.86,77.0
328.92,90.0
328.99,64.0
329.05,62.0
329.11,65.0
329.17,73.0
329.24,75.0
329.3,80.0
329.36,90.0
329.43,61.0
329.49,77.0
329.55,72.0
329.62,61.0
329.68,62.0
329.74,68.0
329.8,62.0
329.87,85.0
329.93,92.0
329.99,94.0
330.06,105.0
330.12,94.0
330.18,111.0
330.25,109.0
330.31,93.0
330.37,115.0
330.43,99.0
330.5,96.0
330.56,106.0
330.62,104.0
330.69,123.0
330.75,115.0
330.81,104.0
330.88,114.0
330.94,119.0
331.0,126.0
331.06,126.0
331.13,106.0
331.19,110.0
331.25,135.0
331.32,126.0
331.38,141.0
331.44,112.0
331.51,127.0
331.57,116.0
331.63,119.0
331.69,113.0
331.76,134.0
331.82,100.0
331.88,105.0
331.95,115.0
332.01,135.0
332.07,116.0
332.14,117.0
332.2,97.0
332.26,129.0
332.32,126.0
332.39,100.0
332.45,93.0
332.51,96.0
332.58,80.0
332.64,86.0
332.7,79.0
332.77,100.0
332.83,109.0
332.89,96.0
332.95,88.0
333.02,87.0
333.08,68.0
333.14,91.0
333.21,93.0
333.27,83.0
333.33,84.0
333.4,67.0
333.46,70.0
333.52,69.0
333.58,54.0
333.65,60.0
333.71,77.0
333.77,68.0
333.84,75.0
333.9,89.0
333.96,78.0
334.03,82.0
334.09,76.0
334.15,80.0
334.21,74.0
334.28,83.0
334.34,77.0
334.4,82.0
334.47,70.0
334.53,98.0
334.59,93.0
334.66,77.0
334.72,94.0
334.78,86.0
334.84,97.0
334.91,101.0
334.97,101.0
335.03,76.0
335.1,86.0
335.16,83.0
335.22,80.0
335.29,79.0
335.35,80.0
335.41,67.0
335.47,60.0
335.54,68.0
335.6,60.0
335.66,69.0
335.73,71.0
335.79,47.0
335.85,69.0
335.92,67.0
335.98,49.0
336.04,48.0
336.1,47.0
336.17,53.0
336.23,63.0
336.29,57.0
336.36,68.0
336.42,71.0
336.48,67.0
336.55,60.0
336.61,73.0
336.67,99.0
336.73,89.0
336.8,107.0
336.86,113.0
336.92,97.0
336.99,84.0
337.05,98.0
337.11,110.0
337.18,100.0
337.24,100.0
337.3,113.0
337.36,103.0
337.43,112.0
337.49,116.0
337.55,107.0
337.62,115.0
337.68,104.0
337.74,100.0
337.81,102.0
337.87,86.0
337.93,93.0
337.99,83.0
338.06,89.0
338.12,102.0
338.18,94.0
338.25,104.0
338.31,111.0
338.37,119.0
338.44,124.0
338.5,110.0
338.56,145.0
338.62,142.0
338.69,134.0
338.75,132.0
338.81,108.0
338.88,119.0
338.94,115.0
339.0,133.0
339.07,157.0
339.13,169.0
339.19,149.0
339.25,174.0
339.32,171.0
339.38,161.0
339.44,189.0
339.51,168.0
339.57,185.0
339.63,173.0
339.7,159.0
339.76,177.0
339.82,165.0
339.88,174.0
339.95,166.0
340.01,176.0
340.07,182.0
340.14,189.0
340.2,198.0
340.26,190.0
340.33,192.0
340.39,179.0
340.45,170.0
340.51,182.0
340.58,189.0
340.64,205.0
340.7,183.0
340.77,187.0
340.83,191.0
340.89,173.0
340.96,176.0
341.02,185.0
341.08,199.0
341.14,181.0
341.21,173.0
341.27,200.0
341.33,187.0
341.4,197.0
341.46,212.0
341.52,217.0
341.59,211.0
341.65,197.0
341.71,212.0
341.77,207.0
341.84,229.0
341.9,246.0
341.96,240.0
342.03,223.0
342.09,197.0
342.15,224.0
342.22,201.0
342.28,189.0
342.34,201.0
342.4,211.0
342.47,215.0
342.53,218.0
342.59,239.0
342.66,209.0
342.72,190.0
342.78,195.0
342.85,195.0
342.91,208.0
342.97,196.0
343.03,195.0
343.1,188.0
343.16,173.0
343.22,181.0
343.29,170.0
343.35,176.0
343.41,171.0
343.48,174.0
343.54,178.0
343.6,187.0
343.66,200.0
343.73,175.0
343.79,192.0
343.85,184.0
343.92,170.0
343.98,180.0
344.04,176.0
344.11,156.0
344.17,182.0
344.23,176.0
344.29,177.0
344.36,177.0
344.42,149.0
344.48,153.0
344.55,152.0
344.61,154.0
344.67,152.0
344.74,155.0
344.8,158.0
344.86,151.0
344.92,138.0
344.99,159.0
345.05,168.0
345.11,141.0
345.18,151.0
345.24,156.0
345.3,152.0
345.37,148.0
345.43,163.0
345.49,166.0
345.55,166.0
345.62,146.0
345.68,150.0
345.74,150.0
345.81,163.0
345.87,183.0
345.93,172.0
346.0,170.0
346.06,177.0
346.12,163.0
346.18,149.0
346.25,160.0
346.31,179.0
346.37,188.0
346.44,182.0
346.5,174.0
346.56,183.0
346.63,187.0
346.69,170.0
346.75,182.0
346.81,185.0
346.88,214.0
346.94,206.0
347.0,193.0
347.07,200.0
347.13,185.0
347.19,206.0
347.26,203.0
347.32,194.0
347.38,208.0
347.44,198.0
347.51,201.0
347.57,197.0
347.63,185.0
347.7,196.0
347.76,176.0
347.82,189.0
347.89,185.0
347.95,169.0
348.01,167.0
348.07,179.0
348.14,190.0
348.2,173.0
348.26,184.0
348.33,171.0
348.39,173.0
348.45,164.0
348.52,181.0
348.58,162.0
348.64,155.0
348.7,160.0
348.77,156.0
348.83,166.0
348.89,171.0
348.96,155.0
349.02,152.0
349.08,152.0
349.15,142.0
349.21,129.0
349.27,153.0
349.33,170.0
349.4,146.0
349.46,140.0
349.52,152.0
349.59,166.0
349.65,178.0
349.71,159.0
349.78,152.0
349.84,136.0
349.9,134.0
349.96,151.0
350.03,158.0
350.09,162.0
350.15,157.0
350.22,157.0
350.28,165.0
350.34,137.0
350.41,148.0
350.47,152.0
350.53,161.0
350.59,134.0
350.66,142.0
350.72,162.0
350.78,160.0
350.85,170.0
350.91,155.0
350.97,152.0
351.04,127.0
351.1,145.0
351.16,132.0
351.22,132.0
351.29,141.0
351.35,126.0
351.41,130.0
351.48,126.0
351.54,148.0
351.6,127.0
351.67,111.0
351.73,106.0
351.79,120.0
351.85,105.0
351.92,126.0
351.98,119.0
352.04,126.0
352.11,109.0
352.17,99.0
352.23,107.0
352.3,78.0
352.36,85.0
352.42,82.0
352.48,91.0
352.55,97.0
352.61,78.0
352.67,76.0
352.74,82.0
352.8,90.0
352.86,96.0
352.93,82.0
352.99,88.0
353.05,71.0
353.11,77.0
353.18,90.0
353.24,72.0
353.3,64.0
353.37,63.0
353.43,53.0
353.49,66.0
353.56,68.0
353.62,68.0
353.68,84.0
353.74,89.0
353.81,86.0
353.87,82.0
353.93,82.0
354.0,56.0
354.06,81.0
354.12,81.0
354.19,77.0
354.25,81.0
354.31,82.0
354.37,62.0
354.44,65.0
354.5,70.0
354.56,84.0
354.63,82.0
354.69,83.0
354.75,80.0
354.82,87.0
354.88,112.0
354.94,85.0
355.0,107.0
355.07,114.0
355.13,92.0
355.19,117.0
355.26,104.0
355.32,115.0
355.38,94.0
355.45,102.0
355.51,112.0
355.57,107.0
355.63,98.0
355.7,91.0
355.76,94.0
355.82,95.0
355.89,105.0
355.95,107.0
356.01,115.0
356.08,90.0
356.14,88.0
356.2,86.0
356.26,102.0
356.33,117.0
356.39,104.0
356.45,107.0
356.52,120.0
356.58,93.0
356.64,96.0
356.71,101.0
356.77,89.0
356.83,112.0
356.89,99.0
356.96,89.0
357.02,83.0
357.08,99.0
357.15,86.0
357.21,93.0
357.27,107.0
357.34,101.0
357.4,113.0
357.46,105.0
357.52,86.0
357.59,97.0
357.65,104.0
357.71,98.0
357.78,80.0
357.84,87.0
357.9,100.0
357.97,90.0
358.03,93.0
358.09,94.0
358.15,94.0
358.22,97.0
358.28,84.0
358.34,75.0
358.41,93.0
358.47,86.0
358.53,99.0
358.6,104.0
358.66,107.0
358.72,122.0
358.78,112.0
358.85,121.0
358.91,108.0
358.97,127.0
359.04,120.0
359.1,106.0
359.16,108.0
359.23,114.0
359.29,129.0
359.35,99.0
359.41,111.0
359.48,117.0
359.54,116.0
359.6,117.0
359.67,121.0
359.73,101.0
359.79,118.0
359.86,124.0
359.92,101.0
359.98,105.0
360.04,99.0
360.11,97.0
360.17,87.0
360.23,94.0
360.3,108.0
360.36,79.0
360.42,95.0
360.49,79.0
360.55,82.0
360.61,84.0
360.67,97.0
360.74,88.0
360.8,61.0
360.86,72.0
360.93,68.0
360.99,72.0
361.05,66.0
361.12,65.0
361.18,62.0
361.24,79.0
361.3,77.0
361.37,73.0
361.43,75.0
361.49,57.0
361.56,72.0
361.62,70.0
361.68,60.0
361.75,70.0
361.81,64.0
361.87,63.0
361.93,81.0
362.0,73.0
362.06,62.0
362.12,68.0
362.19,65.0
362.25,71.0
362.31,77.0
362.38,78.0
362.44,45.0
362.5,54.0
362.56,63.0
362.63,71.0
362.69,73.0
362.75,67.0
362.82,58.0
362.88,64.0
362.94,72.0
363.01,58.0
363.07,75.0
363.13,72.0
363.19,70.0
363.26,61.0
363.32,47.0
363.38,56.0
363.45,65.0
363.51,71.0
363.57,87.0
363.64,81.0
363.7,88.0
363.76,86.0
363.82,82.0
363.89,90.0
363.95,89.0
364.01,102.0
364.08,97.0
364.14,113.0
364.2,98.0
364.27,93.0
364.33,107.0
364.39,106.0
364.45,108.0
364.52,121.0
364.58,118.0
364.64,126.0
364.71,133.0
364.77,141.0
364.83,130.0
364.9,138.0
364.96,151.0
365.02,150.0
365.08,153.0
365.15,150.0
365.21,156.0
365.27,168.0
365.34,153.0
365.4,154.0
365.46,145.0
365.53,143.0
365.59,137.0
365.65,140.0
365.71,134.0
365.78,154.0
365.84,126.0
365.9,141.0
365.97,157.0
366.03,132.0
366.09,141.0
366.16,151.0
366.22,156.0
366.28,155.0
366.34,141.0
366.41,148.0
366.47,140.0
366.53,150.0
366.6,147.0
366.66,133.0
366.72,131.0
366.79,146.0
366.85,135.0
366.91,130.0
366.97,149.0
367.04,161.0
367.1,135.0
367.16,127.0
367.23,125.0
367.29,138.0
367.35,120.0
367.42,117.0
367.48,117.0
367.54,130.0
367.6,118.0
367.67,98.0
367.73,103.0
367.79,100.0
367.86,111.0
367.92,117.0
367.98,122.0
368.05,122.0
368.11,101.0
368.17,105.0
368.23,111.0
368.3,106.0
368.36,104.0
368.42,124.0
368.49,105.0
368.55,102.0
368.61,103.0
368.68,98.0
368.74,104.0
368.8,121.0
368.86,132.0
368.93,111.0
368.99,97.0
369.05,111.0
369.12,112.0
369.18,112.0
369.24,86.0
369.31,89.0
369.37,93.0
369.43,92.0
369.49,97.0
369.56,97.0
369.62,89.0
369.68,95.0
369.75,93.0
369.81,101.0
369.87,96.0
369.94,113.0
370.0,102.0
370.06,116.0
370.12,105.0
370.19,106.0
370.25,113.0
370.31,110.0
370.38,100.0
370.44,93.0
370.5,105.0
370.57,109.0
370.63,91.0
370.69,100.0
370.75,101.0
370.82,89.0
370.88,94.0
370.94,83.0
371.01,71.0
371.07,58.0
371.13,71.0
371.2,72.0
371.26,76.0
371.32,63.0
371.38,71.0
371.45,64.0
371.51,64.0
371.57,77.0
371.64,61.0
371.7,53.0
371.76,55.0
371.83,56.0
371.89,61.0
371.95,56.0
372.01,57.0
372.08,68.0
372.14,59.0
372.2,61.0
372.27,75.0
372.33,51.0
372.39,64.0
372.46,65.0
372.52,74.0
372.58,68.0
372.64,84.0
372.71,107.0
372.77,80.0
372.83,73.0
372.9,86.0
372.96,85.0
373.02,87.0
373.09,75.0
373.15,86.0
373.21,101.0
373.27,85.0
373.34,77.0
373.4,64.0
373.46,84.0
373.53,82.0
373.59,63.0
373.65,75.0
373.72,63.0
373.78,75.0
373.84,58.0
373.9,47.0
373.97,74.0
374.03,81.0
374.09,95.0
374.16,87.0
374.22,86.0
374.28,83.0
374.35,91.0
374.41,93.0
374.47,97.0
374.53,115.0
374.6,104.0
374.66,95.0
374.72,94.0
374.79,81.0
374.85,107.0
374.91,93.0
374.98,108.0
375.04,93.0
375.1,91.0
375.16,105.0
375.23,105.0
375.29,88.0
375.35,84.0
375.42,90.0
375.48,87.0
375.54,119.0
375.61,116.0
375.67,121.0
375.73,113.0
375.79,104.0
375.86,102.0
375.92,89.0
375.98,109.0
376.05,103.0
376.11,111.0
376.17,81.0
376.24,80.0
376.3,78.0
376.36,81.0
376.42,83.0
376.49,90.0
376.55,84.0
376.61,74.0
376.68,79.0
376.74,69.0
376.8,46.0
376.87,64.0
376.93,44.0
376.99,44.0
377.05,50.0
377.12,30.0
377.18,28.0
377.24,54.0
377.31,34.0
377.37,28.0
377.43,23.0
377.5,38.0
377.56,40.0
377.62,23.0
377.68,33.0
377.75,22.0
377.81,16.0
377.87,16.0
377.94,25.0
378.0,15.0
378.06,23.0
378.13,9.0
378.19,-4.0
378.25,-4.0
378.31,2.0
378.38,10.0
378.44,21.0
378.5,10.0
378.57,20.0
378.63,10.0
378.69,20.0
378.76,9.0
378.82,-3.0
378.88,29.0
378.94,26.0
379.01,30.0
379.07,32.0
379.13,24.0
379.2,24.0
379.26,40.0
379.32,42.0
379.39,36.0
379.45,24.0
379.51,30.0
379.57,44.0
379.64,47.0
379.7,66.0
379.76,37.0
379.83,43.0
379.89,32.0
379.95,54.0
380.02,62.0
380.08,47.0
380.14,65.0
380.2,76.0
380.27,53.0
380.33,73.0
380.39,91.0
380.46,64.0
380.52,84.0
380.58,69.0
380.65,65.0
380.71,66.0
380.77,84.0
380.83,93.0
380.9,112.0
380.96,110.0
381.02,124.0
381.09,92.0
381.15,103.0
381.21,111.0
381.28,97.0
381.34,114.0
381.4,113.0
381.46,106.0
381.53,114.0
381.59,113.0
381.65,110.0
381.72,106.0
381.78,116.0
381.84,119.0
381.91,116.0
381.97,128.0
382.03,133.0
382.09,129.0
382.16,124.0
382.22,132.0
382.28,126.0
382.35,105.0
382.41,123.0
382.47,104.0
382.54,125.0
382.6,119.0
382.66,127.0
382.72,114.0
382.79,113.0
382.85,116.0
382.91,115.0
382.98,117.0
383.04,116.0
383.1,130.0
383.17,120.0
383.23,133.0
383.29,128.0
383.35,130.0
383.42,102.0
383.48,99.0
383.54,111.0
383.61,122.0
383.67,104.0
383.73,118.0
383.8,135.0
383.86,115.0
383.92,117.0
383.98,116.0
384.05,114.0
384.11,125.0
384.17,118.0
384.24,110.0
384.3,116.0
384.36,129.0
384.43,103.0
384.49,95.0
384.55,113.0
384.61,142.0
384.68,135.0
384.74,149.0
384.8,132.0
384.87,125.0
384.93,149.0
384.99,150.0
385.06,131.0
385.12,122.0
385.18,123.0
385.24,130.0
385.31,120.0
385.37,126.0
385.43,121.0
385.5,124.0
385.56,135.0
385.62,141.0
385.69,146.0
385.75,128.0
385.81,146.0
385.87,129.0
385.94,146.0
386.0,120.0
386.06,122.0
386.13,127.0
386.19,134.0
386.25,122.0
386.32,126.0
386.38,132.0
386.44,119.0
386.5,121.0
386.57,125.0
386.63,133.0
386.69,129.0
386.76,130.0
386.82,114.0
386.88,115.0
386.95,115.0
387.01,128.0
387.07,114.0
387.13,116.0
387.2,98.0
387.26,110.0
387.32,105.0
387.39,97.0
387.45,89.0
387.51,117.0
387.58,122.0
387.64,135.0
387.7,128.0
387.76,128.0
387.83,136.0
387.89,134.0
387.95,115.0
388.02,119.0
388.08,119.0
388.14,128.0
388.21,151.0
388.27,143.0
388.33,150.0
388.39,166.0
388.46,151.0
388.52,133.0
388.58,147.0
388.65,158.0
388.71,152.0
388.77,132.0
388.84,144.0
388.9,142.0
388.96,129.0
389.02,128.0
389.09,145.0
389.15,185.0
389.21,164.0
389.28,181.0
389.34,180.0
389.4,166.0
389.47,187.0
389.53,179.0
389.59,200.0
389.65,187.0
389.72,197.0
389.78,194.0
389.84,197.0
389.91,194.0
389.97,215.0
390.03,191.0
390.1,191.0
390.16,201.0
390.22,214.0
390.28,213.0
390.35,200.0
390.41,182.0
390.47,218.0
390.54,212.0
390.6,213.0
390.66,229.0
390.73,235.0
390.79,219.0
390.85,205.0
390.91,233.0
390.98,218.0
391.04,216.0
391.1,209.0
391.17,202.0
391.23,209.0
391.29,193.0
391.36,224.0
391.42,220.0
391.48,230.0
391.54,212.0
391.61,205.0
391.67,211.0
391.73,198.0
391.8,209.0
391.86,222.0
391.92,191.0
391.99,198.0
392.05,208.0
392.11,200.0
392.17,201.0
392.24,197.0
392.3,181.0
392.36,194.0
392.43,218.0
392.49,205.0
392.55,216.0
392.62,212.0
392.68,211.0
392.74,210.0
392.8,221.0
392.87,201.0
392.93,206.0
392.99,207.0
393.06,205.0
393.12,194.0
393.18,196.0
393.25,204.0
393.31,190.0
393.37,202.0
393.43,194.0
393.5,203.0
393.56,192.0
393.62,177.0
393.69,183.0
393.75,172.0
393.81,155.0
393.88,145.0
393.94,146.0
394.0,121.0
394.06,102.0
394.13,120.0
394.19,130.0
394.25,120.0
394.32,112.0
394.38,86.0
394.44,116.0
394.51,117.0
394.57,105.0
394.63,108.0
394.69,91.0
394.76,73.0
394.82,90.0
394.88,94.0
394.95,100.0
395.01,64.0
395.07,66.0
395.14,69.0
395.2,76.0
395.26,79.0
395.32,58.0
395.39,64.0
395.45,73.0
395.51,72.0
395.58,59.0
395.64,73.0
395.7,84.0
395.77,76.0
395.83,77.0
395.89,93.0
395.95,83.0
396.02,79.0
396.08,83.0
396.14,87.0
396.21,73.0
396.27,69.0
396.33,77.0
396.4,75.0
396.46,73.0
396.52,84.0
396.58,67.0
396.65,81.0
396.71,82.0
396.77,89.0
396.84,80.0
396.9,80.0
396.96,72.0
397.03,65.0
397.09,54.0
397.15,54.0
397.21,66.0
397.28,74.0
397.34,100.0
397.4,102.0
397.47,100.0
397.53,97.0
397.59,89.0
397.66,102.0
397.72,97.0
397.78,84.0
397.84,109.0
397.91,95.0
397.97,117.0
398.03,86.0
398.1,106.0
398.16,117.0
398.22,112.0
398.29,117.0
398.35,106.0
398.41,107.0
398.47,120.0
398.54,119.0
398.6,114.0
398.66,124.0
398.73,139.0
398.79,139.0
398.85,127.0
398.92,127.0
398.98,113.0
399.04,122.0
399.1,120.0
399.17,124.0
399.23,116.0
399.29,131.0
399.36,130.0
399.42,127.0
399.48,133.0
399.55,124.0
399.61,139.0
399.67,137.0
399.73,154.0
399.8,168.0
399.86,159.0
399.92,157.0
399.99,161.0
400.05,179.0
400.11,165.0
400.18,176.0
400.24,176.0
400.3,164.0
400.36,183.0
400.43,170.0
400.49,172.0
400.55,176.0
400.62,150.0
400.68,150.0
400.74,155.0
400.81,154.0
400.87,146.0
400.93,141.0
400.99,168.0
401.06,177.0
401.12,169.0
401.18,157.0
401.25,187.0
401.31,168.0
401.37,162.0
401.44,162.0
401.5,172.0
401.56,154.0
401.62,169.0
401.69,182.0
401.75,174.0
401.81,172.0
401.88,160.0
401.94,156.0
402.0,156.0
402.07,143.0
402.13,150.0
402.19,128.0
402.25,122.0
402.32,146.0
402.38,139.0
402.44,141.0
402.51,151.0
402.57,141.0
402.63,143.0
402.7,142.0
402.76,121.0
402.82,120.0
402.88,111.0
402.95,112.0
403.01,121.0
403.07,132.0
403.14,131.0
403.2,146.0
403.26,154.0
403.33,152.0
403.39,145.0
403.45,157.0
403.51,185.0
403.58,171.0
403.64,164.0
403.7,190.0
403.77,183.0
403.83,185.0
403.89,168.0
403.96,171.0
404.02,174.0
404.08,150.0
404.14,157.0
404.21,171.0
404.27,157.0
404.33,157.0
404.4,149.0
404.46,158.0
404.52,180.0
404.59,146.0
404.65,172.0
404.71,166.0
404.77,153.0
404.84,169.0
404.9,161.0
404.96,147.0
405.03,145.0
405.09,133.0
405.15,138.0
405.22,141.0
405.28,152.0
405.34,146.0
405.4,164.0
405.47,172.0
405.53,169.0
405.59,176.0
405.66,149.0
405.72,163.0
405.78,176.0
405.85,167.0
405.91,168.0
405.97,148.0
406.03,160.0
406.1,166.0
406.16,172.0
406.22,177.0
406.29,209.0
406.35,191.0
406.41,172.0
406.48,179.0
406.54,171.0
406.6,171.0
406.66,168.0
406.73,200.0
406.79,181.0
406.85,194.0
406.92,207.0
406.98,205.0
407.04,206.0
407.11,206.0
407.17,216.0
407.23,194.0
407.29,193.0
407.36,194.0
407.42,183.0
407.48,194.0
407.55,197.0
407.61,167.0
407.67,166.0
407.74,194.0
407.8,205.0
407.86,198.0
407.92,189.0
407.99,180.0
408.05,186.0
408.11,199.0
408.18,199.0
408.24,188.0
408.3,184.0
408.37,174.0
408.43,192.0
408.49,179.0
408.55,150.0
408.62,155.0
408.68,159.0
408.74,168.0
408.81,173.0
408.87,160.0
408.93,170.0
409.0,158.0
409.06,136.0
409.12,142.0
409.18,147.0
409.25,146.0
409.31,161.0
409.37,154.0
409.44,161.0
409.5,163.0
409.56,135.0
409.63,145.0
409.69,157.0
409.75,137.0
409.81,141.0
409.88,167.0
409.94,140.0
410.0,148.0
410.07,138.0
410.13,150.0
410.19,173.0
410.26,151.0
410.32,147.0
410.38,135.0
410.44,135.0
410.51,141.0
410.57,114.0
410.63,114.0
410.7,115.0
410.76,113.0
410.82,99.0
410.89,99.0
410.95,95.0
411.01,99.0
411.07,89.0
411.14,67.0
411.2,76.0
411.26,77.0
411.33,85.0
411.39,89.0
411.45,58.0
411.52,91.0
411.58,76.0
411.64,62.0
411.7,51.0
411.77,60.0
411.83,46.0
411.89,39.0
411.96,51.0
412.02,47.0
412.08,48.0
412.15,51.0
412.21,40.0
412.27,39.0
412.33,51.0
412.4,44.0
412.46,37.0
412.52,40.0
412.59,47.0
412.65,59.0
412.71,42.0
412.78,52.0
412.84,51.0
412.9,59.0
412.96,26.0
413.03,25.0
413.09,24.0
413.15,15.0
413.22,16.0
413.28,22.0
413.34,7.0
413.41,14.0
413.47,37.0
413.53,14.0
413.59,32.0
413.66,23.0
413.72,22.0
413.78,41.0
413.85,22.0
413.91,25.0
413.97,30.0
414.04,43.0
414.1,39.0
414.16,48.0
414.22,62.0
414.29,40.0
414.35,50.0
414.41,60.0
414.48,55.0
414.54,54.0
414.6,60.0
414.67,64.0
414.73,74.0
414.79,77.0
414.85,51.0
414.92,76.0
414.98,64.0
415.04,69.0
415.11,70.0
415.17,69.0
415.23,94.0
415.3,70.0
415.36,74.0
415.42,81.0
415.48,73.0
415.55,62.0
415.61,76.0
415.67,75.0
415.74,58.0
415.8,70.0
415.86,56.0
415.93,62.0
415.99,72.0
416.05,74.0
416.11,77.0
416.18,94.0
416.24,72.0
416.3,72.0
416.37,82.0
416.43,107.0
416.49,108.0
416.56,102.0
416.62,99.0
416.68,91.0
416.74,85.0
416.81,95.0
416.87,112.0
416.93,94.0
417.0,88.0
417.06,93.0
417.12,83.0
417.19,102.0
417.25,111.0
417.31,94.0
417.37,108.0
417.44,92.0
417.5,94.0
417.56,105.0
417.63,104.0
417.69,110.0
417.75,116.0
417.82,105.0
417.88,112.0
417.94,123.0
418.0,93.0
418.07,89.0
418.13,87.0
418.19,95.0
418.26,108.0
418.32,99.0
418.38,100.0
418.45,111.0
418.51,95.0
418.57,106.0
418.63,98.0
418.7,92.0
418.76,83.0
418.82,94.0
418.89,95.0
418.95,89.0
419.01,58.0
419.08,76.0
419.14,59.0
419.2,69.0
419.26,77.0
419.33,61.0
419.39,73.0
419.45,85.0
419.52,88.0
419.58,76.0
419.64,84.0
419.71,97.0
419.77,99.0
419.83,96.0
419.89,99.0
419.96,101.0
420.02,99.0
420.08,116.0
420.15,107.0
420.21,83.0
420.27,96.0
420.34,86.0
420.4,114.0
420.46,105.0
420.52,104.0
420.59,125.0
420.65,129.0
420.71,119.0
420.78,112.0
420.84,124.0
420.9,127.0
420.97,126.0
421.03,125.0
421.09,112.0
421.15,122.0
421.22,146.0
421.28,151.0
421.34,120.0
421.41,130.0
421.47,114.0
421.53,109.0
421.6,110.0
421.66,121.0
421.72,117.0
421.78,125.0
421.85,132.0
421.91,139.0
421.97,139.0
422.04,119.0
422.1,127.0
422.16,110.0
422.23,114.0
422.29,125.0
422.35,112.0
422.41,122.0
422.48,108.0
422.54,116.0
422.6,121.0
422.67,125.0
422.73,112.0
422.79,108.0
422.86,87.0
422.92,108.0
422.98,118.0
423.04,120.0
423.11,121.0
423.17,127.0
423.23,118.0
423.3,102.0
423.36,115.0
423.42,117.0
423.49,114.0
423.55,146.0
423.61,130.0
423.67,132.0
423.74,154.0
423.8,138.0
423.86,148.0
423.93,141.0
423.99,149.0
424.05,154.0
424.12,162.0
424.18,157.0
424.24,148.0
424.3,142.0
424.37,154.0
424.43,154.0
424.49,152.0
424.56,158.0
424.62,156.0
424.68,131.0
424.75,128.0
424.81,133.0
424.87,139.0
424.93,139.0
425.0,143.0
425.06,125.0
425.12,143.0
425.19,124.0
425.25,95.0
425.31,127.0
425.38,120.0
425.44,118.0
425.5,125.0
425.56,119.0
425.63,117.0
425.69,119.0
425.75,113.0
425.82,126.0
425.88,130.0
425.94,99.0
426.01,119.0
426.07,125.0
426.13,143.0
426.19,139.0
426.26,128.0
426.32,128.0
426.38,142.0
426.45,136.0
426.51,129.0
426.57,104.0
426.64,101.0
426.7,127.0
426.76,138.0
426.82,116.0
426.89,124.0
426.95,133.0
427.01,128.0
427.08,119.0
427.14,140.0
427.2,132.0
427.27,118.0
427.33,113.0
427.39,119.0
427.45,124.0
427.52,135.0
427.58,135.0
427.64,125.0
427.71,123.0
427.77,110.0
427.83,113.0
427.9,117.0
427.96,106.0
428.02,95.0
428.08,94.0
428.15,72.0
428.21,89.0
428.27,91.0
428.34,56.0
428.4,75.0
428.46,87.0
428.53,102.0
428.59,78.0
428.65,98.0
428.71,93.0
428.78,78.0
428.84,78.0
428.9,66.0
428.97,45.0
429.03,47.0
429.09,36.0
429.16,33.0
429.22,37.0
429.28,34.0
429.34,41.0
429.41,30.0
429.47,39.0
429.53,28.0
429.6,35.0
429.66,36.0
429.72,20.0
429.79,24.0
429.85,26.0
429.91,29.0
429.97,13.0
430.04,31.0
430.1,38.0
430.16,23.0
430.23,22.0
430.29,25.0
430.35,43.0
430.42,20.0
430.48,37.0
430.54,27.0
430.6,32.0
430.67,40.0
430.73,42.0
430.79,66.0
430.86,57.0
430.92,61.0
430.98,61.0
431.05,61.0
431.11,56.0
431.17,63.0
431.23,67.0
431.3,67.0
431.36,66.0
431.42,80.0
431.49,59.0
431.55,48.0
431.61,45.0
431.68,59.0
431.74,69.0
431.8,69.0
431.86,55.0
431.93,76.0
431.99,72.0
432.05,53.0
432.12,64.0
432.18,44.0
432.24,38.0
432.31,33.0
432.37,47.0
432.43,33.0
432.49,46.0
432.56,72.0
432.62,67.0
432.68,60.0
432.75,54.0
432.81,57.0
432.87,91.0
432.94,83.0
433.0,76.0
433.06,91.0
433.12,82.0
433.19,81.0
433.25,96.0
433.31,70.0
433.38,84.0
433.44,94.0
433.5,90.0
433.57,58.0
433.63,59.0
433.69,64.0
433.75,46.0
433.82,55.0
433.88,66.0
433.94,58.0
434.01,62.0
434.07,55.0
434.13,65.0
434.2,51.0
434.26,58.0
434.32,50.0
434.38,54.0
434.45,73.0
434.51,53.0
434.57,52.0
434.64,45.0
434.7,56.0
434.76,61.0
434.83,46.0
434.89,31.0
434.95,41.0
435.01,54.0
435.08,73.0
435.14,72.0
435.2,55.0
435.27,43.0
435.33,41.0
435.39,40.0
435.46,71.0
435.52,75.0
435.58,62.0
435.64,47.0
435.71,58.0
435.77,52.0
435.83,47.0
435.9,52.0
435.96,58.0
436.02,69.0
436.09,68.0
436.15,64.0
436.21,58.0
436.27,45.0
436.34,69.0
436.4,62.0
436.46,62.0
436.53,58.0
436.59,39.0
436.65,68.0
436.72,37.0
436.78,37.0
436.84,48.0
436.9,39.0
436.97,32.0
437.03,32.0
437.09,42.0
437.16,40.0
437.22,35.0
437.28,28.0
437.35,60.0
437.41,56.0
437.47,62.0
437.53,61.0
437.6,66.0
437.66,64.0
437.72,75.0
437.79,58.0
437.85,67.0
437.91,53.0
437.98,46.0
438.04,51.0
438.1,61.0
438.16,68.0
438.23,91.0
438.29,91.0
438.35,73.0
438.42,79.0
438.48,88.0
438.54,76.0
438.61,68.0
438.67,75.0
438.73,65.0
438.79,88.0
438.86,84.0
438.92,77.0
438.98,70.0
439.05,59.0
439.11,73.0
439.17,84.0
439.24,105.0
439.3,102.0
439.36,108.0
439.42,103.0
439.49,116.0
439.55,106.0
439.61,110.0
439.68,127.0
439.74,109.0
439.8,142.0
439.87,121.0
439.93,133.0
439.99,138.0
440.05,149.0
440.12,128.0
440.18,154.0
440.24,155.0
440.31,155.0
440.37,152.0
440.43,153.0
440.5,166.0
440.56,163.0
440.62,158.0
440.68,171.0
440.75,174.0
440.81,168.0
440.87,182.0
440.94,194.0
441.0,198.0
441.06,199.0
441.13,186.0
441.19,190.0
441.25,201.0
441.31,182.0
441.38,186.0
441.44,187.0
441.5,192.0
441.57,212.0
441.63,201.0
441.69,199.0
441.76,207.0
441.82,217.0
441.88,212.0
441.94,206.0
442.01,208.0
442.07,217.0
442.13,231.0
442.2,235.0
442.26,247.0
442.32,235.0
442.39,227.0
442.45,231.0
442.51,256.0
442.57,249.0
442.64,252.0
442.7,241.0
442.76,264.0
442.83,246.0
442.89,244.0
442.95,243.0
443.02,239.0
443.08,224.0
443.14,234.0
443.2,238.0
443.27,223.0
443.33,232.0
443.39,223.0
443.46,227.0
443.52,227.0
443.58,242.0
443.65,224.0
443.71,231.0
443.77,234.0
443.83,223.0
443.9,243.0
443.96,246.0
444.02,210.0
444.09,208.0
444.15,194.0
444.21,201.0
444.28,215.0
444.34,191.0
444.4,201.0
444.46,191.0
444.53,198.0
444.59,197.0
444.65,188.0
444.72,184.0
444.78,179.0
444.84,179.0
444.91,172.0
444.97,172.0
445.03,168.0
445.09,169.0
445.16,161.0
445.22,171.0
445.28,185.0
445.35,174.0
445.41,175.0
445.47,167.0
445.54,167.0
445.6,179.0
445.66,184.0
445.72,185.0
445.79,161.0
445.85,169.0
445.91,179.0
445.98,177.0
446.04,177.0
446.1,163.0
446.17,183.0
446.23,150.0
446.29,165.0
446.35,165.0
446.42,189.0
446.48,182.0
446.54,174.0
446.61,196.0
446.67,170.0
446.73,190.0
446.8,199.0
446.86,191.0
446.92,186.0
446.98,191.0
447.05,175.0
447.11,186.0
447.17,197.0
447.24,191.0
447.3,174.0
447.36,172.0
447.43,174.0
447.49,173.0
447.55,161.0
447.61,172.0
447.68,160.0
447.74,163.0
447.8,143.0
447.87,160.0
447.93,157.0
447.99,164.0
448.06,143.0
448.12,130.0
448.18,131.0
448.24,133.0
448.31,129.0
448.37,122.0
448.43,135.0
448.5,137.0
448.56,151.0
448.62,131.0
448.69,132.0
448.75,138.0
448.81,135.0
448.87,124.0
448.94,119.0
449.0,157.0
449.06,147.0
449.13,137.0
449.19,133.0
449.25,116.0
449.32,92.0
449.38,108.0
449.44,103.0
449.5,110.0
449.57,105.0
449.63,79.0
449.69,92.0
449.76,93.0
449.82,73.0
449.88,99.0
449.95,97.0
450.01,70.0
450.07,105.0
450.13,91.0
450.2,72.0
450.26,98.0
450.32,113.0
450.39,113.0
450.45,120.0
450.51,107.0
450.58,109.0
450.64,106.0
450.7,114.0
450.76,117.0
450.83,102.0
450.89,94.0
450.95,99.0
451.02,107.0
451.08,97.0
451.14,109.0
451.21,102.0
451.27,100.0
451.33,110.0
451.39,93.0
451.46,103.0
451.52,91.0
451.58,91.0
451.65,80.0
451.71,84.0
451.77,100.0
451.84,124.0
451.9,103.0
451.96,91.0
452.02,77.0
452.09,85.0
452.15,80.0
452.21,79.0
452.28,82.0
452.34,100.0
452.4,94.0
452.47,95.0
452.53,106.0
452.59,98.0
452.65,92.0
452.72,84.0
452.78,75.0
452.84,80.0
452.91,87.0
452.97,79.0
453.03,96.0
453.1,99.0
453.16,86.0
453.22,78.0
453.28,65.0
453.35,63.0
453.41,72.0
453.47,69.0
453.54,72.0
453.6,98.0
453.66,84.0
453.73,72.0
453.79,76.0
453.85,83.0
453.91,71.0
453.98,88.0
454.04,72.0
454.1,76.0
454.17,83.0
454.23,85.0
454.29,81.0
454.36,79.0
454.42,85.0
454.48,81.0
454.54,75.0
454.61,77.0
454.67,89.0
454.73,59.0
454.8,61.0
454.86,76.0
454.92,67.0
454.99,98.0
455.05,73.0
455.11,79.0
455.17,92.0
455.24,87.0
455.3,71.0
455.36,66.0
455.43,89.0
455.49,76.0
455.55,75.0
455.62,96.0
455.68,87.0
455.74,98.0
455.8,80.0
455.87,99.0
455.93,81.0
455.99,96.0
456.06,107.0
456.12,98.0
456.18,114.0
456.25,101.0
456.31,95.0
456.37,116.0
456.43,120.0
456.5,94.0
456.56,110.0
456.62,108.0
456.69,102.0
456.75,93.0
456.81,121.0
456.88,129.0
456.94,102.0
457.0,141.0
457.06,127.0
457.13,120.0
457.19,122.0
457.25,130.0
457.32,144.0
457.38,139.0
457.44,163.0
457.51,148.0
457.57,128.0
457.63,147.0
457.69,182.0
457.76,155.0
457.82,142.0
457.88,139.0
457.95,168.0
458.01,166.0
458.07,157.0
458.14,169.0
458.2,161.0
458.26,167.0
458.32,167.0
458.39,174.0
458.45,166.0
458.51,165.0
458.58,179.0
458.64,176.0
458.7,170.0
458.77,168.0
458.83,168.0
458.89,180.0
458.95,190.0
459.02,192.0
459.08,179.0
459.14,202.0
459.21,199.0
459.27,193.0
459.33,167.0
459.4,190.0
459.46,199.0
459.52,196.0
459.58,183.0
459.65,200.0
459.71,187.0
459.77,199.0
459.84,191.0
459.9,176.0
459.96,185.0
460.03,182.0
460.09,169.0
460.15,168.0
460.21,172.0
460.28,174.0
460.34,191.0
460.4,180.0
460.47,168.0
460.53,188.0
460.59,176.0
460.66,175.0
460.72,181.0
460.78,174.0
460.84,196.0
460.91,183.0
460.97,183.0
461.03,174.0
461.1,168.0
461.16,180.0
461.22,169.0
461.29,166.0
461.35,164.0
461.41,158.0
461.47,153.0
461.54,143.0
461.6,168.0
461.66,133.0
461.73,154.0
461.79,147.0
461.85,136.0
461.92,150.0
461.98,139.0
462.04,136.0
462.1,136.0
462.17,132.0
462.23,132.0
462.29,143.0
462.36,151.0
462.42,134.0
462.48,132.0
462.55,140.0
462.61,132.0
462.67,112.0
462.73,132.0
462.8,135.0
462.86,111.0
462.92,129.0
462.99,132.0
463.05,122.0
463.11,120.0
463.18,136.0
463.24,121.0
463.3,146.0
463.36,106.0
463.43,100.0
463.49,94.0
463.55,80.0
463.62,87.0
463.68,82.0
463.74,84.0
463.81,76.0
463.87,92.0
463.93,89.0
463.99,79.0
464.06,87.0
464.12,88.0
464.18,89.0
464.25,106.0
464.31,97.0
464.37,85.0
464.44,93.0
464.5,82.0
464.56,113.0
464.62,102.0
464.69,95.0
464.75,83.0
464.81,104.0
464.88,102.0
464.94,102.0
465.0,100.0
465.07,99.0
465.13,92.0
465.19,95.0
465.25,101.0
465.32,102.0
465.38,102.0
465.44,92.0
465.51,67.0
465.57,98.0
465.63,79.0
465.7,86.0
465.76,78.0
465.82,82.0
465.88,88.0
465.95,83.0
466.01,83.0
466.07,89.0
466.14,83.0
466.2,81.0
466.26,97.0
466.33,107.0
466.39,105.0
466.45,114.0
466.51,107.0
466.58,109.0
466.64,115.0
466.7,98.0
466.77,102.0
466.83,113.0
466.89,92.0
466.96,93.0
467.02,97.0
467.08,95.0
467.14,95.0
467.21,97.0
467.27,92.0
467.33,89.0
467.4,89.0
467.46,102.0
467.52,97.0
467.59,83.0
467.65,81.0
467.71,91.0
467.77,88.0
467.84,95.0
467.9,97.0
467.96,83.0
468.03,74.0
468.09,81.0
468.15,77.0
468.22,81.0
468.28,77.0
468.34,86.0
468.4,98.0
468.47,81.0
468.53,69.0
468.59,93.0
468.66,69.0
468.72,57.0
468.78,76.0
468.85,71.0
468.91,72.0
468.97,72.0
469.03,75.0
469.1,62.0
469.16,49.0
469.22,65.0
469.29,73.0
469.35,59.0
469.41,63.0
469.48,55.0
469.54,43.0
469.6,43.0
469.66,55.0
469.73,66.0
469.79,61.0
469.85,67.0
469.92,74.0
469.98,64.0
470.04,48.0
470.11,73.0
470.17,74.0
470.23,74.0
470.29,80.0
470.36,69.0
470.42,70.0
470.48,65.0
470.55,51.0
470.61,44.0
470.67,64.0
470.74,64.0
470.8,56.0
470.86,62.0
470.92,52.0
470.99,55.0
471.05,50.0
471.11,39.0
471.18,58.0
471.24,65.0
471.3,69.0
471.37,66.0
471.43,66.0
471.49,64.0
471.55,58.0
471.62,67.0
471.68,68.0
471.74,70.0
471.81,75.0
471.87,80.0
471.93,62.0
472.0,77.0
472.06,68.0
472.12,73.0
472.18,80.0
472.25,80.0
472.31,84.0
472.37,89.0
472.44,103.0
472.5,78.0
472.56,87.0
472.63,93.0
472.69,76.0
472.75,81.0
472.81,92.0
472.88,98.0
472.94,91.0
473.0,73.0
473.07,86.0
473.13,78.0
473.19,79.0
473.26,89.0
473.32,77.0
473.38,90.0
473.44,74.0
473.51,109.0
473.57,102.0
473.63,106.0
473.7,109.0
473.76,102.0
473.82,105.0
473.89,128.0
473.95,108.0
474.01,118.0
474.07,124.0
474.14,130.0
474.2,143.0
474.26,128.0
474.33,124.0
474.39,136.0
474.45,146.0
474.52,118.0
474.58,113.0
474.64,105.0
474.7,106.0
474.77,103.0
474.83,111.0
474.89,114.0
474.96,121.0
475.02,128.0
475.08,121.0
475.15,121.0
475.21,110.0
475.27,106.0
475.33,112.0
475.4,111.0
475.46,93.0
475.52,92.0
475.59,84.0
475.65,105.0
475.71,106.0
475.78,102.0
475.84,109.0
475.9,119.0
475.96,119.0
476.03,119.0
476.09,121.0
476.15,117.0
476.22,131.0
476.28,113.0
476.34,125.0
476.41,114.0
476.47,130.0
476.53,145.0
476.59,135.0
476.66,133.0
476.72,139.0
476.78,129.0
476.85,112.0
476.91,132.0
476.97,132.0
477.04,124.0
477.1,132.0
477.16,153.0
477.22,123.0
477.29,130.0
477.35,113.0
477.41,139.0
477.48,150.0
477.54,161.0
477.6,154.0
477.67,155.0
477.73,151.0
477.79,139.0
477.85,148.0
477.92,147.0
477.98,140.0
478.04,143.0
478.11,127.0
478.17,133.0
478.23,125.0
478.3,135.0
478.36,120.0
478.42,117.0
478.48,117.0
478.55,105.0
478.61,109.0
478.67,89.0
478.74,89.0
478.8,95.0
478.86,73.0
478.93,82.0
478.99,69.0
479.05,66.0
479.11,48.0
479.18,87.0
479.24,74.0
479.3,84.0
479.37,87.0
479.43,88.0
479.49,94.0
479.56,91.0
479.62,97.0
479.68,88.0
479.74,83.0
479.81,80.0
479.87,68.0
479.93,93.0
480.0,98.0
480.06,110.0
480.12,107.0
480.19,88.0
480.25,114.0
480.31,81.0
480.37,76.0
480.44,83.0
480.5,70.0
480.56,77.0
480.63,82.0
480.69,88.0
480.75,79.0
480.82,94.0
480.88,104.0
480.94,81.0
481.0,82.0
481.07,103.0
481.13,109.0
481.19,116.0
481.26,104.0
481.32,108.0
481.38,105.0
481.45,104.0
481.51,70.0
481.57,105.0
481.63,109.0
481.7,102.0
481.76,91.0
481.82,106.0
481.89,106.0
481.95,132.0
482.01,130.0
482.08,117.0
482.14,98.0
482.2,113.0
482.26,113.0
482.33,98.0
482.39,105.0
482.45,102.0
482.52,114.0
482.58,113.0
482.64,95.0
482.71,105.0
482.77,87.0
482.83,89.0
482.89,102.0
482.96,105.0
483.02,89.0
483.08,83.0
483.15,102.0
483.21,103.0
483.27,92.0
483.34,95.0
483.4,122.0
483.46,119.0
483.52,89.0
483.59,99.0
483.65,126.0
483.71,106.0
483.78,96.0
483.84,102.0
483.9,117.0
483.97,122.0
484.03,131.0
484.09,109.0
484.15,117.0
484.22,116.0
484.28,107.0
484.34,110.0
484.41,111.0
484.47,119.0
484.53,103.0
484.6,128.0
484.66,134.0
484.72,115.0
484.78,117.0
484.85,105.0
484.91,95.0
484.97,94.0
485.04,94.0
485.1,92.0
485.16,92.0
485.23,91.0
485.29,78.0
485.35,73.0
485.41,89.0
485.48,101.0
485.54,95.0
485.6,84.0
485.67,95.0
485.73,91.0
485.79,76.0
485.86,76.0
485.92,88.0
485.98,97.0
486.04,75.0
486.11,86.0
486.17,98.0
486.23,98.0
486.3,86.0
486.36,88.0
486.42,95.0
486.49,105.0
486.55,97.0
486.61,81.0
486.67,92.0
486.74,96.0
486.8,92.0
486.86,86.0
486.93,99.0
486.99,69.0
487.05,84.0
487.12,86.0
487.18,68.0
487.24,73.0
487.3,66.0
487.37,77.0
487.43,63.0
487.49,58.0
487.56,84.0
487.62,100.0
487.68,98.0
487.75,89.0
487.81,78.0
487.87,101.0
487.93,95.0
488.0,91.0
488.06,88.0
488.12,80.0
488.19,85.0
488.25,78.0
488.31,93.0
488.38,79.0
488.44,90.0
488.5,72.0
488.56,85.0
488.63,89.0
488.69,100.0
488.75,89.0
488.82,88.0
488.88,65.0
488.94,75.0
489.01,103.0
489.07,89.0
489.13,95.0
489.19,87.0
489.26,83.0
489.32,81.0
489.38,64.0
489.45,84.0
489.51,66.0
489.57,62.0
489.64,82.0
489.7,69.0
489.76,68.0
489.82,67.0
489.89,81.0
489.95,91.0
490.01,74.0
490.08,107.0
490.14,103.0
490.2,85.0
490.27,109.0
490.33,105.0
490.39,103.0
490.45,111.0
490.52,79.0
490.58,85.0
490.64,75.0
490.71,73.0
490.77,94.0
490.83,111.0
490.9,99.0
490.96,122.0
491.02,116.0
491.08,121.0
491.15,120.0
491.21,120.0
491.27,129.0
491.34,108.0
491.4,116.0
491.46,131.0
491.53,136.0
491.59,140.0
491.65,143.0
491.71,143.0
491.78,150.0
491.84,156.0
491.9,146.0
491.97,164.0
492.03,172.0
492.09,183.0
492.16,166.0
492.22,168.0
492.28,147.0
492.34,149.0
492.41,154.0
492.47,154.0
492.53,154.0
492.6,153.0
492.66,153.0
492.72,147.0
492.79,142.0
492.85,146.0
492.91,150.0
492.97,155.0
493.04,161.0
493.1,152.0
493.16,133.0
493.23,144.0
493.29,154.0
493.35,142.0
493.42,169.0
493.48,166.0
493.54,195.0
493.6,165.0
493.67,152.0
493.73,155.0
493.79,139.0
493.86,148.0
493.92,168.0
493.98,150.0
494.05,180.0
494.11,170.0
494.17,132.0
494.23,158.0
494.3,150.0
494.36,146.0
494.42,161.0
494.49,157.0
494.55,166.0
494.61,157.0
494.68,142.0
494.74,137.0
494.8,146.0
494.86,135.0
494.93,138.0
494.99,133.0
495.05,142.0
495.12,128.0
495.18,155.0
495.24,154.0
495.31,150.0
495.37,138.0
495.43,139.0
495.49,150.0
495.56,161.0
495.62,203.0
495.68,193.0
495.75,190.0
495.81,180.0
495.87,167.0
495.94,168.0
496.0,161.0
496.06,152.0
496.12,161.0
496.19,150.0
496.25,145.0
496.31,158.0
496.38,157.0
496.44,147.0
496.5,163.0
496.57,173.0
496.63,146.0
496.69,146.0
496.75,143.0
496.82,159.0
496.88,151.0
496.94,136.0
497.01,143.0
497.07,149.0
497.13,143.0
497.2,172.0
497.26,174.0
497.32,169.0
497.38,178.0
497.45,161.0
497.51,171.0
497.57,170.0
497.64,176.0
497.7,155.0
497.76,163.0
497.83,180.0
497.89,175.0
497.95,172.0
498.01,170.0
498.08,157.0
498.14,154.0
498.2,157.0
498.27,135.0
498.33,150.0
498.39,172.0
498.46,166.0
498.52,167.0
498.58,176.0
498.64,182.0
498.71,176.0
498.77,166.0
498.83,194.0
498.9,164.0
498.96,168.0
499.02,163.0
499.09,162.0
499.15,178.0
499.21,178.0
499.27,179.0
499.34,157.0
499.4,196.0
499.46,183.0
499.53,157.0
499.59,186.0
499.65,168.0
499.72,199.0
499.78,174.0
499.84,181.0
499.9,202.0
499.97,190.0
500.03,196.0
500.09,194.0
500.16,194.0
500.22,196.0
500.28,201.0
500.35,209.0
500.41,189.0
500.47,196.0
500.53,193.0
500.6,170.0
500.66,180.0
500.72,192.0
500.79,180.0
500.85,169.0
500.91,171.0
500.98,172.0
501.04,155.0
501.1,157.0
501.16,171.0
501.23,185.0
501.29,163.0
501.35,179.0
501.42,192.0
501.48,170.0
501.54,170.0
501.61,174.0
501.67,181.0
501.73,165.0
501.79,166.0
501.86,167.0
501.92,154.0
501.98,139.0
502.05,142.0
502.11,153.0
502.17,155.0
502.24,143.0
502.3,152.0
502.36,133.0
502.42,143.0
502.49,149.0
502.55,137.0
502.61,130.0
502.68,141.0
502.74,135.0
502.8,133.0
502.87,135.0
502.93,142.0
502.99,122.0
503.05,125.0
503.12,158.0
503.18,150.0
503.24,131.0
503.31,145.0
503.37,154.0
503.43,144.0
503.5,139.0
503.56,125.0
503.62,120.0
503.68,124.0
503.75,132.0
503.81,106.0
503.87,100.0
503.94,100.0
504.0,115.0
504.06,102.0
504.13,84.0
504.19,118.0
504.25,127.0
504.31,102.0
504.38,111.0
504.44,109.0
504.5,87.0
504.57,108.0
504.63,125.0
504.69,116.0
504.76,124.0
504.82,129.0
504.88,126.0
504.94,124.0
505.01,148.0
505.07,142.0
505.13,124.0
505.2,148.0
505.26,156.0
505.32,129.0
505.39,124.0
505.45,133.0
505.51,126.0
505.57,139.0
505.64,116.0
505.7,123.0
505.76,117.0
505.83,115.0
505.89,111.0
505.95,113.0
506.02,124.0
506.08,123.0
506.14,133.0
506.2,121.0
506.27,105.0
506.33,127.0
506.39,109.0
506.46,127.0
506.52,129.0
506.58,116.0
506.65,117.0
506.71,128.0
506.77,130.0
506.83,150.0
506.9,149.0
506.96,139.0
507.02,151.0
507.09,145.0
507.15,122.0
507.21,109.0
507.28,125.0
507.34,135.0
507.4,136.0
507.46,129.0
507.53,119.0
507.59,125.0
507.65,131.0
507.72,114.0
507.78,123.0
507.84,117.0
507.91,136.0
507.97,145.0
508.03,128.0
508.09,141.0
508.16,149.0
508.22,119.0
508.28,127.0
508.35,134.0
508.41,145.0
508.47,137.0
508.54,149.0
508.6,146.0
508.66,133.0
508.72,137.0
508.79,122.0
508.85,144.0
508.91,138.0
508.98,143.0
509.04,144.0
509.1,135.0
509.17,149.0
509.23,139.0
509.29,134.0
509.35,121.0
509.42,135.0
509.48,130.0
509.54,114.0
509.61,134.0
509.67,137.0
509.73,123.0
509.8,133.0
509.86,137.0
509.92,147.0
509.98,145.0
510.05,125.0
510.11,136.0
510.17,136.0
510.24,120.0
510.3,142.0
510.36,156.0
510.43,147.0
510.49,157.0
510.55,154.0
510.61,150.0
510.68,160.0
510.74,145.0
510.8,148.0
510.87,144.0
510.93,153.0
510.99,160.0
511.06,164.0
511.12,144.0
511.18,146.0
511.24,133.0
511.31,136.0
511.37,133.0
511.43,136.0
511.5,131.0
511.56,132.0
511.62,133.0
511.69,130.0
511.75,144.0
511.81,122.0
511.87,118.0
511.94,131.0
512.0,143.0
512.06,134.0
512.13,141.0
512.19,120.0
512.25,134.0
512.32,130.0
512.38,120.0
512.44,97.0
512.5,115.0
512.57,127.0
512.63,115.0
512.69,114.0
512.76,98.0
512.82,97.0
512.88,96.0
512.95,97.0
513.01,115.0
513.07,105.0
513.13,106.0
513.2,114.0
513.26,139.0
513.32,135.0
513.39,136.0
513.45,146.0
513.51,144.0
513.58,132.0
513.64,150.0
513.7,128.0
513.76,157.0
513.83,135.0
513.89,142.0
513.95,157.0
514.02,145.0
514.08,133.0
514.14,112.0
514.21,125.0
514.27,119.0
514.33,130.0
514.39,127.0
514.46,126.0
514.52,107.0
514.58,91.0
514.65,106.0
514.71,105.0
514.77,114.0
514.84,99.0
514.9,108.0
514.96,134.0
515.02,141.0
515.09,130.0
515.15,126.0
515.21,130.0
515.28,131.0
515.34,106.0
515.4,115.0
515.47,122.0
515.53,107.0
515.59,115.0
515.65,120.0
515.72,90.0
515.78,77.0
515.84,83.0
515.91,93.0
515.97,89.0
516.03,97.0
516.1,100.0
516.16,83.0
516.22,81.0
516.28,82.0
516.35,92.0
516.41,87.0
516.47,77.0
516.54,75.0
516.6,64.0
516.66,67.0
516.73,67.0
516.79,50.0
516.85,78.0
516.91,79.0
516.98,86.0
517.04,78.0
517.1,85.0
517.17,94.0
517.23,95.0
517.29,103.0
517.36,91.0
517.42,92.0
517.48,84.0
517.54,95.0
517.61,94.0
517.67,77.0
517.73,89.0
517.8,113.0
517.86,103.0
517.92,99.0
517.99,95.0
518.05,100.0
518.11,89.0
518.17,92.0
518.24,90.0
518.3,80.0
518.36,87.0
518.43,88.0
518.49,92.0
518.55,102.0
518.62,92.0
518.68,89.0
518.74,73.0
518.8,77.0
518.87,102.0
518.93,83.0
518.99,99.0
519.06,92.0
519.12,95.0
519.18,114.0
519.25,92.0
519.31,102.0
519.37,86.0
519.43,102.0
519.5,88.0
519.56,75.0
519.62,88.0
519.69,76.0
519.75,80.0
519.81,55.0
519.88,65.0
519.94,69.0
520.0,59.0
520.06,48.0
520.13,53.0
520.19,66.0
520.25,65.0
520.32,66.0
520.38,75.0
520.44,58.0
520.51,67.0
520.57,72.0
520.63,66.0
520.69,83.0
520.76,82.0
520.82,79.0
520.88,70.0
520.95,79.0
521.01,67.0
521.07,66.0
521.14,74.0
521.2,61.0
521.26,51.0
521.32,72.0
521.39,81.0
521.45,69.0
521.51,69.0
521.58,82.0
521.64,83.0
521.7,80.0
521.77,81.0
521.83,80.0
521.89,72.0
521.95,66.0
522.02,71.0
522.08,51.0
522.14,53.0
522.21,78.0
522.27,73.0
522.33,73.0
522.4,69.0
522.46,66.0
522.52,68.0
522.58,60.0
522.65,59.0
522.71,47.0
522.77,64.0
522.84,67.0
522.9,69.0
522.96,59.0
523.03,76.0
523.09,60.0
523.15,65.0
523.21,76.0
523.28,77.0
523.34,84.0
523.4,88.0
523.47,88.0
523.53,97.0
523.59,92.0
523.66,70.0
523.72,66.0
523.78,73.0
523.84,84.0
523.91,75.0
523.97,98.0
524.03,84.0
524.1,76.0
524.16,95.0
524.22,92.0
524.29,97.0
524.35,111.0
524.41,107.0
524.47,103.0
524.54,117.0
524.6,112.0
524.66,107.0
524.73,128.0
524.79,106.0
524.85,101.0
524.92,102.0
524.98,117.0
525.04,98.0
525.1,103.0
525.17,104.0
525.23,103.0
525.29,106.0
525.36,111.0
525.42,119.0
525.48,106.0
525.55,132.0
525.61,108.0
525.67,124.0
525.73,134.0
525.8,130.0
525.86,130.0
525.92,130.0
525.99,161.0
526.05,150.0
526.11,147.0
526.18,149.0
526.24,155.0
526.3,163.0
526.36,141.0
526.43,145.0
526.49,146.0
526.55,130.0
526.62,122.0
526.68,128.0
526.74,137.0
526.81,123.0
526.87,109.0
526.93,105.0
526.99,127.0
527.06,95.0
527.12,88.0
527.18,95.0
527.25,96.0
527.31,105.0
527.37,91.0
527.44,89.0
527.5,93.0
527.56,86.0
527.62,93.0
527.69,107.0
527.75,97.0
527.81,93.0
527.88,93.0
527.94,78.0
528.0,70.0
528.07,95.0
528.13,89.0
528.19,84.0
528.25,73.0
528.32,76.0
528.38,92.0
528.44,86.0
528.51,72.0
528.57,83.0
528.63,77.0
528.7,89.0
528.76,76.0
528.82,61.0
528.88,69.0
528.95,80.0
529.01,70.0
529.07,101.0
529.14,103.0
529.2,112.0
529.26,89.0
529.33,106.0
529.39,85.0
529.45,89.0
529.51,111.0
529.58,113.0
529.64,111.0
529.7,88.0
529.77,85.0
529.83,67.0
529.89,74.0
529.96,66.0
530.02,47.0
530.08,57.0
530.14,67.0
530.21,58.0
530.27,64.0
530.33,58.0
530.4,64.0
530.46,72.0
530.52,70.0
530.59,76.0
530.65,78.0
530.71,70.0
530.77,76.0
530.84,85.0
530.9,75.0
530.96,108.0
531.03,97.0
531.09,95.0
531.15,98.0
531.22,108.0
531.28,98.0
531.34,50.0
531.4,73.0
531.47,73.0
531.53,122.0
531.59,94.0
531.66,103.0
531.72,94.0
531.78,90.0
531.85,89.0
531.91,92.0
531.97,104.0
532.03,100.0
532.1,121.0
532.16,105.0
532.22,90.0
532.29,120.0
532.35,115.0
532.41,104.0
532.48,103.0
532.54,108.0
532.6,100.0
532.66,104.0
532.73,98.0
532.79,124.0
532.85,121.0
532.92,118.0
532.98,121.0
533.04,123.0
533.11,128.0
533.17,146.0
533.23,114.0
533.29,108.0
533.36,128.0
533.42,108.0
533.48,128.0
533.55,124.0
533.61,130.0
533.67,112.0
533.74,112.0
533.8,110.0
533.86,119.0
533.92,113.0
533.99,109.0
534.05,100.0
534.11,104.0
534.18,123.0
534.24,123.0
534.3,120.0
534.37,113.0
534.43,129.0
534.49,138.0
534.55,123.0
534.62,130.0
534.68,133.0
534.74,124.0
534.81,130.0
534.87,102.0
534.93,127.0
535.0,144.0
535.06,140.0
535.12,113.0
535.18,119.0
535.25,118.0
535.31,135.0
535.37,120.0
535.44,117.0
535.5,146.0
535.56,124.0
535.63,126.0
535.69,114.0
535.75,114.0
535.81,106.0
535.88,119.0
535.94,112.0
536.0,115.0
536.07,128.0
536.13,130.0
536.19,106.0
536.26,103.0
536.32,117.0
536.38,118.0
536.44,130.0
536.51,134.0
536.57,129.0
536.63,130.0
536.7,136.0
536.76,143.0
536.82,142.0
536.89,124.0
536.95,139.0
537.01,148.0
537.07,160.0
537.14,136.0
537.2,105.0
537.26,108.0
537.33,120.0
537.39,115.0
537.45,118.0
537.52,121.0
537.58,109.0
537.64,111.0
537.7,105.0
537.77,106.0
537.83,111.0
537.89,111.0
537.96,114.0
538.02,119.0
538.08,108.0
538.15,128.0
538.21,120.0
538.27,126.0
538.33,109.0
538.4,113.0
538.46,139.0
538.52,144.0
538.59,119.0
538.65,98.0
538.71,121.0
538.78,105.0
538.84,102.0
538.9,119.0
538.96,115.0
539.03,128.0
539.09,124.0
539.15,127.0
539.22,145.0
539.28,142.0
539.34,137.0
539.41,150.0
539.47,151.0
539.53,143.0
539.59,143.0
539.66,135.0
539.72,135.0
539.78,150.0
539.85,138.0
539.91,158.0
539.97,161.0
540.04,158.0
540.1,176.0
540.16,172.0
540.22,162.0
540.29,158.0
540.35,150.0
540.41,147.0
540.48,157.0
540.54,153.0
540.6,152.0
540.67,150.0
540.73,163.0
540.79,147.0
540.85,149.0
540.92,157.0
540.98,149.0
541.04,162.0
541.11,160.0
541.17,149.0
541.23,153.0
541.3,128.0
541.36,160.0
541.42,148.0
541.48,142.0
541.55,149.0
541.61,134.0
541.67,135.0
541.74,147.0
541.8,143.0
541.86,141.0
541.93,137.0
541.99,152.0
542.05,157.0
542.11,164.0
542.18,175.0
542.24,154.0
542.3,159.0
542.37,168.0
542.43,164.0
542.49,155.0
542.56,153.0
542.62,156.0
542.68,166.0
542.74,152.0
542.81,158.0
542.87,166.0
542.93,156.0
543.0,149.0
543.06,136.0
543.12,133.0
543.19,130.0
543.25,131.0
543.31,146.0
543.37,142.0
543.44,143.0
543.5,154.0
543.56,163.0
543.63,152.0
543.69,149.0
543.75,147.0
543.82,132.0
543.88,130.0
543.94,142.0
544.0,133.0
544.07,136.0
544.13,102.0
544.19,98.0
544.26,102.0
544.32,94.0
544.38,109.0
544.45,103.0
544.51,92.0
544.57,92.0
544.63,92.0
544.7,84.0
544.76,92.0
544.82,100.0
544.89,81.0
544.95,106.0
545.01,90.0
545.08,91.0
545.14,109.0
545.2,86.0
545.26,117.0
545.33,86.0
545.39,102.0
545.45,98.0
545.52,97.0
545.58,102.0
545.64,102.0
545.71,95.0
545.77,85.0
545.83,73.0
545.89,69.0
545.96,80.0
546.02,78.0
546.08,74.0
546.15,71.0
546.21,62.0
546.27,68.0
546.34,73.0
546.4,90.0
546.46,64.0
546.52,69.0
546.59,49.0
546.65,70.0
546.71,70.0
546.78,58.0
546.84,44.0
546.9,48.0
546.97,44.0
547.03,40.0
547.09,54.0
547.15,39.0
547.22,41.0
547.28,51.0
547.34,63.0
547.41,77.0
547.47,69.0
547.53,59.0
547.6,67.0
547.66,56.0
547.72,66.0
547.78,51.0
547.85,62.0
547.91,73.0
547.97,81.0
548.04,74.0
548.1,51.0
548.16,49.0
548.23,66.0
548.29,70.0
548.35,47.0
548.41,53.0
548.48,58.0
548.54,45.0
548.6,31.0
548.67,45.0
548.73,45.0
548.79,26.0
548.86,50.0
548.92,47.0
548.98,58.0
549.04,83.0
549.11,68.0
549.17,72.0
549.23,79.0
549.3,75.0
549.36,84.0
549.42,70.0
549.49,56.0
549.55,69.0
549.61,66.0
549.67,73.0
549.74,65.0
549.8,77.0
549.86,85.0
549.93,74.0
549.99,86.0
550.05,75.0
550.12,86.0
550.18,76.0
550.24,91.0
550.3,65.0
550.37,50.0
550.43,57.0
550.49,69.0
550.56,55.0
550.62,68.0
550.68,56.0
550.75,75.0
550.81,91.0
550.87,88.0
550.93,82.0
551.0,81.0
551.06,95.0
551.12,108.0
551.19,117.0
551.25,116.0
551.31,128.0
551.38,130.0
551.44,100.0
551.5,86.0
551.56,80.0
551.63,62.0
551.69,71.0
551.75,83.0
551.82,85.0
551.88,84.0
551.94,76.0
552.01,65.0
552.07,65.0
552.13,84.0
552.19,67.0
552.26,86.0
552.32,100.0
552.38,88.0
552.45,87.0
552.51,97.0
552.57,87.0
552.64,99.0
552.7,92.0
552.76,86.0
552.82,76.0
552.89,93.0
552.95,102.0
553.01,95.0
553.08,89.0
553.14,94.0
553.2,100.0
553.27,99.0
553.33,76.0
553.39,108.0
553.45,116.0
553.52,109.0
553.58,105.0
553.64,119.0
553.71,135.0
553.77,123.0
553.83,126.0
553.9,118.0
553.96,105.0
554.02,139.0
554.08,142.0
554.15,127.0
554.21,107.0
554.27,101.0
554.34,118.0
554.4,100.0
554.46,119.0
554.53,124.0
554.59,124.0
554.65,139.0
554.71,144.0
554.78,160.0
554.84,139.0
554.9,130.0
554.97,153.0
555.03,145.0
555.09,128.0
555.16,138.0
555.22,143.0
555.28,146.0
555.34,141.0
555.41,147.0
555.47,136.0
555.53,166.0
555.6,162.0
555.66,151.0
555.72,156.0
555.79,178.0
555.85,186.0
555.91,181.0
555.97,173.0
556.04,164.0
556.1,171.0
556.16,165.0
556.23,185.0
556.29,188.0
556.35,172.0
556.42,159.0
556.48,169.0
556.54,179.0
556.6,193.0
556.67,195.0
556.73,205.0
556.79,188.0
556.86,184.0
556.92,183.0
556.98,178.0
557.05,177.0
557.11,170.0
557.17,191.0
557.23,178.0
557.3,191.0
557.36,191.0
557.42,179.0
557.49,193.0
557.55,195.0
557.61,207.0
557.68,202.0
557.74,202.0
557.8,214.0
557.86,202.0
557.93,218.0
557.99,212.0
558.05,197.0
558.12,188.0
558.18,181.0
558.24,202.0
558.31,198.0
558.37,196.0
558.43,208.0
558.49,211.0
558.56,206.0
558.62,195.0
558.68,226.0
558.75,226.0
558.81,226.0
558.87,237.0
558.94,213.0
559.0,231.0
559.06,237.0
559.12,244.0
559.19,241.0
559.25,253.0
559.31,270.0
559.38,268.0
559.44,269.0
559.5,275.0
559.57,274.0
559.63,259.0
559.69,258.0
559.75,246.0
559.82,230.0
559.88,254.0
559.94,245.0
560.01,249.0
560.07,231.0
560.13,222.0
560.2,227.0
560.26,216.0
560.32,213.0
560.38,206.0
560.45,216.0
560.51,214.0
560.57,221.0
560.64,212.0
560.7,217.0
560.76,224.0
560.83,242.0
560.89,241.0
560.95,209.0
561.01,209.0
561.08,200.0
561.14,221.0
561.2,197.0
561.27,205.0
561.33,220.0
561.39,214.0
561.46,214.0
561.52,208.0
561.58,224.0
561.64,216.0
561.71,210.0
561.77,213.0
561.83,212.0
561.9,227.0
561.96,205.0
562.02,185.0
562.09,217.0
562.15,202.0
562.21,220.0
562.27,213.0
562.34,227.0
562.4,221.0
562.46,213.0
562.53,213.0
562.59,207.0
562.65,217.0
562.72,208.0
562.78,197.0
562.84,201.0
562.9,194.0
562.97,218.0
563.03,214.0
563.09,202.0
563.16,184.0
563.22,186.0
563.28,191.0
563.35,189.0
563.41,172.0
563.47,156.0
563.53,153.0
563.6,146.0
563.66,134.0
563.72,130.0
563.79,143.0
563.85,139.0
563.91,122.0
563.98,129.0
564.04,120.0
564.1,111.0
564.16,97.0
564.23,91.0
564.29,111.0
564.35,95.0
564.42,100.0
564.48,125.0
564.54,117.0
564.61,117.0
564.67,111.0
564.73,100.0
564.79,103.0
564.86,113.0
564.92,117.0
564.98,130.0
565.05,128.0
565.11,128.0
565.17,121.0
565.24,104.0
565.3,115.0
565.36,112.0
565.42,119.0
565.49,122.0
565.55,116.0
565.61,117.0
565.68,126.0
565.74,110.0
565.8,107.0
565.87,116.0
565.93,106.0
565.99,99.0
566.05,97.0
566.12,92.0
566.18,102.0
566.24,96.0
566.31,81.0
566.37,88.0
566.43,87.0
566.5,70.0
566.56,99.0
566.62,86.0
566.68,92.0
566.75,88.0
566.81,73.0
566.87,69.0
566.94,67.0
567.0,62.0
567.06,58.0
567.13,61.0
567.19,54.0
567.25,66.0
567.31,69.0
567.38,40.0
567.44,36.0
567.5,29.0
567.57,40.0
567.63,41.0
567.69,34.0
567.76,40.0
567.82,11.0
567.88,28.0
567.94,45.0
568.01,46.0
568.07,39.0
568.13,29.0
568.2,36.0
568.26,49.0
568.32,36.0
568.39,36.0
568.45,55.0
568.51,47.0
568.57,45.0
568.64,49.0
568.7,55.0
568.76,42.0
568.83,26.0
568.89,34.0
568.95,59.0
569.02,37.0
569.08,36.0
569.14,32.0
569.2,35.0
569.27,41.0
569.33,51.0
569.39,34.0
569.46,37.0
569.52,40.0
569.58,33.0
569.65,33.0
569.71,23.0
569.77,42.0
569.83,21.0
569.9,25.0
569.96,5.0
570.02,25.0
570.09,42.0
570.15,49.0
570.21,43.0
570.28,42.0
570.34,44.0
570.4,41.0
570.46,36.0
570.53,42.0
570.59,58.0
570.65,25.0
570.72,11.0
570.78,11.0
570.84,19.0
570.91,19.0
570.97,31.0
571.03,44.0
571.09,25.0
571.16,26.0
571.22,19.0
571.28,29.0
571.35,19.0
571.41,46.0
571.47,43.0
571.54,34.0
571.6,18.0
571.66,17.0
571.72,32.0
571.79,20.0
571.85,32.0
571.91,29.0
571.98,34.0
572.04,52.0
572.1,32.0
572.17,50.0
572.23,51.0
572.29,55.0
572.35,55.0
572.42,61.0
572.48,70.0
572.54,61.0
572.61,86.0
572.67,60.0
572.73,73.0
572.8,66.0
572.86,54.0
572.92,69.0
572.98,82.0
573.05,63.0
573.11,61.0
573.17,56.0
573.24,70.0
573.3,80.0
573.36,63.0
573.43,70.0
573.49,80.0
573.55,88.0
573.61,88.0
573.68,99.0
573.74,111.0
573.8,113.0
573.87,123.0
573.93,124.0
573.99,114.0
574.06,130.0
574.12,104.0
574.18,124.0
574.24,137.0
574.31,127.0
574.37,148.0
574.43,144.0
574.5,142.0
574.56,131.0
574.62,143.0
574.69,142.0
574.75,125.0
574.81,119.0
574.87,125.0
574.94,128.0
575.0,110.0
575.06,125.0
575.13,124.0
575.19,131.0
575.25,135.0
575.32,128.0
575.38,144.0
575.44,138.0
575.5,109.0
575.57,126.0
575.63,140.0
575.69,129.0
575.76,128.0
575.82,132.0
575.88,149.0
575.95,151.0
576.01,158.0
576.07,165.0
576.13,146.0
576.2,150.0
576.26,162.0
576.32,168.0
576.39,175.0
576.45,171.0
576.51,179.0
576.58,173.0
576.64,193.0
576.7,178.0
576.76,185.0
576.83,168.0
576.89,164.0
576.95,175.0
577.02,186.0
577.08,190.0
577.14,201.0
577.21,208.0
577.27,190.0
577.33,195.0
577.39,194.0
577.46,183.0
577.52,157.0
577.58,155.0
577.65,166.0
577.71,182.0
577.77,177.0
577.84,157.0
577.9,179.0
577.96,191.0
578.02,186.0
578.09,178.0
578.15,182.0
578.21,164.0
578.28,165.0
578.34,157.0
578.4,163.0
578.47,164.0
578.53,167.0
578.59,168.0
578.65,168.0
578.72,155.0
578.78,157.0
578.84,170.0
578.91,168.0
578.97,181.0
579.03,161.0
579.1,161.0
579.16,166.0
579.22,162.0
579.28,169.0
579.35,153.0
579.41,159.0
579.47,163.0
579.54,157.0
579.6,161.0
579.66,160.0
579.73,154.0
579.79,171.0
579.85,153.0
579.91,166.0
579.98,168.0
580.04,158.0
580.1,159.0
580.17,177.0
580.23,176.0
580.29,195.0
580.36,194.0
580.42,174.0
580.48,186.0
580.54,200.0
580.61,188.0
580.67,167.0
580.73,178.0
580.8,179.0
580.86,171.0
580.92,180.0
580.99,189.0
581.05,188.0
581.11,187.0
581.17,193.0
581.24,191.0
581.3,188.0
581.36,177.0
581.43,153.0
581.49,187.0
581.55,186.0
581.62,173.0
581.68,168.0
581.74,168.0
581.8,167.0
581.87,172.0
581.93,152.0
581.99,146.0
582.06,159.0
582.12,175.0
582.18,170.0
582.25,168.0
582.31,176.0
582.37,150.0
582.43,155.0
582.5,160.0
582.56,157.0
582.62,157.0
582.69,153.0
582.75,168.0
582.81,167.0
582.88,152.0
582.94,154.0
583.0,154.0
583.06,137.0
583.13,149.0
583.19,130.0
583.25,129.0
583.32,138.0
583.38,111.0
583.44,114.0
583.51,127.0
583.57,120.0
583.63,125.0
583.69,105.0
583.76,120.0
583.82,114.0
583.88,97.0
583.95,96.0
584.01,91.0
584.07,83.0
584.14,72.0
584.2,59.0
584.26,73.0
584.32,65.0
584.39,83.0
584.45,91.0
584.51,77.0
584.58,66.0
584.64,88.0
584.7,73.0
584.77,80.0
584.83,65.0
584.89,48.0
584.95,49.0
585.02,34.0
585.08,61.0
585.14,64.0
585.21,55.0
585.27,61.0
585.33,36.0
585.4,43.0
585.46,37.0
585.52,34.0
585.58,52.0
585.65,62.0
585.71,58.0
585.77,42.0
585.84,56.0
585.9,43.0
585.96,26.0
586.03,44.0
586.09,37.0
586.15,46.0
586.21,51.0
586.28,50.0
586.34,43.0
586.4,39.0
586.47,47.0
586.53,54.0
586.59,34.0
586.66,29.0
586.72,27.0
586.78,32.0
586.84,34.0
586.91,31.0
586.97,15.0
587.03,32.0
587.1,25.0
587.16,10.0
587.22,23.0
587.29,31.0
587.35,44.0
587.41,58.0
587.47,42.0
587.54,39.0
587.6,28.0
587.66,36.0
587.73,52.0
587.79,40.0
587.85,56.0
587.92,55.0
587.98,60.0
588.04,60.0
588.1,64.0
588.17,57.0
588.23,66.0
588.29,75.0
588.36,59.0
588.42,44.0
588.48,32.0
588.55,29.0
588.61,62.0
588.67,64.0
588.73,49.0
588.8,53.0
588.86,54.0
588.92,39.0
588.99,35.0
589.05,53.0
589.11,33.0
589.18,43.0
589.24,44.0
589.3,48.0
589.36,39.0
589.43,10.0
589.49,31.0
589.55,50.0
589.62,39.0
589.68,38.0
589.74,34.0
589.81,45.0
589.87,32.0
589.93,35.0
589.99,47.0
590.06,55.0
590.12,62.0
590.18,81.0
590.25,53.0
590.31,63.0
590.37,69.0
590.44,66.0
590.5,73.0
590.56,76.0
590.62,74.0
590.69,91.0
590.75,70.0
590.81,81.0
590.88,69.0
590.94,92.0
591.0,87.0
591.07,90.0
591.13,112.0
591.19,99.0
591.25,102.0
591.32,105.0
591.38,112.0
591.44,116.0
591.51,114.0
591.57,120.0
591.63,111.0
591.7,120.0
591.76,122.0
591.82,114.0
591.88,95.0
591.95,104.0
592.01,120.0
592.07,114.0
592.14,108.0
592.2,104.0
592.26,100.0
592.33,114.0
592.39,110.0
592.45,111.0
592.51,122.0
592.58,102.0
592.64,113.0
592.7,105.0
592.77,127.0
592.83,152.0
592.89,129.0
592.96,132.0
593.02,141.0
593.08,114.0
593.14,127.0
593.21,133.0
593.27,121.0
593.33,128.0
593.4,149.0
593.46,148.0
593.52,141.0
593.59,152.0
593.65,150.0
593.71,168.0
593.77,166.0
593.84,171.0
593.9,172.0
593.96,166.0
594.03,169.0
594.09,152.0
594.15,150.0
594.22,144.0
594.28,163.0
594.34,161.0
594.4,173.0
594.47,169.0
594.53,157.0
594.59,166.0
594.66,172.0
594.72,162.0
594.78,173.0
594.85,171.0
594.91,183.0
594.97,167.0
595.03,152.0
595.1,155.0
595.16,164.0
595.22,153.0
595.29,138.0
595.35,141.0
595.41,170.0
595.48,183.0
595.54,162.0
595.6,190.0
595.66,178.0
595.73,179.0
595.79,195.0
595.85,172.0
595.92,185.0
595.98,206.0
596.04,188.0
596.11,189.0
596.17,201.0
596.23,190.0
596.29,210.0
596.36,209.0
596.42,219.0
596.48,205.0
596.55,205.0
596.61,204.0
596.67,214.0
596.74,212.0
596.8,212.0
596.86,186.0
596.92,173.0
596.99,194.0
597.05,174.0
597.11,184.0
597.18,185.0
597.24,187.0
597.3,170.0
597.37,188.0
597.43,169.0
597.49,187.0
597.55,194.0
597.62,196.0
597.68,198.0
597.74,204.0
597.81,203.0
597.87,223.0
597.93,230.0
598.0,202.0
598.06,202.0
598.12,218.0
598.18,211.0
598.25,203.0
598.31,216.0
598.37,206.0
598.44,196.0
598.5,205.0
598.56,197.0
598.63,205.0
598.69,187.0
598.75,178.0
598.81,212.0
598.88,215.0
598.94,194.0
599.0,209.0
599.07,215.0
599.13,202.0
599.19,215.0
599.26,205.0
599.32,201.0
599.38,209.0
599.44,177.0
599.51,206.0
599.57,190.0
599.63,191.0
599.7,211.0
599.76,204.0
599.82,190.0
599.89,180.0
599.95,171.0
600.01,185.0
600.07,182.0
600.14,177.0
600.2,171.0
600.26,155.0
600.33,185.0
600.39,166.0
600.45,183.0
600.52,177.0
600.58,152.0
600.64,194.0
600.7,168.0
600.77,144.0
600.83,152.0
600.89,150.0
600.96,142.0
601.02,149.0
601.08,151.0
601.15,127.0
601.21,133.0
601.27,119.0
601.33,109.0
601.4,102.0
601.46,117.0
601.52,119.0
601.59,105.0
601.65,132.0
601.71,122.0
601.78,98.0
601.84,108.0
601.9,121.0
601.96,133.0
602.03,150.0
602.09,132.0
602.15,134.0
602.22,140.0
602.28,141.0
602.34,122.0
602.41,128.0
602.47,113.0
602.53,134.0
602.59,145.0
602.66,143.0
602.72,142.0
602.78,127.0
602.85,124.0
602.91,127.0
602.97,113.0
603.04,129.0
603.1,138.0
603.16,119.0
603.22,124.0
603.29,127.0
603.35,122.0
603.41,117.0
603.48,92.0
603.54,98.0
603.6,98.0
603.67,95.0
603.73,78.0
603.79,87.0
603.85,73.0
603.92,87.0
603.98,73.0
604.04,83.0
604.11,95.0
604.17,77.0
604.23,62.0
604.3,62.0
604.36,47.0
604.42,63.0
604.48,57.0
604.55,62.0
604.61,75.0
604.67,64.0
604.74,67.0
604.8,91.0
604.86,86.0
604.93,68.0
604.99,36.0
605.05,62.0
605.11,78.0
605.18,68.0
605.24,75.0
605.3,58.0
605.37,50.0
605.43,56.0
605.49,69.0
605.56,62.0
605.62,53.0
605.68,49.0
605.74,51.0
605.81,61.0
605.87,35.0
605.93,34.0
606.0,34.0
606.06,36.0
606.12,60.0
606.19,75.0
606.25,62.0
606.31,58.0
606.37,44.0
606.44,46.0
606.5,81.0
606.56,68.0
606.63,77.0
606.69,94.0
606.75,84.0
606.82,96.0
606.88,98.0
606.94,86.0
607.0,108.0
607.07,98.0
607.13,88.0
607.19,105.0
607.26,79.0
607.32,113.0
607.38,118.0
607.45,98.0
607.51,95.0
607.57,91.0
607.63,92.0
607.7,90.0
607.76,84.0
607.82,98.0
607.89,97.0
607.95,109.0
608.01,94.0
608.08,72.0
608.14,83.0
608.2,76.0
608.26,84.0
608.33,75.0
608.39,99.0
608.45,94.0
608.52,82.0
608.58,68.0
608.64,74.0
608.71,79.0
608.77,65.0
608.83,65.0
608.89,84.0
608.96,80.0
609.02,75.0
609.08,90.0
609.15,100.0
609.21,81.0
609.27,94.0
609.34,85.0
609.4,100.0
609.46,97.0
609.52,86.0
609.59,92.0
609.65,95.0
609.71,98.0
609.78,83.0
609.84,87.0
609.9,106.0
609.97,83.0
610.03,103.0
610.09,88.0
610.15,77.0
610.22,92.0
610.28,108.0
610.34,110.0
610.41,93.0
610.47,84.0
610.53,74.0
610.6,106.0
610.66,114.0
610.72,98.0
610.78,119.0
610.85,107.0
610.91,108.0
610.97,91.0
611.04,91.0
611.1,109.0
611.16,114.0
611.23,116.0
611.29,115.0
611.35,118.0
611.41,130.0
611.48,128.0
611.54,125.0
611.6,135.0
611.67,115.0
611.73,139.0
611.79,112.0
611.86,127.0
611.92,104.0
611.98,119.0
612.04,135.0
612.11,113.0
612.17,142.0
612.23,131.0
612.3,146.0
612.36,127.0
612.42,126.0
612.49,139.0
612.55,149.0
612.61,165.0
612.67,138.0
612.74,141.0
612.8,153.0
612.86,168.0
612.93,156.0
612.99,162.0
613.05,144.0
613.12,169.0
613.18,160.0
613.24,176.0
613.3,153.0
613.37,158.0
613.43,188.0
613.49,168.0
613.56,161.0
613.62,146.0
613.68,155.0
613.75,153.0
613.81,131.0
613.87,146.0
613.93,158.0
614.0,158.0
614.06,156.0
614.12,185.0
614.19,177.0
614.25,178.0
614.31,173.0
614.38,168.0
614.44,192.0
614.5,197.0
614.56,192.0
614.63,190.0
614.69,199.0
614.75,184.0
614.82,182.0
614.88,202.0
614.94,187.0
615.01,186.0
615.07,181.0
615.13,197.0
615.19,204.0
615.26,190.0
615.32,188.0
615.38,191.0
615.45,185.0
615.51,196.0
615.57,172.0
615.64,172.0
615.7,165.0
615.76,172.0
615.82,177.0
615.89,186.0
615.95,183.0
616.01,182.0
616.08,179.0
616.14,174.0
616.2,173.0
616.27,179.0
616.33,186.0
616.39,163.0
616.45,184.0
616.52,190.0
616.58,205.0
616.64,189.0
616.71,183.0
616.77,166.0
616.83,177.0
616.9,186.0
616.96,190.0
617.02,187.0
617.08,209.0
617.15,204.0
617.21,193.0
617.27,226.0
617.34,212.0
617.4,179.0
617.46,187.0
617.53,188.0
617.59,187.0
617.65,191.0
617.71,193.0
617.78,173.0
617.84,181.0
617.9,186.0
617.97,180.0
618.03,166.0
618.09,181.0
618.16,175.0
618.22,157.0
618.28,162.0
618.34,143.0
618.41,169.0
618.47,167.0
618.53,145.0
618.6,146.0
618.66,136.0
618.72,139.0
618.79,146.0
618.85,144.0
618.91,152.0
618.97,136.0
619.04,137.0
619.1,137.0
619.16,138.0
619.23,137.0
619.29,142.0
619.35,133.0
619.42,149.0
619.48,142.0
619.54,153.0
619.6,146.0
619.67,129.0
619.73,138.0
619.79,117.0
619.86,121.0
619.92,128.0
619.98,114.0
620.05,104.0
620.11,103.0
620.17,78.0
620.23,102.0
620.3,85.0
620.36,79.0
620.42,85.0
620.49,72.0
620.55,80.0
620.61,96.0
620.68,91.0
620.74,94.0
620.8,86.0
620.86,102.0
620.93,106.0
620.99,114.0
621.05,100.0
621.12,108.0
621.18,83.0
621.24,95.0
621.31,102.0
621.37,114.0
621.43,117.0
621.49,86.0
621.56,106.0
621.62,91.0
621.68,91.0
621.75,99.0
621.81,88.0
621.87,77.0
621.94,84.0
622.0,82.0
622.06,73.0
622.12,81.0
622.19,86.0
622.25,80.0
622.31,76.0
622.38,92.0
622.44,90.0
622.5,75.0
622.57,84.0
622.63,80.0
622.69,84.0
622.75,88.0
622.82,69.0
622.88,56.0
622.94,69.0
623.01,53.0
623.07,54.0
623.13,68.0
623.2,67.0
623.26,47.0
623.32,49.0
623.38,59.0
623.45,63.0
623.51,68.0
623.57,80.0
623.64,113.0
623.7,102.0
623.76,81.0
623.83,102.0
623.89,104.0
623.95,93.0
624.01,92.0
624.08,91.0
624.14,88.0
624.2,97.0
624.27,84.0
624.33,99.0
624.39,98.0
624.46,69.0
624.52,65.0
624.58,45.0
624.64,42.0
624.71,62.0
624.77,63.0
624.83,69.0
624.9,67.0
624.96,58.0
625.02,58.0
625.09,43.0
625.15,25.0
625.21,56.0
625.27,51.0
625.34,58.0
625.4,51.0
625.46,51.0
625.53,63.0
625.59,47.0
625.65,65.0
625.72,56.0
625.78,46.0
625.84,41.0
625.9,43.0
625.97,29.0
626.03,41.0
626.09,31.0
626.16,44.0
626.22,48.0
626.28,52.0
626.35,53.0
626.41,61.0
626.47,53.0
626.53,58.0
626.6,58.0
626.66,54.0
626.72,74.0
626.79,76.0
626.85,48.0
626.91,59.0
626.98,43.0
627.04,32.0
627.1,38.0
627.16,37.0
627.23,40.0
627.29,52.0
627.35,39.0
627.42,36.0
627.48,42.0
627.54,53.0
627.61,43.0
627.67,48.0
627.73,46.0
627.79,39.0
627.86,65.0
627.92,39.0
627.98,30.0
628.05,39.0
628.11,32.0
628.17,53.0
628.24,61.0
628.3,49.0
628.36,48.0
628.42,54.0
628.49,56.0
628.55,39.0
628.61,47.0
628.68,60.0
628.74,45.0
628.8,70.0
628.87,37.0
628.93,45.0
628.99,70.0
629.05,66.0
629.12,64.0
629.18,57.0
629.24,71.0
629.31,66.0
629.37,83.0
629.43,79.0
629.5,80.0
629.56,73.0
629.62,65.0
629.68,80.0
629.75,82.0
629.81,104.0
629.87,91.0
629.94,83.0
630.0,86.0
630.06,98.0
630.13,67.0
630.19,92.0
630.25,71.0
630.31,83.0
630.38,78.0
630.44,56.0
630.5,53.0
630.57,68.0
630.63,80.0
630.69,69.0
630.76,69.0
630.82,54.0
630.88,60.0
630.94,60.0
631.01,50.0
631.07,54.0
631.13,59.0
631.2,73.0
631.26,76.0
631.32,67.0
631.39,47.0
631.45,69.0
631.51,81.0
631.57,124.0
631.64,124.0
631.7,108.0
631.76,106.0
631.83,113.0
631.89,103.0
631.95,113.0
632.02,120.0
632.08,110.0
632.14,134.0
632.2,132.0
632.27,137.0
632.33,131.0
632.39,146.0
632.46,161.0
632.52,142.0
632.58,141.0
632.65,151.0
632.71,158.0
632.77,165.0
632.83,168.0
632.9,165.0
632.96,178.0
633.02,169.0
633.09,169.0
633.15,167.0
633.21,172.0
633.28,158.0
633.34,161.0
633.4,151.0
633.46,146.0
633.53,169.0
633.59,187.0
633.65,172.0
633.72,154.0
633.78,150.0
633.84,134.0
633.91,152.0
633.97,150.0
634.03,160.0
634.09,173.0
634.16,161.0
634.22,149.0
634.28,166.0
634.35,149.0
634.41,157.0
634.47,165.0
634.54,152.0
634.6,160.0
634.66,172.0
634.72,141.0
634.79,146.0
634.85,147.0
634.91,147.0
634.98,145.0
635.04,124.0
635.1,156.0
635.17,154.0
635.23,130.0
635.29,142.0
635.35,128.0
635.42,150.0
635.48,154.0
635.54,144.0
635.61,137.0
635.67,144.0
635.73,139.0
635.8,144.0
635.86,163.0
635.92,153.0
635.98,146.0
636.05,153.0
636.11,143.0
636.17,124.0
636.24,131.0
636.3,142.0
636.36,124.0
636.43,125.0
636.49,134.0
636.55,129.0
636.61,117.0
636.68,130.0
636.74,113.0
636.8,131.0
636.87,131.0
636.93,118.0
636.99,142.0
637.06,132.0
637.12,109.0
637.18,126.0
637.24,133.0
637.31,119.0
637.37,119.0
637.43,109.0
637.5,98.0
637.56,120.0
637.62,115.0
637.69,100.0
637.75,116.0
637.81,126.0
637.87,113.0
637.94,110.0
638.0,122.0
638.06,121.0
638.13,113.0
638.19,107.0
638.25,97.0
638.32,113.0
638.38,99.0
638.44,95.0
638.5,102.0
638.57,86.0
638.63,77.0
638.69,87.0
638.76,109.0
638.82,100.0
638.88,80.0
638.95,88.0
639.01,88.0
639.07,110.0
639.13,98.0
639.2,87.0
639.26,91.0
639.32,83.0
639.39,93.0
639.45,83.0
639.51,92.0
639.58,90.0
639.64,85.0
639.7,94.0
639.76,96.0
639.83,80.0
639.89,80.0
639.95,93.0
640.02,100.0
640.08,91.0
640.14,97.0
640.21,108.0
640.27,113.0
640.33,109.0
640.39,108.0
640.46,98.0
640.52,119.0
640.58,132.0
640.65,120.0
640.71,120.0
640.77,106.0
640.84,107.0
640.9,128.0
640.96,132.0
641.02,117.0
641.09,102.0
641.15,105.0
641.21,96.0
641.28,109.0
641.34,87.0
641.4,97.0
641.47,107.0
641.53,102.0
641.59,108.0
641.65,102.0
641.72,86.0
641.78,93.0
641.84,106.0
641.91,104.0
641.97,113.0
642.03,121.0
642.1,110.0
642.16,137.0
642.22,102.0
642.28,110.0
642.35,102.0
642.41,109.0
642.47,113.0
642.54,126.0
642.6,120.0
642.66,98.0
642.73,101.0
642.79,120.0
642.85,117.0
642.91,120.0
642.98,100.0
643.04,133.0
643.1,132.0
643.17,129.0
643.23,146.0
643.29,125.0
643.36,118.0
643.42,131.0
643.48,122.0
643.54,106.0
643.61,95.0
643.67,93.0
643.73,93.0
643.8,79.0
643.86,84.0
643.92,94.0
643.99,105.0
644.05,87.0
644.11,73.0
644.17,75.0
644.24,77.0
644.3,87.0
644.36,70.0
644.43,57.0
644.49,70.0
644.55,50.0
644.62,51.0
644.68,51.0
644.74,47.0
644.8,29.0
644.87,41.0
644.93,32.0
644.99,49.0
645.06,31.0
645.12,40.0
645.18,40.0
645.25,48.0
645.31,72.0
645.37,55.0
645.43,52.0
645.5,61.0
645.56,80.0
645.62,48.0
645.69,33.0
645.75,37.0
645.81,76.0
645.88,84.0
645.94,70.0
646.0,67.0
646.06,65.0
646.13,43.0
646.19,28.0
646.25,36.0
646.32,51.0
646.38,29.0
646.44,25.0
646.51,20.0
646.57,20.0
646.63,45.0
646.69,51.0
646.76,34.0
646.82,32.0
646.88,28.0
646.95,28.0
647.01,16.0
647.07,26.0
647.14,32.0
647.2,36.0
647.26,40.0
647.32,46.0
647.39,53.0
647.45,76.0
647.51,43.0
647.58,42.0
647.64,55.0
647.7,53.0
647.77,69.0
647.83,76.0
647.89,64.0
647.95,59.0
648.02,62.0
648.08,71.0
648.14,84.0
648.21,105.0
648.27,107.0
648.33,96.0
648.4,114.0
648.46,124.0
648.52,103.0
648.58,100.0
648.65,106.0
648.71,102.0
648.77,107.0
648.84,78.0
648.9,92.0
648.96,103.0
649.03,84.0
649.09,90.0
649.15,100.0
649.21,102.0
649.28,99.0
649.34,84.0
649.4,97.0
649.47,128.0
649.53,102.0
649.59,96.0
649.66,121.0
649.72,120.0
649.78,128.0
649.84,95.0
649.91,97.0
649.97,92.0
650.03,95.0
650.1,99.0
650.16,78.0
650.22,69.0
650.29,76.0
650.35,93.0
650.41,106.0
650.47,83.0
650.54,99.0
650.6,81.0
650.66,63.0
650.73,72.0
650.79,66.0
650.85,67.0
650.92,65.0
650.98,70.0
651.04,65.0
651.1,53.0
651.17,80.0
651.23,93.0
651.29,67.0
651.36,65.0
651.42,77.0
651.48,75.0
651.55,76.0
651.61,84.0
651.67,80.0
651.73,74.0
651.8,81.0
651.86,91.0
651.92,87.0
651.99,77.0
652.05,80.0
652.11,56.0
652.18,80.0
652.24,63.0
652.3,62.0
652.36,47.0
652.43,56.0
652.49,68.0
652.55,56.0
652.62,36.0
652.68,40.0
652.74,70.0
652.81,51.0
652.87,38.0
652.93,58.0
652.99,69.0
653.06,58.0
653.12,73.0
653.18,53.0
653.25,68.0
653.31,59.0
653.37,51.0
653.44,58.0
653.5,56.0
653.56,69.0
653.62,72.0
653.69,48.0
653.75,71.0
653.81,99.0
653.88,82.0
653.94,83.0
654.0,82.0
654.07,91.0
654.13,92.0
654.19,87.0
654.25,94.0
654.32,76.0
654.38,71.0
654.44,89.0
654.51,91.0
654.57,110.0
654.63,98.0
654.7,116.0
654.76,89.0
654.82,109.0
654.88,101.0
654.95,102.0
655.01,92.0
655.07,107.0
655.14,95.0
655.2,82.0
655.26,93.0
655.33,79.0
655.39,100.0
655.45,74.0
655.51,83.0
655.58,70.0
655.64,53.0
655.7,72.0
655.77,63.0
655.83,89.0
655.89,97.0
655.96,73.0
656.02,102.0
656.08,94.0
656.14,92.0
656.21,74.0
656.27,77.0
656.33,100.0
656.4,88.0
656.46,106.0
656.52,93.0
656.59,89.0
656.65,87.0
656.71,89.0
656.77,80.0
656.84,84.0
656.9,109.0
656.96,89.0
657.03,84.0
657.09,96.0
657.15,89.0
657.22,100.0
657.28,114.0
657.34,95.0
657.4,118.0
657.47,120.0
657.53,109.0
657.59,92.0
657.66,104.0
657.72,107.0
657.78,110.0
657.85,114.0
657.91,94.0
657.97,126.0
658.03,107.0
658.1,116.0
658.16,117.0
658.22,102.0
658.29,108.0
658.35,121.0
658.41,133.0
658.48,131.0
658.54,141.0
658.6,141.0
658.66,139.0
658.73,142.0
658.79,126.0
658.85,112.0
658.92,149.0
658.98,150.0
659.04,171.0
659.11,170.0
659.17,175.0
659.23,174.0
659.29,165.0
659.36,179.0
659.42,169.0
659.48,169.0
659.55,168.0
659.61,166.0
659.67,172.0
659.74,169.0
659.8,172.0
659.86,159.0
659.92,152.0
659.99,162.0
660.05,164.0
660.11,150.0
660.18,160.0
660.24,169.0
660.3,164.0
660.37,162.0
660.43,162.0
660.49,173.0
660.55,165.0
660.62,176.0
660.68,178.0
660.74,182.0
660.81,179.0
660.87,164.0
660.93,155.0
661.0,149.0
661.06,161.0
661.12,158.0
661.18,168.0
661.25,154.0
661.31,143.0
661.37,157.0
661.44,158.0
661.5,165.0
661.56,146.0
661.63,162.0
661.69,180.0
661.75,151.0
661.81,176.0
661.88,184.0
661.94,175.0
662.0,183.0
662.07,173.0
662.13,185.0
662.19,164.0
662.26,158.0
662.32,154.0
662.38,155.0
662.44,159.0
662.51,148.0
662.57,157.0
662.63,152.0
662.7,171.0
662.76,183.0
662.82,175.0
662.89,167.0
662.95,165.0
663.01,170.0
663.07,164.0
663.14,155.0
663.2,168.0
663.26,174.0
663.33,183.0
663.39,192.0
663.45,193.0
663.52,175.0
663.58,158.0
663.64,192.0
663.7,174.0
663.77,172.0
663.83,169.0
663.89,158.0
663.96,184.0
664.02,156.0
664.08,183.0
664.15,185.0
664.21,150.0
664.27,165.0
664.33,170.0
664.4,169.0
664.46,157.0
664.52,148.0
664.59,171.0
664.65,177.0
664.71,177.0
664.78,178.0
664.84,168.0
664.9,185.0
664.96,188.0
665.03,182.0
665.09,183.0
665.15,192.0
665.22,181.0
665.28,199.0
665.34,185.0
665.41,179.0
665.47,197.0
665.53,178.0
665.59,175.0
665.66,191.0
665.72,186.0
665.78,163.0
665.85,188.0
665.91,191.0
665.97,183.0
666.04,178.0
666.1,184.0
666.16,192.0
666.22,179.0
666.29,186.0
666.35,201.0
666.41,176.0
666.48,191.0
666.54,183.0
666.6,202.0
666.67,220.0
666.73,199.0
666.79,190.0
666.85,173.0
666.92,189.0
666.98,186.0
667.04,196.0
667.11,191.0
667.17,201.0
667.23,183.0
667.3,185.0
667.36,189.0
667.42,159.0
667.48,161.0
667.55,168.0
667.61,181.0
667.67,174.0
667.74,168.0
667.8,168.0
667.86,175.0
667.93,178.0
667.99,157.0
668.05,166.0
668.11,171.0
668.18,157.0
668.24,155.0
668.3,153.0
668.37,154.0
668.43,161.0
668.49,141.0
668.56,134.0
668.62,164.0
668.68,157.0
668.74,170.0
668.81,166.0
668.87,142.0
668.93,158.0
669.0,155.0
669.06,157.0
669.12,159.0
669.19,160.0
669.25,161.0
669.31,160.0
669.37,157.0
669.44,151.0
669.5,125.0
669.56,160.0
669.63,159.0
669.69,130.0
669.75,127.0
669.82,139.0
669.88,150.0
669.94,149.0
670.0,159.0
670.07,117.0
670.13,121.0
670.19,107.0
670.26,109.0
670.32,109.0
670.38,81.0
670.45,116.0
670.51,94.0
670.57,84.0
670.63,108.0
670.7,93.0
670.76,104.0
670.82,84.0
670.89,95.0
670.95,101.0
671.01,100.0
671.08,113.0
671.14,91.0
671.2,96.0
671.26,84.0
671.33,88.0
671.39,89.0
671.45,100.0
671.52,110.0
671.58,72.0
671.64,92.0
671.71,83.0
671.77,91.0
671.83,102.0
671.89,78.0
671.96,77.0
672.02,70.0
672.08,93.0
672.15,84.0
672.21,92.0
672.27,89.0
672.34,87.0
672.4,90.0
672.46,86.0
672.52,95.0
672.59,83.0
672.65,86.0
672.71,79.0
672.78,90.0
672.84,92.0
672.9,85.0
672.97,86.0
673.03,83.0
673.09,99.0
673.15,99.0
673.22,96.0
673.28,102.0
673.34,94.0
673.41,85.0
673.47,81.0
673.53,102.0
673.6,111.0
673.66,122.0
673.72,119.0
673.78,116.0
673.85,107.0
673.91,105.0
673.97,117.0
674.04,111.0
674.1,82.0
674.16,103.0
674.23,111.0
674.29,104.0
674.35,109.0
674.41,127.0
674.48,136.0
674.54,119.0
674.6,107.0
674.67,102.0
674.73,126.0
674.79,117.0
674.86,127.0
674.92,133.0
674.98,126.0
675.04,130.0
675.11,132.0
675.17,137.0
675.23,118.0
675.3,136.0
675.36,124.0
675.42,131.0
675.49,149.0
675.55,128.0
675.61,124.0
675.67,136.0
675.74,124.0
675.8,111.0
675.86,131.0
675.93,139.0
675.99,141.0
676.05,131.0
676.12,144.0
676.18,153.0
676.24,147.0
676.3,138.0
676.37,123.0
676.43,128.0
676.49,124.0
676.56,129.0
676.62,108.0
676.68,98.0
676.75,124.0
676.81,119.0
676.87,124.0
676.93,127.0
677.0,133.0
677.06,146.0
677.12,121.0
677.19,112.0
677.25,122.0
677.31,141.0
677.38,139.0
677.44,117.0
677.5,125.0
677.56,120.0
677.63,107.0
677.69,119.0
677.75,125.0
677.82,111.0
677.88,99.0
677.94,105.0
678.01,116.0
678.07,110.0
678.13,114.0
678.19,113.0
678.26,110.0
678.32,115.0
678.38,124.0
678.45,141.0
678.51,128.0
678.57,140.0
678.64,144.0
678.7,154.0
678.76,151.0
678.82,142.0
678.89,147.0
678.95,138.0
679.01,138.0
679.08,132.0
679.14,127.0
679.2,119.0
679.27,108.0
679.33,106.0
679.39,131.0
679.45,148.0
679.52,124.0
679.58,140.0
679.64,129.0
679.71,127.0
679.77,128.0
679.83,96.0
679.9,113.0
679.96,103.0
680.02,106.0
680.08,116.0
680.15,105.0
680.21,103.0
680.27,98.0
680.34,80.0
680.4,101.0
680.46,98.0
680.53,77.0
680.59,94.0
680.65,99.0
680.71,93.0
680.78,76.0
680.84,77.0
680.9,77.0
680.97,83.0
681.03,70.0
681.09,76.0
681.16,76.0
681.22,82.0
681.28,79.0
681.34,64.0
681.41,77.0
681.47,102.0
681.53,83.0
681.6,98.0
681.66,98.0
681.72,94.0
681.79,99.0
681.85,71.0
681.91,79.0
681.97,109.0
682.04,93.0
682.1,110.0
682.16,132.0
682.23,134.0
682.29,109.0
682.35,114.0
682.42,109.0
682.48,114.0
682.54,118.0
682.6,114.0
682.67,119.0
682.73,129.0
682.79,143.0
682.86,133.0
682.92,133.0
682.98,137.0
683.05,140.0
683.11,119.0
683.17,120.0
683.23,120.0
683.3,114.0
683.36,117.0
683.42,152.0
683.49,139.0
683.55,153.0
683.61,130.0
683.68,120.0
683.74,140.0
683.8,128.0
683.86,135.0
683.93,168.0
683.99,143.0
684.05,153.0
684.12,160.0
684.18,148.0
684.24,158.0
684.31,152.0
684.37,161.0
684.43,168.0
684.49,172.0
684.56,158.0
684.62,160.0
684.68,140.0
684.75,165.0
684.81,168.0
684.87,177.0
684.94,168.0
685.0,156.0
685.06,182.0
685.12,183.0
685.19,170.0
685.25,150.0
685.31,148.0
685.38,160.0
685.44,160.0
685.5,163.0
685.57,129.0
685.63,131.0
685.69,152.0
685.75,132.0
685.82,144.0
685.88,138.0
685.94,150.0
686.01,149.0
686.07,142.0
686.13,123.0
686.2,118.0
686.26,122.0
686.32,99.0
686.38,98.0
686.45,72.0
686.51,76.0
686.57,89.0
686.64,82.0
686.7,87.0
686.76,69.0
686.83,87.0
686.89,92.0
686.95,84.0
687.01,85.0
687.08,105.0
687.14,111.0
687.2,103.0
687.27,110.0
687.33,86.0
687.39,98.0
687.46,88.0
687.52,72.0
687.58,81.0
687.64,67.0
687.71,89.0
687.77,93.0
687.83,61.0
687.9,51.0
687.96,61.0
688.02,51.0
688.09,40.0
688.15,47.0
688.21,65.0
688.27,60.0
688.34,47.0
688.4,61.0
688.46,57.0
688.53,57.0
688.59,69.0
688.65,57.0
688.72,66.0
688.78,67.0
688.84,49.0
688.9,62.0
688.97,73.0
689.03,66.0
689.09,69.0
689.16,58.0
689.22,76.0
689.28,71.0
689.35,76.0
689.41,104.0
689.47,81.0
689.53,87.0
689.6,87.0
689.66,78.0
689.72,75.0
689.79,92.0
689.85,77.0
689.91,78.0
689.98,76.0
690.04,78.0
690.1,77.0
690.16,85.0
690.23,80.0
690.29,66.0
690.35,67.0
690.42,66.0
690.48,71.0
690.54,79.0
690.61,94.0
690.67,77.0
690.73,87.0
690.79,86.0
690.86,64.0
690.92,79.0
690.98,62.0
691.05,95.0
691.11,72.0
691.17,58.0
691.24,54.0
691.3,43.0
691.36,65.0
691.42,75.0
691.49,80.0
691.55,75.0
691.61,91.0
691.68,91.0
691.74,82.0
691.8,95.0
691.87,101.0
691.93,106.0
691.99,87.0
692.05,113.0
692.12,117.0
692.18,99.0
692.24,132.0
692.31,111.0
692.37,99.0
692.43,95.0
692.5,88.0
692.56,69.0
692.62,58.0
692.68,81.0
692.75,81.0
692.81,81.0
692.87,91.0
692.94,74.0
693.0,60.0
693.06,72.0
693.13,82.0
693.19,94.0
693.25,91.0
693.31,75.0
693.38,80.0
693.44,72.0
693.5,80.0
693.57,89.0
693.63,92.0
693.69,91.0
693.76,112.0
693.82,116.0
693.88,116.0
693.94,110.0
694.01,96.0
694.07,117.0
694.13,105.0
694.2,96.0
694.26,107.0
694.32,114.0
694.39,122.0
694.45,118.0
694.51,102.0
694.57,113.0
694.64,112.0
694.7,130.0
694.76,103.0
694.83,114.0
694.89,121.0
694.95,125.0
695.02,117.0
695.08,114.0
695.14,123.0
695.2,110.0
695.27,115.0
695.33,121.0
695.39,122.0
695.46,132.0
695.52,126.0
695.58,121.0
695.65,109.0
695.71,106.0
695.77,103.0
695.83,82.0
695.9,102.0
695.96,109.0
696.02,88.0
696.09,84.0
696.15,83.0
696.21,81.0
696.28,75.0
696.34,69.0
696.4,91.0
696.46,75.0
696.53,85.0
696.59,78.0
696.65,88.0
696.72,85.0
696.78,80.0
696.84,89.0
696.91,99.0
696.97,119.0
697.03,113.0
697.09,117.0
697.16,111.0
697.22,94.0
697.28,106.0
697.35,93.0
697.41,76.0
697.47,81.0
697.54,76.0
697.6,102.0
697.66,83.0
697.72,81.0
697.79,77.0
697.85,81.0
697.91,80.0
697.98,75.0
698.04,76.0
698.1,60.0
698.17,56.0
698.23,58.0
698.29,69.0
698.35,98.0
698.42,91.0
698.48,114.0
698.54,102.0
698.61,124.0
698.67,122.0
698.73,124.0
698.8,124.0
698.86,114.0
698.92,120.0
698.98,143.0
699.05,127.0
699.11,130.0
699.17,116.0
699.24,120.0
699.3,136.0
699.36,149.0
699.43,137.0
699.49,139.0
699.55,151.0
699.61,163.0
699.68,159.0
699.74,142.0
699.8,174.0
699.87,160.0
699.93,158.0
699.99,168.0
700.06,160.0
700.12,179.0
700.18,167.0
700.24,166.0
700.31,169.0
700.37,158.0
700.43,132.0
700.5,173.0
700.56,161.0
700.62,140.0
700.69,170.0
700.75,165.0
700.81,176.0
700.87,173.0
700.94,170.0
701.0,165.0
701.06,175.0
701.13,164.0
701.19,164.0
701.25,174.0
701.32,161.0
701.38,150.0
701.44,147.0
701.5,146.0
701.57,152.0
701.63,150.0
701.69,149.0
701.76,148.0
701.82,136.0
701.88,139.0
701.95,149.0
702.01,125.0
702.07,116.0
702.13,106.0
702.2,102.0
702.26,118.0
702.32,105.0
702.39,105.0
702.45,124.0
702.51,130.0
702.58,116.0
702.64,136.0
702.7,150.0
702.76,120.0
702.83,115.0
702.89,129.0
702.95,117.0
703.02,110.0
703.08,98.0
703.14,91.0
703.21,90.0
703.27,97.0
703.33,110.0
703.39,130.0
703.46,133.0
703.52,128.0
703.58,149.0
703.65,152.0
703.71,99.0
703.77,120.0
703.84,113.0
703.9,128.0
703.96,131.0
704.02,125.0
704.09,116.0
704.15,123.0
704.21,124.0
704.28,116.0
704.34,126.0
704.4,112.0
704.47,97.0
704.53,91.0
704.59,112.0
704.65,105.0
704.72,115.0
704.78,89.0
704.84,86.0
704.91,81.0
704.97,76.0
705.03,96.0
705.1,76.0
705.16,76.0
705.22,84.0
705.28,73.0
705.35,63.0
705.41,77.0
705.47,69.0
705.54,89.0
705.6,69.0
705.66,75.0
705.73,56.0
705.79,68.0
705.85,76.0
705.91,49.0
705.98,52.0
706.04,51.0
706.1,62.0
706.17,46.0
706.23,54.0
706.29,40.0
706.36,50.0
706.42,70.0
706.48,51.0
706.54,86.0
706.61,68.0
706.67,75.0
706.73,76.0
706.8,72.0
706.86,69.0
706.92,80.0
706.99,73.0
707.05,68.0
707.11,59.0
707.17,59.0
707.24,83.0
707.3,87.0
707.36,91.0
707.43,78.0
707.49,91.0
707.55,80.0
707.62,74.0
707.68,100.0
707.74,101.0
707.8,114.0
707.87,111.0
707.93,118.0
707.99,130.0
708.06,126.0
708.12,125.0
708.18,144.0
708.25,138.0
708.31,124.0
708.37,125.0
708.43,110.0
708.5,125.0
708.56,114.0
708.62,103.0
708.69,112.0
708.75,103.0
708.81,92.0
708.88,96.0
708.94,117.0
709.0,124.0
709.06,139.0
709.13,118.0
709.19,147.0
709.25,125.0
709.32,119.0
709.38,135.0
709.44,144.0
709.51,143.0
709.57,144.0
709.63,150.0
709.69,143.0
709.76,167.0
709.82,142.0
709.88,137.0
709.95,149.0
710.01,139.0
710.07,148.0
710.14,162.0
710.2,156.0
710.26,155.0
710.32,180.0
710.39,173.0
710.45,169.0
710.51,179.0
710.58,183.0
710.64,180.0
710.7,176.0
710.77,164.0
710.83,168.0
710.89,172.0
710.95,149.0
711.02,142.0
711.08,157.0
711.14,166.0
711.21,177.0
711.27,161.0
711.33,154.0
711.4,142.0
711.46,141.0
711.52,164.0
711.58,164.0
711.65,152.0
711.71,140.0
711.77,159.0
711.84,150.0
711.9,126.0
711.96,140.0
712.03,138.0
712.09,132.0
712.15,144.0
712.21,129.0
712.28,123.0
712.34,113.0
712.4,130.0
712.47,133.0
712.53,132.0
712.59,149.0
712.66,146.0
712.72,128.0
712.78,122.0
712.84,149.0
712.91,166.0
712.97,168.0
713.03,153.0
713.1,139.0
713.16,145.0
713.22,146.0
713.29,158.0
713.35,167.0
713.41,147.0
713.47,164.0
713.54,167.0
713.6,176.0
713.66,152.0
713.73,171.0
713.79,186.0
713.85,176.0
713.92,171.0
713.98,174.0
714.04,178.0
714.1,158.0
714.17,150.0
714.23,149.0
714.29,155.0
714.36,179.0
714.42,173.0
714.48,169.0
714.55,166.0
714.61,160.0
714.67,176.0
714.73,179.0
714.8,188.0
714.86,181.0
714.92,186.0
714.99,174.0
715.05,183.0
715.11,190.0
715.18,196.0
715.24,197.0
715.3,201.0
715.36,190.0
715.43,194.0
715.49,179.0
715.55,188.0
715.62,196.0
715.68,171.0
715.74,183.0
715.81,183.0
715.87,185.0
715.93,205.0
715.99,202.0
716.06,192.0
716.12,194.0
716.18,216.0
716.25,207.0
716.31,210.0
716.37,205.0
716.44,210.0
716.5,224.0
716.56,227.0
716.62,213.0
716.69,205.0
716.75,224.0
716.81,237.0
716.88,238.0
716.94,212.0
717.0,210.0
717.07,180.0
717.13,189.0
717.19,196.0
717.25,189.0
717.32,191.0
717.38,186.0
717.44,208.0
717.51,190.0
717.57,196.0
717.63,196.0
717.7,171.0
717.76,188.0
717.82,186.0
717.88,179.0
717.95,170.0
718.01,147.0
718.07,164.0
718.14,146.0
718.2,152.0
718.26,157.0
718.33,161.0
718.39,172.0
718.45,148.0
718.51,161.0
718.58,142.0
718.64,137.0
718.7,147.0
718.77,168.0
718.83,164.0
718.89,150.0
718.96,169.0
719.02,168.0
719.08,181.0
719.14,181.0
719.21,180.0
719.27,175.0
719.33,168.0
719.4,159.0
719.46,185.0
719.52,180.0
719.59,168.0
719.65,168.0
719.71,173.0
719.77,184.0
719.84,171.0
719.9,187.0
719.96,161.0
720.03,163.0
720.09,139.0
720.15,146.0
720.22,152.0
720.28,134.0
720.34,154.0
720.4,125.0
720.47,162.0
720.53,149.0
720.59,156.0
720.66,150.0
720.72,137.0
720.78,152.0
720.85,159.0
720.91,164.0
720.97,149.0
721.03,166.0
721.1,172.0
721.16,153.0
721.22,146.0
721.29,156.0
721.35,147.0
721.41,139.0
721.48,136.0
721.54,153.0
721.6,151.0
721.66,147.0
721.73,114.0
721.79,117.0
721.85,111.0
721.92,112.0
721.98,118.0
722.04,91.0
722.11,104.0
722.17,121.0
722.23,112.0
722.29,118.0
722.36,109.0
722.42,94.0
722.48,97.0
722.55,104.0
722.61,111.0
722.67,95.0
722.74,98.0
722.8,84.0
722.86,81.0
722.92,78.0
722.99,81.0
723.05,77.0
723.11,62.0
723.18,86.0
723.24,78.0
723.3,75.0
723.37,73.0
723.43,73.0
723.49,73.0
723.55,90.0
723.62,102.0
723.68,90.0
723.74,93.0
723.81,88.0
723.87,84.0
723.93,82.0
724.0,86.0
724.06,94.0
724.12,89.0
724.18,83.0
724.25,96.0
724.31,101.0
724.37,76.0
724.44,99.0
724.5,96.0
724.56,90.0
724.63,85.0
724.69,76.0
724.75,80.0
724.81,73.0
724.88,91.0
724.94,82.0
725.0,96.0
725.07,80.0
725.13,88.0
725.19,95.0
725.26,91.0
725.32,93.0
725.38,91.0
725.44,109.0
725.51,112.0
725.57,124.0
725.63,110.0
725.7,124.0
725.76,100.0
725.82,116.0
725.89,99.0
725.95,96.0
726.01,88.0
726.07,88.0
726.14,101.0
726.2,120.0
726.26,118.0
726.33,74.0
726.39,110.0
726.45,109.0
726.52,95.0
726.58,103.0
726.64,108.0
726.7,115.0
726.77,117.0
726.83,111.0
726.89,109.0
726.96,115.0
727.02,112.0
727.08,124.0
727.15,123.0
727.21,121.0
727.27,117.0
727.33,105.0
727.4,103.0
727.46,120.0
727.52,121.0
727.59,142.0
727.65,128.0
727.71,138.0
727.78,133.0
727.84,134.0
727.9,141.0
727.96,130.0
728.03,113.0
728.09,126.0
728.15,143.0
728.22,120.0
728.28,119.0
728.34,110.0
728.41,114.0
728.47,128.0
728.53,125.0
728.59,126.0
728.66,109.0
728.72,98.0
728.78,106.0
728.85,86.0
728.91,109.0
728.97,113.0
729.04,109.0
729.1,113.0
729.16,104.0
729.22,103.0
729.29,105.0
729.35,125.0
729.41,124.0
729.48,123.0
729.54,145.0
729.6,120.0
729.67,115.0
729.73,112.0
729.79,137.0
729.85,106.0
729.92,95.0
729.98,100.0
730.04,113.0
730.11,122.0
730.17,126.0
730.23,114.0
730.3,125.0
730.36,108.0
730.42,127.0
730.48,138.0
730.55,112.0
730.61,124.0
730.67,105.0
730.74,115.0
730.8,122.0
730.86,124.0
730.93,112.0
730.99,121.0
731.05,130.0
731.11,120.0
731.18,129.0
731.24,114.0
731.3,122.0
731.37,111.0
731.43,120.0
731.49,111.0
731.56,109.0
731.62,120.0
731.68,103.0
731.74,121.0
731.81,125.0
731.87,117.0
731.93,127.0
732.0,131.0
732.06,136.0
732.12,136.0
732.19,133.0
732.25,125.0
732.31,161.0
732.37,145.0
732.44,151.0
732.5,163.0
732.56,162.0
732.63,161.0
732.69,174.0
732.75,171.0
732.82,155.0
732.88,171.0
732.94,154.0
733.0,178.0
733.07,165.0
733.13,175.0
733.19,171.0
733.26,176.0
733.32,177.0
733.38,175.0
733.45,167.0
733.51,193.0
733.57,186.0
733.63,199.0
733.7,180.0
733.76,173.0
733.82,183.0
733.89,176.0
733.95,182.0
734.01,207.0
734.08,198.0
734.14,214.0
734.2,210.0
734.26,179.0
734.33,170.0
734.39,180.0
734.45,191.0
734.52,188.0
734.58,167.0
734.64,183.0
734.71,168.0
734.77,176.0
734.83,166.0
734.89,166.0
734.96,155.0
735.02,170.0
735.08,167.0
735.15,161.0
735.21,187.0
735.27,196.0
735.34,182.0
735.4,172.0
735.46,161.0
735.52,174.0
735.59,155.0
735.65,153.0
735.71,164.0
735.78,146.0
735.84,142.0
735.9,163.0
735.97,182.0
736.03,180.0
736.09,153.0
736.15,168.0
736.22,172.0
736.28,160.0
736.34,148.0
736.41,142.0
736.47,172.0
736.53,169.0
736.6,142.0
736.66,153.0
736.72,147.0
736.78,161.0
736.85,146.0
736.91,138.0
736.97,125.0
737.04,125.0
737.1,133.0
737.16,127.0
737.23,124.0
737.29,117.0
737.35,112.0
737.41,99.0
737.48,132.0
737.54,103.0
737.6,118.0
737.67,125.0
737.73,124.0
737.79,120.0
737.86,101.0
737.92,118.0
737.98,120.0
738.04,122.0
738.11,108.0
738.17,106.0
738.23,111.0
738.3,104.0
738.36,102.0
738.42,96.0
738.49,81.0
738.55,77.0
738.61,67.0
738.67,79.0
738.74,67.0
738.8,56.0
738.86,46.0
738.93,78.0
738.99,76.0
739.05,59.0
739.12,60.0
739.18,61.0
739.24,71.0
739.3,33.0
739.37,37.0
739.43,35.0
739.49,17.0
739.56,59.0
739.62,71.0
739.68,38.0
739.75,50.0
739.81,40.0
739.87,12.0
739.93,37.0
740.0,32.0
740.06,21.0
740.12,14.0
740.19,25.0
740.25,36.0
740.31,40.0
740.38,47.0
740.44,61.0
740.5,52.0
740.56,59.0
740.63,56.0
740.69,62.0
740.75,77.0
740.82,67.0
740.88,61.0
740.94,64.0
741.01,62.0
741.07,54.0
741.13,72.0
741.19,66.0
741.26,68.0
741.32,82.0
741.38,75.0
741.45,69.0
741.51,60.0
741.57,68.0
741.64,48.0
741.7,76.0
741.76,98.0
741.82,80.0
741.89,81.0
741.95,93.0
742.01,85.0
742.08,64.0
742.14,65.0
742.2,62.0
742.27,64.0
742.33,56.0
742.39,34.0
742.45,32.0
742.52,40.0
742.58,62.0
742.64,62.0
742.71,83.0
742.77,55.0
742.83,49.0
742.9,67.0
742.96,58.0
743.02,72.0
743.08,76.0
743.15,64.0
743.21,47.0
743.27,61.0
743.34,70.0
743.4,76.0
743.46,76.0
743.53,62.0
743.59,72.0
743.65,72.0
743.71,71.0
743.78,61.0
743.84,63.0
743.9,65.0
743.97,65.0
744.03,51.0
744.09,67.0
744.16,74.0
744.22,56.0
744.28,71.0
744.34,57.0
744.41,65.0
744.47,62.0
744.53,73.0
744.6,67.0
744.66,76.0
744.72,76.0
744.79,84.0
744.85,94.0
744.91,85.0
744.97,79.0
745.04,81.0
745.1,80.0
745.16,72.0
745.23,70.0
745.29,56.0
745.35,58.0
745.42,92.0
745.48,84.0
745.54,83.0
745.6,71.0
745.67,83.0
745.73,81.0
745.79,65.0
745.86,91.0
745.92,88.0
745.98,92.0
746.05,85.0
746.11,87.0
746.17,77.0
746.23,94.0
746.3,90.0
746.36,77.0
746.42,70.0
746.49,83.0
746.55,89.0
746.61,77.0
746.68,79.0
746.74,88.0
746.8,88.0
746.86,73.0
746.93,78.0
746.99,72.0
747.05,67.0
747.12,73.0
747.18,73.0
747.24,77.0
747.31,55.0
747.37,57.0
747.43,67.0
747.49,71.0
747.56,77.0
747.62,77.0
747.68,86.0
747.75,75.0
747.81,91.0
747.87,83.0
747.94,92.0
748.0,102.0
748.06,73.0
748.12,106.0
748.19,95.0
748.25,108.0
748.31,116.0
748.38,109.0
748.44,124.0
748.5,109.0
748.57,110.0
748.63,127.0
748.69,110.0
748.75,120.0
748.82,132.0
748.88,131.0
748.94,133.0
749.01,127.0
749.07,109.0
749.13,132.0
749.2,138.0
749.26,147.0
749.32,138.0
749.38,134.0
749.45,145.0
749.51,147.0
749.57,151.0
749.64,141.0
749.7,164.0
749.76,150.0
749.83,153.0
749.89,150.0
749.95,151.0
750.01,138.0
750.08,152.0
750.14,180.0
750.2,146.0
750.27,151.0
750.33,143.0
750.39,154.0
750.46,149.0
750.52,142.0
750.58,143.0
750.64,122.0
750.71,149.0
750.77,144.0
750.83,132.0
750.9,153.0
750.96,163.0
751.02,151.0
751.09,158.0
751.15,178.0
751.21,143.0
751.27,146.0
751.34,132.0
751.4,146.0
751.46,132.0
751.53,144.0
751.59,141.0
751.65,146.0
751.72,157.0
751.78,143.0
751.84,126.0
751.9,152.0
751.97,161.0
752.03,151.0
752.09,143.0
752.16,147.0
752.22,139.0
752.28,149.0
752.35,158.0
752.41,158.0
752.47,127.0
752.53,113.0
752.6,128.0
752.66,150.0
752.72,144.0
752.79,119.0
752.85,111.0
752.91,110.0
752.98,118.0
753.04,121.0
753.1,129.0
753.16,110.0
753.23,120.0
753.29,118.0
753.35,116.0
753.42,111.0
753.48,110.0
753.54,124.0
753.61,114.0
753.67,104.0
753.73,98.0
753.79,113.0
753.86,126.0
753.92,132.0
753.98,122.0
754.05,107.0
754.11,79.0
754.17,114.0
754.24,132.0
754.3,115.0
754.36,132.0
754.42,128.0
754.49,138.0
754.55,129.0
754.61,126.0
754.68,123.0
754.74,130.0
754.8,130.0
754.87,127.0
754.93,128.0
754.99,133.0
755.05,115.0
755.12,108.0
755.18,99.0
755.24,98.0
755.31,110.0
755.37,96.0
755.43,100.0
755.5,108.0
755.56,116.0
755.62,103.0
755.68,110.0
755.75,115.0
755.81,96.0
755.87,102.0
755.94,111.0
756.0,101.0
756.06,96.0
756.13,97.0
756.19,94.0
756.25,82.0
756.31,70.0
756.38,105.0
756.44,71.0
756.5,64.0
756.57,60.0
756.63,45.0
756.69,64.0
756.76,56.0
756.82,47.0
756.88,54.0
756.94,58.0
757.01,55.0
757.07,40.0
757.13,54.0
757.2,36.0
757.26,50.0
757.32,51.0
757.39,37.0
757.45,58.0
757.51,56.0
757.57,56.0
757.64,62.0
757.7,61.0
757.76,69.0
757.83,47.0
757.89,69.0
757.95,72.0
758.02,68.0
758.08,61.0
758.14,58.0
758.2,55.0
758.27,61.0
758.33,62.0
758.39,47.0
758.46,48.0
758.52,54.0
758.58,61.0
758.65,84.0
758.71,80.0
758.77,65.0
758.83,64.0
758.9,62.0
758.96,63.0
759.02,73.0
759.09,79.0
759.15,55.0
759.21,84.0
759.28,68.0
759.34,86.0
759.4,98.0
759.46,98.0
759.53,107.0
759.59,101.0
759.65,94.0
759.72,80.0
759.78,92.0
759.84,91.0
759.91,89.0
759.97,110.0
760.03,99.0
760.09,85.0
760.16,102.0
760.22,105.0
760.28,87.0
760.35,94.0
760.41,86.0
760.47,94.0
760.54,93.0
760.6,82.0
760.66,86.0
760.72,79.0
760.79,86.0
760.85,76.0
760.91,75.0
760.98,77.0
761.04,80.0
761.1,102.0
761.17,83.0
761.23,96.0
761.29,86.0
761.35,108.0
761.42,113.0
761.48,91.0
761.54,84.0
761.61,75.0
761.67,76.0
761.73,60.0
761.8,68.0
761.86,60.0
761.92,57.0
761.98,74.0
762.05,70.0
762.11,62.0
762.17,76.0
762.24,86.0
762.3,89.0
762.36,111.0
762.43,98.0
762.49,95.0
762.55,106.0
762.61,91.0
762.68,106.0
762.74,109.0
762.8,97.0
762.87,102.0
762.93,83.0
762.99,80.0
763.06,70.0
763.12,81.0
763.18,81.0
763.24,84.0
763.31,73.0
763.37,61.0
763.43,80.0
763.5,56.0
763.56,67.0
763.62,68.0
763.69,66.0
763.75,83.0
763.81,64.0
763.87,94.0
763.94,74.0
764.0,65.0
764.06,66.0
764.13,63.0
764.19,84.0
764.25,80.0
764.32,68.0
764.38,84.0
764.44,75.0
764.5,73.0
764.57,78.0
764.63,75.0
764.69,92.0
764.76,89.0
764.82,111.0
764.88,97.0
764.95,81.0
765.01,92.0
765.07,90.0
765.13,98.0
765.2,89.0
765.26,68.0
765.32,81.0
765.39,98.0
765.45,100.0
765.51,125.0
765.58,123.0
765.64,110.0
765.7,122.0
765.76,117.0
765.83,123.0
765.89,106.0
765.95,131.0
766.02,131.0
766.08,131.0
766.14,137.0
766.21,133.0
766.27,128.0
766.33,109.0
766.39,118.0
766.46,111.0
766.52,120.0
766.58,125.0
766.65,128.0
766.71,127.0
766.77,102.0
766.84,121.0
766.9,127.0
766.96,124.0
767.02,174.0
767.09,152.0
767.15,152.0
767.21,152.0
767.28,147.0
767.34,150.0
767.4,150.0
767.47,168.0
767.53,173.0
767.59,173.0
767.65,168.0
767.72,180.0
767.78,180.0
767.84,173.0
767.91,188.0
767.97,181.0
768.03,196.0
768.1,203.0
768.16,199.0
768.22,190.0
768.28,195.0
768.35,192.0
768.41,187.0
768.47,189.0
768.54,187.0
768.6,197.0
768.66,191.0
768.73,185.0
768.79,213.0
768.85,201.0
768.91,196.0
768.98,190.0
769.04,201.0
769.1,194.0
769.17,187.0
769.23,201.0
769.29,197.0
769.36,179.0
769.42,181.0
769.48,193.0
769.54,185.0
769.61,204.0
769.67,179.0
769.73,176.0
769.8,193.0
769.86,184.0
769.92,189.0
769.99,197.0
770.05,179.0
770.11,191.0
770.17,181.0
770.24,176.0
770.3,184.0
770.36,186.0
770.43,184.0
770.49,182.0
770.55,214.0
770.62,215.0
770.68,212.0
770.74,203.0
770.8,215.0
770.87,196.0
770.93,201.0
770.99,196.0
771.06,204.0
771.12,204.0
771.18,205.0
771.25,202.0
771.31,197.0
771.37,196.0
771.43,206.0
771.5,199.0
771.56,212.0
771.62,218.0
771.69,201.0
771.75,194.0
771.81,198.0
771.88,177.0
771.94,160.0
772.0,168.0
772.06,178.0
772.13,157.0
772.19,141.0
772.25,146.0
772.32,139.0
772.38,143.0
772.44,135.0
772.51,145.0
772.57,141.0
772.63,135.0
772.69,134.0
772.76,139.0
772.82,113.0
772.88,101.0
772.95,94.0
773.01,110.0
773.07,113.0
773.14,88.0
773.2,82.0
773.26,89.0
773.32,102.0
773.39,77.0
773.45,69.0
773.51,80.0
773.58,72.0
773.64,91.0
773.7,108.0
773.77,102.0
773.83,117.0
773.89,112.0
773.95,106.0
774.02,97.0
774.08,103.0
774.14,88.0
774.21,102.0
774.27,114.0
774.33,97.0
774.4,102.0
774.46,102.0
774.52,116.0
774.58,125.0
774.65,135.0
774.71,125.0
774.77,131.0
774.84,143.0
774.9,131.0
774.96,139.0
775.03,125.0
775.09,126.0
775.15,117.0
775.21,135.0
775.28,130.0
775.34,132.0
775.4,108.0
775.47,103.0
775.53,125.0
775.59,117.0
775.66,123.0
775.72,117.0
775.78,131.0
775.84,130.0
775.91,135.0
775.97,135.0
776.03,129.0
776.1,135.0
776.16,131.0
776.22,121.0
776.29,117.0
776.35,139.0
776.41,120.0
776.47,141.0
776.54,141.0
776.6,133.0
776.66,156.0
776.73,131.0
776.79,143.0
776.85,143.0
776.92,119.0
776.98,141.0
777.04,135.0
777.1,146.0
777.17,150.0
777.23,144.0
777.29,139.0
777.36,133.0
777.42,130.0
777.48,146.0
777.55,139.0
777.61,137.0
777.67,154.0
777.73,143.0
777.8,150.0
777.86,135.0
777.92,142.0
777.99,139.0
778.05,140.0
778.11,141.0
778.18,136.0
778.24,127.0
778.3,128.0
778.36,117.0
778.43,141.0
778.49,109.0
778.55,107.0
778.62,106.0
778.68,109.0
778.74,103.0
778.81,97.0
778.87,104.0
778.93,91.0
778.99,84.0
779.06,73.0
779.12,76.0
779.18,69.0
779.25,74.0
779.31,75.0
779.37,86.0
779.44,83.0
779.5,88.0
779.56,68.0
779.62,73.0
779.69,81.0
779.75,105.0
779.81,84.0
779.88,103.0
779.94,112.0
780.0,109.0
780.07,96.0
780.13,86.0
780.19,91.0
780.25,86.0
780.32,84.0
780.38,100.0
780.44,91.0
780.51,79.0
780.57,89.0
780.63,99.0
780.7,88.0
780.76,86.0
780.82,69.0
780.88,69.0
780.95,56.0
781.01,67.0
781.07,91.0
781.14,86.0
781.2,86.0
781.26,86.0
781.33,66.0
781.39,75.0
781.45,90.0
781.51,84.0
781.58,81.0
781.64,102.0
781.7,103.0
781.77,105.0
781.83,118.0
781.89,122.0
781.96,114.0
782.02,98.0
782.08,102.0
782.14,100.0
782.21,98.0
782.27,100.0
782.33,114.0
782.4,114.0
782.46,115.0
782.52,116.0
782.59,105.0
782.65,113.0
782.71,113.0
782.77,88.0
782.84,120.0
782.9,105.0
782.96,120.0
783.03,145.0
783.09,124.0
783.15,139.0
783.22,141.0
783.28,122.0
783.34,130.0
783.4,125.0
783.47,116.0
783.53,136.0
783.59,144.0
783.66,149.0
783.72,168.0
783.78,138.0
783.85,154.0
783.91,163.0
783.97,158.0
784.03,164.0
784.1,164.0
784.16,156.0
784.22,161.0
784.29,150.0
784.35,145.0
784.41,153.0
784.48,154.0
784.54,150.0
784.6,130.0
784.66,157.0
784.73,173.0
784.79,157.0
784.85,179.0
784.92,168.0
784.98,185.0
785.04,185.0
785.11,187.0
785.17,185.0
785.23,200.0
785.29,207.0
785.36,198.0
785.42,205.0
785.48,196.0
785.55,215.0
785.61,216.0
785.67,199.0
785.74,187.0
785.8,166.0
785.86,185.0
785.92,187.0
785.99,173.0
786.05,194.0
786.11,183.0
786.18,165.0
786.24,170.0
786.3,164.0
786.37,180.0
786.43,163.0
786.49,174.0
786.55,185.0
786.62,166.0
786.68,150.0
786.74,168.0
786.81,176.0
786.87,177.0
786.93,172.0
787.0,166.0
787.06,156.0
787.12,175.0
787.18,157.0
787.25,153.0
787.31,159.0
787.37,159.0
787.44,153.0
787.5,159.0
787.56,168.0
787.63,188.0
787.69,179.0
787.75,171.0
787.81,170.0
787.88,154.0
787.94,186.0
788.0,136.0
788.07,155.0
788.13,128.0
788.19,131.0
788.26,130.0
788.32,130.0
788.38,128.0
788.44,128.0
788.51,121.0
788.57,142.0
788.63,125.0
788.7,123.0
788.76,136.0
788.82,110.0
788.89,118.0
788.95,108.0
789.01,123.0
789.07,123.0
789.14,115.0
789.2,106.0
789.26,63.0
789.33,56.0
789.39,81.0
789.45,91.0
789.52,92.0
789.58,90.0
789.64,76.0
789.7,86.0
789.77,84.0
789.83,77.0
789.89,63.0
789.96,80.0
790.02,77.0
790.08,75.0
790.15,82.0
790.21,78.0
790.27,69.0
790.33,77.0
790.4,91.0
790.46,74.0
790.52,54.0
790.59,67.0
790.65,61.0
790.71,51.0
790.78,78.0
790.84,65.0
790.9,70.0
790.96,77.0
791.03,79.0
791.09,69.0
791.15,81.0
791.22,73.0
791.28,67.0
791.34,69.0
791.41,90.0
791.47,110.0
791.53,69.0
791.59,74.0
791.66,71.0
791.72,80.0
791.78,86.0
791.85,76.0
791.91,80.0
791.97,91.0
792.04,106.0
792.1,106.0
792.16,95.0
792.22,89.0
792.29,91.0
792.35,96.0
792.41,73.0
792.48,81.0
792.54,66.0
792.6,61.0
792.67,82.0
792.73,66.0
792.79,71.0
792.85,78.0
792.92,105.0
792.98,81.0
793.04,95.0
793.11,107.0
793.17,106.0
793.23,102.0
793.3,96.0
793.36,98.0
793.42,103.0
793.48,113.0
793.55,117.0
793.61,98.0
793.67,92.0
793.74,72.0
793.8,86.0
793.86,94.0
793.93,82.0
793.99,88.0
794.05,90.0
794.11,104.0
794.18,91.0
794.24,80.0
794.3,75.0
794.37,94.0
794.43,109.0
794.49,106.0
794.56,112.0
794.62,113.0
794.68,94.0
794.74,94.0
794.81,117.0
794.87,86.0
794.93,90.0
795.0,76.0
795.06,73.0
795.12,76.0
795.19,78.0
795.25,90.0
795.31,83.0
795.37,102.0
795.44,103.0
795.5,100.0
795.56,105.0
795.63,98.0
795.69,105.0
795.75,116.0
795.82,105.0
795.88,97.0
795.94,89.0
796.0,95.0
796.07,105.0
796.13,110.0
796.19,92.0
796.26,105.0
796.32,108.0
796.38,102.0
796.45,95.0
796.51,109.0
796.57,113.0
796.63,101.0
796.7,101.0
796.76,82.0
796.82,95.0
796.89,94.0
796.95,78.0
797.01,79.0
797.08,101.0
797.14,103.0
797.2,96.0
797.26,89.0
797.33,75.0
797.39,97.0
797.45,100.0
797.52,103.0
797.58,98.0
797.64,99.0
797.71,102.0
797.77,89.0
797.83,83.0
797.89,72.0
797.96,78.0
798.02,87.0
798.08,78.0
798.15,65.0
798.21,73.0
798.27,64.0
798.34,72.0
798.4,69.0
798.46,55.0
798.52,51.0
798.59,56.0
798.65,53.0
798.71,80.0
798.78,67.0
798.84,63.0
798.9,65.0
798.97,66.0
799.03,58.0
799.09,56.0
799.15,61.0
799.22,73.0
799.28,52.0
799.34,53.0
799.41,58.0
799.47,72.0
799.53,65.0
799.6,91.0
799.66,90.0
799.72,94.0
799.78,108.0
799.85,106.0
799.91,111.0
799.97,127.0
800.04,110.0
800.1,119.0
800.16,108.0
800.23,100.0
800.29,113.0
800.35,117.0
800.41,99.0
800.48,103.0
800.54,86.0
800.6,103.0
800.67,122.0
800.73,106.0
800.79,117.0
800.86,115.0
800.92,121.0
800.98,114.0
801.04,111.0
801.11,130.0
801.17,125.0
801.23,130.0
801.3,149.0
801.36,165.0
801.42,168.0
801.49,156.0
801.55,157.0
801.61,147.0
801.67,141.0
801.74,153.0
801.8,158.0
801.86,153.0
801.93,121.0
801.99,136.0
802.05,166.0
802.12,175.0
802.18,166.0
802.24,144.0
802.3,156.0
802.37,165.0
802.43,161.0
802.49,183.0
802.56,168.0
802.62,166.0
802.68,180.0
802.75,169.0
802.81,164.0
802.87,172.0
802.93,168.0
803.0,153.0
803.06,155.0
803.12,158.0
803.19,161.0
803.25,167.0
803.31,170.0
803.38,171.0
803.44,172.0
803.5,158.0
803.56,155.0
803.63,161.0
803.69,177.0
803.75,175.0
803.82,171.0
803.88,176.0
803.94,177.0
804.01,173.0
804.07,177.0
804.13,174.0
804.19,177.0
804.26,170.0
804.32,153.0
804.38,169.0
804.45,163.0
804.51,176.0
804.57,198.0
804.64,169.0
804.7,172.0
804.76,169.0
804.82,173.0
804.89,170.0
804.95,171.0
805.01,168.0
805.08,173.0
805.14,178.0
805.2,180.0
805.27,180.0
805.33,172.0
805.39,185.0
805.45,168.0
805.52,169.0
805.58,143.0
805.64,146.0
805.71,153.0
805.77,133.0
805.83,144.0
805.9,141.0
805.96,116.0
806.02,119.0
806.08,120.0
806.15,120.0
806.21,126.0
806.27,104.0
806.34,106.0
806.4,108.0
806.46,101.0
806.53,105.0
806.59,110.0
806.65,121.0
806.71,98.0
806.78,105.0
806.84,113.0
806.9,112.0
806.97,107.0
807.03,91.0
807.09,86.0
807.16,84.0
807.22,110.0
807.28,92.0
807.34,107.0
807.41,115.0
807.47,102.0
807.53,97.0
807.6,104.0
807.66,100.0
807.72,105.0
807.79,116.0
807.85,106.0
807.91,76.0
807.97,89.0
808.04,100.0
808.1,82.0
808.16,84.0
808.23,96.0
808.29,87.0
808.35,100.0
808.42,81.0
808.48,85.0
808.54,91.0
808.6,64.0
808.67,69.0
808.73,85.0
808.79,86.0
808.86,84.0
808.92,89.0
808.98,78.0
809.05,62.0
809.11,49.0
809.17,56.0
809.23,58.0
809.3,59.0
809.36,69.0
809.42,70.0
809.49,56.0
809.55,56.0
809.61,67.0
809.68,58.0
809.74,53.0
809.8,73.0
809.86,74.0
809.93,82.0
809.99,92.0
810.05,83.0
810.12,104.0
810.18,90.0
810.24,102.0
810.31,111.0
810.37,97.0
810.43,104.0
810.49,95.0
810.56,94.0
810.62,93.0
810.68,105.0
810.75,94.0
810.81,110.0
810.87,128.0
810.94,103.0
811.0,114.0
811.06,105.0
811.12,109.0
811.19,95.0
811.25,102.0
811.31,95.0
811.38,86.0
811.44,84.0
811.5,76.0
811.57,86.0
811.63,91.0
811.69,106.0
811.75,103.0
811.82,91.0
811.88,94.0
811.94,83.0
812.01,75.0
812.07,87.0
812.13,86.0
812.2,85.0
812.26,81.0
812.32,94.0
812.38,95.0
812.45,77.0
812.51,89.0
812.57,89.0
812.64,80.0
812.7,82.0
812.76,68.0
812.83,79.0
812.89,61.0
812.95,80.0
813.01,75.0
813.08,69.0
813.14,64.0
813.2,50.0
813.27,71.0
813.33,80.0
813.39,83.0
813.46,58.0
813.52,52.0
813.58,73.0
813.64,52.0
813.71,59.0
813.77,59.0
813.83,62.0
813.9,56.0
813.96,46.0
814.02,72.0
814.09,67.0
814.15,55.0
814.21,49.0
814.27,46.0
814.34,48.0
814.4,27.0
814.46,13.0
814.53,32.0
814.59,25.0
814.65,40.0
814.72,13.0
814.78,33.0
814.84,29.0
814.9,61.0
814.97,37.0
815.03,17.0
815.09,33.0
815.16,39.0
815.22,29.0
815.28,19.0
815.35,18.0
815.41,17.0
815.47,25.0
815.53,-9.0
815.6,-4.0
815.66,-1.0
815.72,-13.0
815.79,-14.0
815.85,-9.0
815.91,-33.0
815.98,-1.0
816.04,-12.0
816.1,11.0
816.16,-2.0
816.23,6.0
816.29,15.0
816.35,-1.0
816.42,-6.0
816.48,21.0
816.54,61.0
816.61,48.0
816.67,35.0
816.73,58.0
816.79,57.0
816.86,39.0
816.92,50.0
816.98,43.0
817.05,46.0
817.11,65.0
817.17,36.0
817.24,36.0
817.3,30.0
817.36,32.0
817.42,39.0
817.49,52.0
817.55,54.0
817.61,28.0
817.68,21.0
817.74,43.0
817.8,53.0
817.87,39.0
817.93,32.0
817.99,46.0
818.05,50.0
818.12,54.0
818.18,58.0
818.24,36.0
818.31,38.0
818.37,40.0
818.43,27.0
818.5,43.0
818.56,33.0
818.62,43.0
818.68,59.0
818.75,48.0
818.81,61.0
818.87,74.0
818.94,79.0
819.0,65.0
819.06,85.0
819.13,82.0
819.19,101.0
819.25,106.0
819.31,111.0
819.38,90.0
819.44,76.0
819.5,97.0
819.57,119.0
819.63,100.0
819.69,99.0
819.76,100.0
819.82,102.0
819.88,127.0
819.94,119.0
820.01,128.0
820.07,128.0
820.13,136.0
820.2,127.0
820.26,114.0
820.32,124.0
820.39,116.0
820.45,129.0
820.51,133.0
820.57,151.0
820.64,147.0
820.7,142.0
820.76,138.0
820.83,146.0
820.89,155.0
820.95,155.0
821.02,164.0
821.08,161.0
821.14,155.0
821.2,160.0
821.27,160.0
821.33,153.0
821.39,161.0
821.46,150.0
821.52,157.0
821.58,145.0
821.65,143.0
821.71,140.0
821.77,134.0
821.83,147.0
821.9,126.0
821.96,123.0
822.02,125.0
822.09,139.0
822.15,156.0
822.21,149.0
822.28,146.0
822.34,160.0
822.4,158.0
822.46,160.0
822.53,153.0
822.59,151.0
822.65,160.0
822.72,145.0
822.78,144.0
822.84,120.0
822.91,148.0
822.97,144.0
823.03,125.0
823.09,124.0
823.16,122.0
823.22,145.0
823.28,131.0
823.35,123.0
823.41,137.0
823.47,126.0
823.54,120.0
823.6,129.0
823.66,124.0
823.72,110.0
823.79,113.0
823.85,120.0
823.91,96.0
823.98,120.0
824.04,119.0
824.1,134.0
824.17,115.0
824.23,110.0
824.29,142.0
824.35,144.0
824.42,130.0
824.48,120.0
824.54,122.0
824.61,111.0
824.67,115.0
824.73,118.0
824.8,116.0
824.86,123.0
824.92,114.0
824.98,95.0
825.05,118.0
825.11,117.0
825.17,111.0
825.24,116.0
825.3,122.0
825.36,108.0
825.43,124.0
825.49,135.0
825.55,145.0
825.61,131.0
825.68,138.0
825.74,119.0
825.8,134.0
825.87,140.0
825.93,131.0
825.99,152.0
826.06,154.0
826.12,130.0
826.18,137.0
826.24,133.0
826.31,145.0
826.37,140.0
826.43,141.0
826.5,152.0
826.56,158.0
826.62,174.0
826.69,175.0
826.75,170.0
826.81,175.0
826.87,157.0
826.94,153.0
827.0,164.0
827.06,166.0
827.13,153.0
827.19,164.0
827.25,171.0
827.32,181.0
827.38,186.0
827.44,190.0
827.5,191.0
827.57,194.0
827.63,186.0
827.69,193.0
827.76,197.0
827.82,197.0
827.88,176.0
827.95,199.0
828.01,197.0
828.07,166.0
828.13,159.0
828.2,160.0
828.26,168.0
828.32,149.0
828.39,162.0
828.45,150.0
828.51,158.0
828.58,170.0
828.64,162.0
828.7,145.0
828.76,145.0
828.83,163.0
828.89,149.0
828.95,154.0
829.02,175.0
829.08,167.0
829.14,152.0
829.21,164.0
829.27,164.0
829.33,146.0
829.39,155.0
829.46,153.0
829.52,171.0
829.58,163.0
829.65,149.0
829.71,167.0
829.77,169.0
829.84,156.0
829.9,157.0
829.96,165.0
830.02,164.0
830.09,149.0
830.15,163.0
830.21,149.0
830.28,152.0
830.34,152.0
830.4,144.0
830.47,160.0
830.53,162.0
830.59,159.0
830.65,156.0
830.72,140.0
830.78,153.0
830.84,149.0
830.91,162.0
830.97,166.0
831.03,168.0
831.1,161.0
831.16,141.0
831.22,158.0
831.28,149.0
831.35,130.0
831.41,139.0
831.47,139.0
831.54,130.0
831.6,158.0
831.66,153.0
831.73,152.0
831.79,153.0
831.85,142.0
831.91,159.0
831.98,155.0
832.04,136.0
832.1,130.0
832.17,123.0
832.23,124.0
832.29,131.0
832.36,129.0
832.42,139.0
832.48,149.0
832.54,148.0
832.61,145.0
832.67,142.0
832.73,150.0
832.8,164.0
832.86,151.0
832.92,141.0
832.99,132.0
833.05,173.0
833.11,154.0
833.17,128.0
833.24,138.0
833.3,129.0
833.36,138.0
833.43,147.0
833.49,156.0
833.55,146.0
833.62,172.0
833.68,179.0
833.74,157.0
833.8,167.0
833.87,154.0
833.93,158.0
833.99,169.0
834.06,161.0
834.12,177.0
834.18,164.0
834.25,175.0
834.31,185.0
834.37,167.0
834.43,165.0
834.5,182.0
834.56,171.0
834.62,179.0
834.69,169.0
834.75,158.0
834.81,173.0
834.88,160.0
834.94,169.0
835.0,166.0
835.06,154.0
835.13,167.0
835.19,174.0
835.25,164.0
835.32,157.0
835.38,170.0
835.44,181.0
835.51,183.0
835.57,175.0
835.63,172.0
835.69,164.0
835.76,165.0
835.82,160.0
835.88,160.0
835.95,167.0
836.01,177.0
836.07,179.0
836.14,180.0
836.2,175.0
836.26,175.0
836.32,156.0
836.39,177.0
836.45,185.0
836.51,177.0
836.58,166.0
836.64,176.0
836.7,184.0
836.77,172.0
836.83,178.0
836.89,170.0
836.95,196.0
837.02,174.0
837.08,176.0
837.14,186.0
837.21,176.0
837.27,191.0
837.33,172.0
837.4,161.0
837.46,145.0
837.52,163.0
837.58,181.0
837.65,170.0
837.71,172.0
837.77,175.0
837.84,165.0
837.9,166.0
837.96,171.0
838.03,167.0
838.09,155.0
838.15,170.0
838.21,141.0
838.28,154.0
838.34,155.0
838.4,137.0
838.47,149.0
838.53,134.0
838.59,137.0
838.66,145.0
838.72,131.0
838.78,133.0
838.84,126.0
838.91,98.0
838.97,105.0
839.03,130.0
839.1,119.0
839.16,109.0
839.22,97.0
839.29,116.0
839.35,106.0
839.41,112.0
839.47,106.0
839.54,116.0
839.6,136.0
839.66,121.0
839.73,126.0
839.79,118.0
839.85,105.0
839.92,107.0
839.98,98.0
840.04,83.0
840.1,91.0
840.17,101.0
840.23,92.0
840.29,80.0
840.36,88.0
840.42,87.0
840.48,71.0
840.55,66.0
840.61,73.0
840.67,78.0
840.73,77.0
840.8,57.0
840.86,57.0
840.92,65.0
840.99,52.0
841.05,59.0
841.11,59.0
841.18,57.0
841.24,57.0
841.3,49.0
841.36,63.0
841.43,37.0
841.49,53.0
841.55,65.0
841.62,58.0
841.68,58.0
841.74,51.0
841.81,62.0
841.87,67.0
841.93,49.0
841.99,70.0
842.06,50.0
842.12,46.0
842.18,70.0
842.25,54.0
842.31,58.0
842.37,49.0
842.44,62.0
842.5,61.0
842.56,42.0
842.62,40.0
842.69,56.0
842.75,45.0
842.81,44.0
842.88,50.0
842.94,56.0
843.0,59.0
843.07,74.0
843.13,60.0
843.19,57.0
843.25,67.0
843.32,62.0
843.38,66.0
843.44,64.0
843.51,83.0
843.57,58.0
843.63,66.0
843.7,54.0
843.76,56.0
843.82,72.0
843.88,72.0
843.95,79.0
844.01,98.0
844.07,94.0
844.14,99.0
844.2,94.0
844.26,96.0
844.33,117.0
844.39,108.0
844.45,100.0
844.51,102.0
844.58,106.0
844.64,66.0
844.7,95.0
844.77,109.0
844.83,111.0
844.89,97.0
844.96,95.0
845.02,91.0
845.08,117.0
845.14,102.0
845.21,115.0
845.27,111.0
845.33,105.0
845.4,108.0
845.46,103.0
845.52,114.0
845.59,109.0
845.65,102.0
845.71,90.0
845.77,87.0
845.84,91.0
845.9,87.0
845.96,68.0
846.03,75.0
846.09,69.0
846.15,79.0
846.22,87.0
846.28,80.0
846.34,82.0
846.4,88.0
846.47,78.0
846.53,96.0
846.59,84.0
846.66,91.0
846.72,90.0
846.78,64.0
846.85,80.0
846.91,63.0
846.97,90.0
847.03,101.0
847.1,91.0
847.16,87.0
847.22,86.0
847.29,94.0
847.35,76.0
847.41,97.0
847.48,82.0
847.54,79.0
847.6,74.0
847.66,98.0
847.73,88.0
847.79,72.0
847.85,73.0
847.92,91.0
847.98,61.0
848.04,86.0
848.11,99.0
848.17,91.0
848.23,96.0
848.29,86.0
848.36,114.0
848.42,105.0
848.48,111.0
848.55,112.0
848.61,100.0
848.67,114.0
848.74,97.0
848.8,86.0
848.86,83.0
848.92,89.0
848.99,100.0
849.05,96.0
849.11,87.0
849.18,95.0
849.24,87.0
849.3,72.0
849.37,86.0
849.43,92.0
849.49,102.0
849.55,111.0
849.62,99.0
849.68,105.0
849.74,90.0
849.81,98.0
849.87,119.0
849.93,93.0
850.0,95.0
850.06,94.0
850.12,105.0
850.18,98.0
850.25,86.0
850.31,94.0
850.37,103.0
850.44,81.0
850.5,105.0
850.56,94.0
850.63,76.0
850.69,87.0
850.75,83.0
850.81,111.0
850.88,92.0
850.94,95.0
851.0,97.0
851.07,105.0
851.13,115.0
851.19,118.0
851.26,125.0
851.32,134.0
851.38,121.0
851.44,120.0
851.51,136.0
851.57,138.0
851.63,150.0
851.7,119.0
851.76,107.0
851.82,119.0
851.89,118.0
851.95,139.0
852.01,146.0
852.07,141.0
852.14,140.0
852.2,147.0
852.26,153.0
852.33,159.0
852.39,146.0
852.45,135.0
852.52,153.0
852.58,159.0
852.64,151.0
852.7,154.0
852.77,151.0
852.83,168.0
852.89,168.0
852.96,170.0
853.02,156.0
853.08,168.0
853.15,177.0
853.21,161.0
853.27,170.0
853.33,158.0
853.4,147.0
853.46,150.0
853.52,177.0
853.59,163.0
853.65,152.0
853.71,147.0
853.78,152.0
853.84,160.0
853.9,172.0
853.96,178.0
854.03,192.0
854.09,174.0
854.15,179.0
854.22,176.0
854.28,177.0
854.34,190.0
854.41,180.0
854.47,182.0
854.53,190.0
854.59,184.0
854.66,193.0
854.72,171.0
854.78,154.0
854.85,170.0
854.91,180.0
854.97,169.0
855.04,171.0
855.1,179.0
855.16,156.0
855.22,158.0
855.29,172.0
855.35,157.0
855.41,141.0
855.48,142.0
855.54,163.0
855.6,174.0
855.67,158.0
855.73,149.0
855.79,145.0
855.85,145.0
855.92,151.0
855.98,147.0
856.04,135.0
856.11,153.0
856.17,123.0
856.23,109.0
856.3,122.0
856.36,122.0
856.42,94.0
856.48,103.0
856.55,100.0
856.61,94.0
856.67,83.0
856.74,86.0
856.8,112.0
856.86,85.0
856.93,84.0
856.99,102.0
857.05,101.0
857.11,95.0
857.18,91.0
857.24,81.0
857.3,67.0
857.37,75.0
857.43,59.0
857.49,46.0
857.56,22.0
857.62,47.0
857.68,22.0
857.74,33.0
857.81,46.0
857.87,53.0
857.93,47.0
858.0,72.0
858.06,47.0
858.12,45.0
858.19,71.0
858.25,65.0
858.31,63.0
858.37,79.0
858.44,79.0
858.5,84.0
858.56,71.0
858.63,71.0
858.69,71.0
858.75,82.0
858.82,73.0
858.88,83.0
858.94,87.0
859.0,76.0
859.07,86.0
859.13,88.0
859.19,100.0
859.26,87.0
859.32,89.0
859.38,89.0
859.45,83.0
859.51,83.0
859.57,91.0
859.63,96.0
859.7,90.0
859.76,77.0
859.82,91.0
859.89,93.0
859.95,97.0
860.01,111.0
860.08,111.0
860.14,103.0
860.2,100.0
860.26,103.0
860.33,119.0
860.39,135.0
860.45,116.0
860.52,117.0
860.58,120.0
860.64,108.0
860.71,111.0
860.77,105.0
860.83,98.0
860.89,98.0
860.96,99.0
861.02,101.0
861.08,107.0
861.15,88.0
861.21,95.0
861.27,94.0
861.34,87.0
861.4,102.0
861.46,100.0
861.52,100.0
861.59,101.0
861.65,114.0
861.71,94.0
861.78,116.0
861.84,119.0
861.9,116.0
861.97,89.0
862.03,90.0
862.09,106.0
862.15,91.0
862.22,110.0
862.28,114.0
862.34,112.0
862.41,105.0
862.47,113.0
862.53,116.0
862.6,113.0
862.66,125.0
862.72,119.0
862.78,104.0
862.85,135.0
862.91,136.0
862.97,123.0
863.04,131.0
863.1,144.0
863.16,132.0
863.23,120.0
863.29,139.0
863.35,149.0
863.41,141.0
863.48,148.0
863.54,148.0
863.6,148.0
863.67,159.0
863.73,128.0
863.79,134.0
863.86,131.0
863.92,120.0
863.98,117.0
864.04,100.0
864.11,108.0
864.17,105.0
864.23,116.0
864.3,83.0
864.36,108.0
864.42,119.0
864.49,98.0
864.55,113.0
864.61,115.0
864.67,119.0
864.74,101.0
864.8,92.0
864.86,93.0
864.93,89.0
864.99,96.0
865.05,86.0
865.12,97.0
865.18,91.0
865.24,83.0
865.3,78.0
865.37,73.0
865.43,76.0
865.49,68.0
865.56,83.0
865.62,62.0
865.68,81.0
865.75,76.0
865.81,77.0
865.87,78.0
865.93,78.0
866.0,67.0
866.06,56.0
866.12,90.0
866.19,82.0
866.25,79.0
866.31,77.0
866.38,79.0
866.44,92.0
866.5,81.0
866.56,71.0
866.63,101.0
866.69,109.0
866.75,98.0
866.82,106.0
866.88,92.0
866.94,88.0
867.01,106.0
867.07,112.0
867.13,91.0
867.19,81.0
867.26,116.0
867.32,124.0
867.38,130.0
867.45,142.0
867.51,134.0
867.57,133.0
867.64,135.0
867.7,125.0
867.76,133.0
867.82,137.0
867.89,130.0
867.95,141.0
868.01,132.0
868.08,136.0
868.14,144.0
868.2,144.0
868.27,144.0
868.33,111.0
868.39,131.0
868.45,126.0
868.52,124.0
868.58,123.0
868.64,127.0
868.71,124.0
868.77,124.0
868.83,148.0
868.9,124.0
868.96,127.0
869.02,138.0
869.08,154.0
869.15,156.0
869.21,150.0
869.27,147.0
869.34,142.0
869.4,158.0
869.46,151.0
869.53,163.0
869.59,156.0
869.65,153.0
869.71,160.0
869.78,153.0
869.84,157.0
869.9,144.0
869.97,160.0
870.03,147.0
870.09,156.0
870.16,161.0
870.22,145.0
870.28,154.0
870.34,186.0
870.41,173.0
870.47,182.0
870.53,185.0
870.6,180.0
870.66,175.0
870.72,182.0
870.79,180.0
870.85,168.0
870.91,174.0
870.97,174.0
871.04,178.0
871.1,193.0
871.16,186.0
871.23,197.0
871.29,193.0
871.35,177.0
871.42,157.0
871.48,156.0
871.54,169.0
871.6,174.0
871.67,187.0
871.73,185.0
871.79,167.0
871.86,166.0
871.92,171.0
871.98,172.0
872.05,178.0
872.11,162.0
872.17,182.0
872.23,172.0
872.3,158.0
872.36,145.0
872.42,131.0
872.49,144.0
872.55,129.0
872.61,139.0
872.68,115.0
872.74,116.0
872.8,124.0
872.86,127.0
872.93,125.0
872.99,97.0
873.05,79.0
873.12,92.0
873.18,78.0
873.24,78.0
873.31,84.0
873.37,90.0
873.43,79.0
873.49,88.0
873.56,92.0
873.62,98.0
873.68,102.0
873.75,86.0
873.81,82.0
873.87,90.0
873.94,82.0
874.0,96.0
874.06,97.0
874.12,98.0
874.19,103.0
874.25,92.0
874.31,87.0
874.38,95.0
874.44,83.0
874.5,83.0
874.57,91.0
874.63,91.0
874.69,89.0
874.75,67.0
874.82,74.0
874.88,76.0
874.94,57.0
875.01,72.0
875.07,70.0
875.13,49.0
875.2,60.0
875.26,65.0
875.32,85.0
875.38,67.0
875.45,61.0
875.51,81.0
875.57,95.0
875.64,98.0
875.7,81.0
875.76,101.0
875.83,117.0
875.89,111.0
875.95,121.0
876.01,93.0
876.08,100.0
876.14,105.0
876.2,101.0
876.27,123.0
876.33,131.0
876.39,110.0
876.46,117.0
876.52,103.0
876.58,112.0
876.64,96.0
876.71,92.0
876.77,103.0
876.83,91.0
876.9,103.0
876.96,104.0
877.02,124.0
877.09,117.0
877.15,102.0
877.21,118.0
877.27,122.0
877.34,115.0
877.4,106.0
877.46,131.0
877.53,157.0
877.59,153.0
877.65,153.0
877.72,155.0
877.78,125.0
877.84,136.0
877.9,146.0
877.97,133.0
878.03,128.0
878.09,130.0
878.16,129.0
878.22,123.0
878.28,133.0
878.35,138.0
878.41,121.0
878.47,128.0
878.53,121.0
878.6,134.0
878.66,133.0
878.72,147.0
878.79,147.0
878.85,145.0
878.91,152.0
878.98,133.0
879.04,117.0
879.1,139.0
879.16,140.0
879.23,120.0
879.29,132.0
879.35,138.0
879.42,133.0
879.48,127.0
879.54,133.0
879.61,127.0
879.67,126.0
879.73,131.0
879.79,118.0
879.86,112.0
879.92,109.0
879.98,120.0
880.05,122.0
880.11,150.0
880.17,156.0
880.24,149.0
880.3,150.0
880.36,150.0
880.42,153.0
880.49,157.0
880.55,149.0
880.61,146.0
880.68,156.0
880.74,167.0
880.8,152.0
880.87,161.0
880.93,150.0
880.99,134.0
881.05,151.0
881.12,161.0
881.18,159.0
881.24,162.0
881.31,145.0
881.37,146.0
881.43,140.0
881.5,146.0
881.56,147.0
881.62,164.0
881.68,155.0
881.75,134.0
881.81,131.0
881.87,136.0
881.94,114.0
882.0,121.0
882.06,125.0
882.13,142.0
882.19,143.0
882.25,116.0
882.31,126.0
882.38,135.0
882.44,127.0
882.5,122.0
882.57,121.0
882.63,102.0
882.69,127.0
882.76,117.0
882.82,145.0
882.88,127.0
882.94,133.0
883.01,138.0
883.07,115.0
883.13,118.0
883.2,123.0
883.26,119.0
883.32,91.0
883.39,116.0
883.45,133.0
883.51,133.0
883.57,148.0
883.64,125.0
883.7,146.0
883.76,133.0
883.83,129.0
883.89,154.0
883.95,150.0
884.02,152.0
884.08,160.0
884.14,133.0
884.2,97.0
884.27,115.0
884.33,116.0
884.39,136.0
884.46,139.0
884.52,132.0
884.58,139.0
884.65,103.0
884.71,117.0
884.77,149.0
884.83,138.0
884.9,141.0
884.96,156.0
885.02,164.0
885.09,162.0
885.15,171.0
885.21,167.0
885.28,186.0
885.34,177.0
885.4,164.0
885.46,168.0
885.53,164.0
885.59,165.0
885.65,179.0
885.72,174.0
885.78,169.0
885.84,173.0
885.91,162.0
885.97,172.0
886.03,167.0
886.09,177.0
886.16,175.0
886.22,188.0
886.28,190.0
886.35,182.0
886.41,177.0
886.47,167.0
886.54,183.0
886.6,196.0
886.66,178.0
886.72,198.0
886.79,189.0
886.85,196.0
886.91,210.0
886.98,187.0
887.04,176.0
887.1,201.0
887.17,202.0
887.23,187.0
887.29,176.0
887.35,178.0
887.42,160.0
887.48,161.0
887.54,177.0
887.61,177.0
887.67,176.0
887.73,186.0
887.8,197.0
887.86,186.0
887.92,189.0
887.98,189.0
888.05,197.0
888.11,204.0
888.17,193.0
888.24,184.0
888.3,202.0
888.36,207.0
888.43,204.0
888.49,192.0
888.55,204.0
888.61,193.0
888.68,193.0
888.74,200.0
888.8,185.0
888.87,180.0
888.93,163.0
888.99,168.0
889.06,147.0
889.12,162.0
889.18,170.0
889.24,155.0
889.31,150.0
889.37,172.0
889.43,158.0
889.5,167.0
889.56,165.0
889.62,152.0
889.69,153.0
889.75,145.0
889.81,153.0
889.87,145.0
889.94,146.0
890.0,139.0
890.06,177.0
890.13,175.0
890.19,150.0
890.25,146.0
890.32,139.0
890.38,142.0
890.44,127.0
890.5,139.0
890.57,141.0
890.63,143.0
890.69,142.0
890.76,131.0
890.82,128.0
890.88,123.0
890.95,122.0
891.01,137.0
891.07,117.0
891.13,84.0
891.2,94.0
891.26,81.0
891.32,78.0
891.39,84.0
891.45,86.0
891.51,88.0
891.58,85.0
891.64,83.0
891.7,84.0
891.76,84.0
891.83,71.0
891.89,89.0
891.95,50.0
892.02,50.0
892.08,62.0
892.14,79.0
892.21,71.0
892.27,87.0
892.33,105.0
892.39,96.0
892.46,96.0
892.52,90.0
892.58,93.0
892.65,89.0
892.71,87.0
892.77,87.0
892.84,113.0
892.9,106.0
892.96,96.0
893.02,105.0
893.09,117.0
893.15,89.0
893.21,74.0
893.28,65.0
893.34,80.0
893.4,62.0
893.47,74.0
893.53,73.0
893.59,62.0
893.65,73.0
893.72,82.0
893.78,74.0
893.84,68.0
893.91,82.0
893.97,72.0
894.03,72.0
894.1,105.0
894.16,97.0
894.22,93.0
894.28,93.0
894.35,90.0
894.41,88.0
894.47,105.0
894.54,107.0
894.6,105.0
894.66,107.0
894.73,125.0
894.79,120.0
894.85,119.0
894.91,111.0
894.98,94.0
895.04,81.0
895.1,89.0
895.17,105.0
895.23,99.0
895.29,93.0
895.36,91.0
895.42,102.0
895.48,98.0
895.54,99.0
895.61,92.0
895.67,72.0
895.73,85.0
895.8,67.0
895.86,82.0
895.92,85.0
895.99,71.0
896.05,75.0
896.11,69.0
896.17,70.0
896.24,91.0
896.3,78.0
896.36,74.0
896.43,100.0
896.49,94.0
896.55,91.0
896.62,90.0
896.68,78.0
896.74,73.0
896.8,72.0
896.87,61.0
896.93,58.0
896.99,76.0
897.06,78.0
897.12,93.0
897.18,86.0
897.25,98.0
897.31,94.0
897.37,90.0
897.43,91.0
897.5,84.0
897.56,77.0
897.62,76.0
897.69,86.0
897.75,64.0
897.81,86.0
897.88,78.0
897.94,65.0
898.0,71.0
898.06,68.0
898.13,72.0
898.19,65.0
898.25,59.0
898.32,69.0
898.38,64.0
898.44,59.0
898.51,85.0
898.57,69.0
898.63,88.0
898.69,82.0
898.76,87.0
898.82,65.0
898.88,91.0
898.95,70.0
899.01,65.0
899.07,89.0
899.14,83.0
899.2,82.0
899.26,82.0
899.32,91.0
899.39,69.0
899.45,54.0
899.51,65.0
899.58,84.0
899.64,80.0
899.7,84.0
899.77,99.0
899.83,95.0
899.89,86.0
899.95,108.0
900.02,107.0
900.08,107.0
900.14,81.0
900.21,88.0
900.27,102.0
900.33,89.0
900.4,103.0
900.46,93.0
900.52,81.0
900.58,94.0
900.65,95.0
900.71,113.0
900.77,108.0
900.84,119.0
900.9,140.0
900.96,125.0
901.03,102.0
901.09,107.0
901.15,132.0
901.21,122.0
901.28,131.0
901.34,138.0
901.4,134.0
901.47,142.0
901.53,134.0
901.59,155.0
901.66,161.0
901.72,146.0
901.78,162.0
901.84,130.0
901.91,133.0
901.97,159.0
902.03,154.0
902.1,159.0
902.16,147.0
902.22,144.0
902.29,145.0
902.35,166.0
902.41,158.0
902.47,147.0
902.54,147.0
902.6,156.0
902.66,164.0
902.73,153.0
902.79,145.0
902.85,161.0
902.92,158.0
902.98,153.0
903.04,141.0
903.1,163.0
903.17,175.0
903.23,149.0
903.29,160.0
903.36,162.0
903.42,166.0
903.48,179.0
903.55,166.0
903.61,158.0
903.67,155.0
903.73,167.0
903.8,170.0
903.86,145.0
903.92,177.0
903.99,154.0
904.05,140.0
904.11,162.0
904.18,148.0
904.24,157.0
904.3,175.0
904.36,175.0
904.43,178.0
904.49,174.0
904.55,177.0
904.62,185.0
904.68,182.0
904.74,174.0
904.81,190.0
904.87,189.0
904.93,193.0
904.99,196.0
905.06,189.0
905.12,199.0
905.18,205.0
905.25,207.0
905.31,202.0
905.37,201.0
905.44,201.0
905.5,196.0
905.56,210.0
905.62,205.0
905.69,208.0
905.75,186.0
905.81,205.0
905.88,213.0
905.94,178.0
906.0,204.0
906.07,193.0
906.13,191.0
906.19,207.0
906.25,188.0
906.32,183.0
906.38,186.0
906.44,179.0
906.51,175.0
906.57,169.0
906.63,154.0
906.7,135.0
906.76,133.0
906.82,136.0
906.88,136.0
906.95,147.0
907.01,131.0
907.07,132.0
907.14,160.0
907.2,158.0
907.26,149.0
907.33,158.0
907.39,170.0
907.45,169.0
907.51,164.0
907.58,155.0
907.64,153.0
907.7,139.0
907.77,141.0
907.83,134.0
907.89,145.0
907.96,122.0
908.02,138.0
908.08,131.0
908.14,139.0
908.21,145.0
908.27,134.0
908.33,120.0
908.4,100.0
908.46,127.0
908.52,103.0
908.59,122.0
908.65,87.0
908.71,101.0
908.77,116.0
908.84,101.0
908.9,101.0
908.96,98.0
909.03,116.0
909.09,117.0
909.15,138.0
909.22,142.0
909.28,128.0
909.34,112.0
909.4,118.0
909.47,113.0
909.53,113.0
909.59,94.0
909.66,104.0
909.72,119.0
909.78,110.0
909.85,119.0
909.91,110.0
909.97,92.0
910.03,91.0
910.1,105.0
910.16,114.0
910.22,118.0
910.29,107.0
910.35,116.0
910.41,118.0
910.48,97.0
910.54,131.0
910.6,117.0
910.66,116.0
910.73,125.0
910.79,125.0
910.85,133.0
910.92,125.0
910.98,129.0
911.04,122.0
911.11,123.0
911.17,137.0
911.23,124.0
911.29,100.0
911.36,103.0
911.42,112.0
911.48,110.0
911.55,112.0
911.61,125.0
911.67,124.0
911.74,108.0
911.8,111.0
911.86,109.0
911.92,89.0
911.99,84.0
912.05,69.0
912.11,72.0
912.18,77.0
912.24,107.0
912.3,133.0
912.37,116.0
912.43,120.0
912.49,122.0
912.55,111.0
912.62,110.0
912.68,100.0
912.74,87.0
912.81,92.0
912.87,91.0
912.93,95.0
913.0,118.0
913.06,109.0
913.12,98.0
913.18,101.0
913.25,91.0
913.31,105.0
913.37,120.0
913.44,103.0
913.5,87.0
913.56,113.0
913.63,108.0
913.69,124.0
913.75,118.0
913.81,110.0
913.88,114.0
913.94,122.0
914.0,119.0
914.07,133.0
914.13,120.0
914.19,91.0
914.26,97.0
914.32,127.0
914.38,107.0
914.44,102.0
914.51,111.0
914.57,113.0
914.63,111.0
914.7,95.0
914.76,81.0
914.82,100.0
914.89,86.0
914.95,94.0
915.01,81.0
915.07,71.0
915.14,70.0
915.2,70.0
915.26,61.0
915.33,55.0
915.39,61.0
915.45,75.0
915.52,80.0
915.58,61.0
915.64,77.0
915.7,87.0
915.77,92.0
915.83,99.0
915.89,104.0
915.96,95.0
916.02,90.0
916.08,78.0
916.15,81.0
916.21,96.0
916.27,101.0
916.33,101.0
916.4,106.0
916.46,94.0
916.52,106.0
916.59,108.0
916.65,89.0
916.71,79.0
916.78,106.0
916.84,87.0
916.9,95.0
916.96,104.0
917.03,93.0
917.09,124.0
917.15,106.0
917.22,97.0
917.28,91.0
917.34,87.0
917.41,95.0
917.47,84.0
917.53,91.0
917.59,96.0
917.66,83.0
917.72,85.0
917.78,86.0
917.85,91.0
917.91,87.0
917.97,84.0
918.04,96.0
918.1,113.0
918.16,96.0
918.22,112.0
918.29,116.0
918.35,112.0
918.41,134.0
918.48,138.0
918.54,133.0
918.6,141.0
918.67,146.0
918.73,125.0
918.79,126.0
918.85,118.0
918.92,120.0
918.98,125.0
919.04,117.0
919.11,147.0
919.17,139.0
919.23,146.0
919.3,149.0
919.36,138.0
919.42,161.0
919.48,172.0
919.55,171.0
919.61,167.0
919.67,186.0
919.74,193.0
919.8,200.0
919.86,188.0
919.93,191.0
919.99,196.0
920.05,192.0
920.11,199.0
920.18,198.0
920.24,166.0
920.3,183.0
920.37,188.0
920.43,169.0
920.49,157.0
920.56,160.0
920.62,137.0
920.68,146.0
920.74,176.0
920.81,170.0
920.87,180.0
920.93,183.0
921.0,164.0
921.06,178.0
921.12,180.0
921.19,174.0
921.25,176.0
921.31,186.0
921.37,197.0
921.44,204.0
921.5,184.0
921.56,192.0
921.63,197.0
921.69,193.0
921.75,190.0
921.82,205.0
921.88,215.0
921.94,213.0
922.0,204.0
922.07,204.0
922.13,211.0
922.19,213.0
922.26,211.0
922.32,217.0
922.38,211.0
922.45,221.0
922.51,216.0
922.57,211.0
922.63,199.0
922.7,196.0
922.76,196.0
922.82,202.0
922.89,190.0
922.95,196.0
923.01,227.0
923.08,202.0
923.14,222.0
923.2,215.0
923.26,216.0
923.33,200.0
923.39,193.0
923.45,215.0
923.52,195.0
923.58,195.0
923.64,189.0
923.71,184.0
923.77,186.0
923.83,197.0
923.89,180.0
923.96,193.0
924.02,195.0
924.08,186.0
924.15,180.0
924.21,171.0
924.27,173.0
924.34,166.0
924.4,174.0
924.46,163.0
924.52,169.0
924.59,178.0
924.65,166.0
924.71,155.0
924.78,146.0
924.84,155.0
924.9,152.0
924.97,167.0
925.03,133.0
925.09,146.0
925.15,154.0
925.22,136.0
925.28,120.0
925.34,149.0
925.41,127.0
925.47,123.0
925.53,142.0
925.6,149.0
925.66,146.0
925.72,159.0
925.78,142.0
925.85,145.0
925.91,147.0
925.97,155.0
926.04,159.0
926.1,157.0
926.16,146.0
926.23,144.0
926.29,163.0
926.35,161.0
926.41,155.0
926.48,147.0
926.54,147.0
926.6,158.0
926.67,147.0
926.73,140.0
926.79,125.0
926.86,136.0
926.92,144.0
926.98,117.0
927.04,131.0
927.11,127.0
927.17,133.0
927.23,134.0
927.3,128.0
927.36,138.0
927.42,127.0
927.49,137.0
927.55,123.0
927.61,120.0
927.67,149.0
927.74,134.0
927.8,121.0
927.86,138.0
927.93,120.0
927.99,126.0
928.05,137.0
928.12,128.0
928.18,129.0
928.24,147.0
928.3,144.0
928.37,119.0
928.43,127.0
928.49,123.0
928.56,138.0
928.62,136.0
928.68,124.0
928.75,118.0
928.81,118.0
928.87,127.0
928.93,100.0
929.0,116.0
929.06,93.0
929.12,92.0
929.19,88.0
929.25,66.0
929.31,87.0
929.38,91.0
929.44,89.0
929.5,106.0
929.56,94.0
929.63,81.0
929.69,95.0
929.75,90.0
929.82,100.0
929.88,87.0
929.94,84.0
930.01,88.0
930.07,82.0
930.13,87.0
930.19,72.0
930.26,50.0
930.32,65.0
930.38,84.0
930.45,90.0
930.51,92.0
930.57,87.0
930.64,79.0
930.7,78.0
930.76,71.0
930.82,71.0
930.89,64.0
930.95,74.0
931.01,73.0
931.08,62.0
931.14,63.0
931.2,76.0
931.27,70.0
931.33,67.0
931.39,62.0
931.45,66.0
931.52,85.0
931.58,87.0
931.64,115.0
931.71,103.0
931.77,76.0
931.83,83.0
931.9,89.0
931.96,76.0
932.02,58.0
932.08,69.0
932.15,85.0
932.21,72.0
932.27,69.0
932.34,51.0
932.4,59.0
932.46,64.0
932.53,72.0
932.59,70.0
932.65,65.0
932.71,68.0
932.78,75.0
932.84,90.0
932.9,57.0
932.97,64.0
933.03,70.0
933.09,63.0
933.16,72.0
933.22,86.0
933.28,90.0
933.34,57.0
933.41,62.0
933.47,62.0
933.53,45.0
933.6,62.0
933.66,74.0
933.72,86.0
933.79,74.0
933.85,82.0
933.91,69.0
933.97,65.0
934.04,61.0
934.1,109.0
934.16,86.0
934.23,79.0
934.29,82.0
934.35,94.0
934.42,67.0
934.48,91.0
934.54,104.0
934.6,105.0
934.67,117.0
934.73,121.0
934.79,132.0
934.86,121.0
934.92,124.0
934.98,135.0
935.05,133.0
935.11,127.0
935.17,117.0
935.23,141.0
935.3,112.0
935.36,116.0
935.42,141.0
935.49,149.0
935.55,151.0
935.61,143.0
935.68,142.0
935.74,158.0
935.8,146.0
935.86,154.0
935.93,164.0
935.99,149.0
936.05,144.0
936.12,157.0
936.18,154.0
936.24,162.0
936.31,166.0
936.37,152.0
936.43,150.0
936.49,150.0
936.56,174.0
936.62,179.0
936.68,165.0
936.75,181.0
936.81,171.0
936.87,169.0
936.94,167.0
937.0,164.0
937.06,202.0
937.12,181.0
937.19,180.0
937.25,182.0
937.31,184.0
937.38,175.0
937.44,191.0
937.5,193.0
937.57,192.0
937.63,208.0
937.69,204.0
937.75,203.0
937.82,188.0
937.88,182.0
937.94,216.0
938.01,202.0
938.07,213.0
938.13,207.0
938.2,184.0
938.26,193.0
938.32,208.0
938.38,206.0
938.45,210.0
938.51,211.0
938.57,202.0
938.64,239.0
938.7,240.0
938.76,227.0
938.83,240.0
938.89,212.0
938.95,199.0
939.01,212.0
939.08,193.0
939.14,210.0
939.2,215.0
939.27,218.0
939.33,191.0
939.39,224.0
939.46,236.0
939.52,221.0
939.58,227.0
939.64,228.0
939.71,210.0
939.77,222.0
939.83,209.0
939.9,203.0
939.96,191.0
940.02,209.0
940.09,212.0
940.15,202.0
940.21,213.0
940.27,223.0
940.34,212.0
940.4,200.0
940.46,203.0
940.53,199.0
940.59,192.0
940.65,195.0
940.72,191.0
940.78,168.0
940.84,154.0
940.9,143.0
940.97,143.0
941.03,161.0
941.09,164.0
941.16,161.0
941.22,161.0
941.28,149.0
941.35,166.0
941.41,160.0
941.47,141.0
941.53,141.0
941.6,144.0
941.66,177.0
941.72,139.0
941.79,149.0
941.85,162.0
941.91,174.0
941.98,142.0
942.04,167.0
942.1,163.0
942.16,156.0
942.23,168.0
942.29,162.0
942.35,142.0
942.42,146.0
942.48,141.0
942.54,135.0
942.61,155.0
942.67,157.0
942.73,147.0
942.79,152.0
942.86,165.0
942.92,174.0
942.98,163.0
943.05,177.0
943.11,147.0
943.17,148.0
943.24,127.0
943.3,140.0
943.36,146.0
943.42,171.0
943.49,160.0
943.55,159.0
943.61,139.0
943.68,142.0
943.74,155.0
943.8,164.0
943.87,152.0
943.93,135.0
943.99,125.0
944.05,89.0
944.12,97.0
944.18,128.0
944.24,132.0
944.31,129.0
944.37,124.0
944.43,113.0
944.5,132.0
944.56,112.0
944.62,109.0
944.68,105.0
944.75,105.0
944.81,101.0
944.87,109.0
944.94,102.0
945.0,80.0
945.06,81.0
945.13,86.0
945.19,82.0
945.25,89.0
945.31,65.0
945.38,75.0
945.44,73.0
945.5,73.0
945.57,73.0
945.63,52.0
945.69,80.0
945.76,70.0
945.82,68.0
945.88,75.0
945.94,65.0
946.01,56.0
946.07,74.0
946.13,62.0
946.2,69.0
946.26,41.0
946.32,55.0
946.39,57.0
946.45,30.0
946.51,54.0
946.57,47.0
946.64,33.0
946.7,45.0
946.76,51.0
946.83,63.0
946.89,72.0
946.95,68.0
947.02,37.0
947.08,50.0
947.14,65.0
947.2,63.0
947.27,36.0
947.33,38.0
947.39,54.0
947.46,48.0
947.52,48.0
947.58,43.0
947.65,58.0
947.71,53.0
947.77,48.0
947.83,60.0
947.9,48.0
947.96,45.0
948.02,40.0
948.09,23.0
948.15,17.0
948.21,43.0
948.28,40.0
948.34,39.0
948.4,28.0
948.46,31.0
948.53,53.0
948.59,44.0
948.65,40.0
948.72,35.0
948.78,34.0
948.84,57.0
948.91,63.0
948.97,48.0
949.03,65.0
949.09,53.0
949.16,56.0
949.22,67.0
949.28,59.0
949.35,60.0
949.41,67.0
949.47,58.0
949.54,45.0
949.6,48.0
949.66,62.0
949.72,67.0
949.79,38.0
949.85,55.0
949.91,69.0
949.98,48.0
950.04,65.0
950.1,47.0
950.17,29.0
950.23,21.0
950.29,28.0
950.35,38.0
950.42,14.0
950.48,32.0
950.54,25.0
950.61,15.0
950.67,8.0
950.73,9.0
950.8,14.0
950.86,-13.0
950.92,8.0
950.98,34.0
951.05,25.0
951.11,31.0
951.17,47.0
951.24,63.0
951.3,58.0
951.36,60.0
951.43,42.0
951.49,68.0
951.55,86.0
951.61,55.0
951.68,51.0
951.74,52.0
951.8,89.0
951.87,78.0
951.93,77.0
951.99,70.0
952.06,72.0
952.12,79.0
952.18,64.0
952.24,84.0
952.31,100.0
952.37,94.0
952.43,90.0
952.5,101.0
952.56,111.0
952.62,67.0
952.69,75.0
952.75,96.0
952.81,98.0
952.87,90.0
952.94,99.0
953.0,108.0
953.06,108.0
953.13,98.0
953.19,106.0
953.25,103.0
953.32,102.0
953.38,108.0
953.44,116.0
953.5,119.0
953.57,121.0
953.63,116.0
953.69,93.0
953.76,114.0
953.82,101.0
953.88,95.0
953.95,97.0
954.01,82.0
954.07,96.0
954.13,111.0
954.2,125.0
954.26,124.0
954.32,120.0
954.39,130.0
954.45,120.0
954.51,119.0
954.58,127.0
954.64,117.0
954.7,113.0
954.76,126.0
954.83,131.0
954.89,112.0
954.95,114.0
955.02,136.0
955.08,128.0
955.14,115.0
955.21,123.0
955.27,142.0
955.33,129.0
955.39,137.0
955.46,133.0
955.52,138.0
955.58,154.0
955.65,149.0
955.71,136.0
955.77,141.0
955.84,148.0
955.9,131.0
955.96,131.0
956.02,138.0
956.09,130.0
956.15,141.0
956.21,132.0
956.28,127.0
956.34,128.0
956.4,141.0
956.47,147.0
956.53,134.0
956.59,150.0
956.65,140.0
956.72,144.0
956.78,112.0
956.84,124.0
956.91,124.0
956.97,130.0
957.03,147.0
957.1,136.0
957.16,136.0
957.22,142.0
957.28,133.0
957.35,130.0
957.41,140.0
957.47,142.0
957.54,130.0
957.6,137.0
957.66,125.0
957.73,152.0
957.79,161.0
957.85,141.0
957.91,150.0
957.98,146.0
958.04,141.0
958.1,131.0
958.17,124.0
958.23,126.0
958.29,143.0
958.36,151.0
958.42,154.0
958.48,150.0
958.54,130.0
958.61,135.0
958.67,128.0
958.73,130.0
958.8,142.0
958.86,138.0
958.92,155.0
958.99,149.0
959.05,137.0
959.11,114.0
959.17,115.0
959.24,126.0
959.3,121.0
959.36,127.0
959.43,153.0
959.49,131.0
959.55,140.0
959.62,147.0
959.68,134.0
959.74,130.0
959.8,124.0
959.87,142.0
959.93,119.0
959.99,125.0
960.06,128.0
960.12,148.0
960.18,138.0
960.25,123.0
960.31,152.0
960.37,146.0
960.43,126.0
960.5,141.0
960.56,141.0
960.62,152.0
960.69,161.0
960.75,134.0
960.81,123.0
960.88,140.0
960.94,160.0
961.0,156.0
961.06,144.0
961.13,141.0
961.19,142.0
961.25,148.0
961.32,163.0
961.38,152.0
961.44,153.0
961.51,144.0
961.57,143.0
961.63,137.0
961.69,158.0
961.76,139.0
961.82,130.0
961.88,114.0
961.95,112.0
962.01,117.0
962.07,133.0
962.14,128.0
962.2,130.0
962.26,134.0
962.32,114.0
962.39,106.0
962.45,102.0
962.51,115.0
962.58,115.0
962.64,108.0
962.7,124.0
962.77,109.0
962.83,121.0
962.89,120.0
962.95,101.0
963.02,119.0
963.08,105.0
963.14,108.0
963.21,97.0
963.27,94.0
963.33,108.0
963.4,92.0
963.46,101.0
963.52,86.0
963.58,87.0
963.65,86.0
963.71,78.0
963.77,89.0
963.84,113.0
963.9,101.0
963.96,94.0
964.03,108.0
964.09,112.0
964.15,126.0
964.21,113.0
964.28,112.0
964.34,96.0
964.4,98.0
964.47,92.0
964.53,59.0
964.59,83.0
964.66,85.0
964.72,87.0
964.78,75.0
964.84,68.0
964.91,85.0
964.97,62.0
965.03,62.0
965.1,70.0
965.16,78.0
965.22,64.0
965.29,47.0
965.35,66.0
965.41,46.0
965.47,40.0
965.54,29.0
965.6,37.0
965.66,35.0
965.73,41.0
965.79,22.0
965.85,29.0
965.92,33.0
965.98,37.0
966.04,52.0
966.1,38.0
966.17,49.0
966.23,51.0
966.29,63.0
966.36,38.0
966.42,53.0
966.48,61.0
966.55,56.0
966.61,57.0
966.67,44.0
966.73,63.0
966.8,79.0
966.86,86.0
966.92,66.0
966.99,89.0
967.05,104.0
967.11,108.0
967.18,82.0
967.24,87.0
967.3,71.0
967.36,67.0
967.43,104.0
967.49,109.0
967.55,103.0
967.62,86.0
967.68,79.0
967.74,72.0
967.81,79.0
967.87,70.0
967.93,83.0
967.99,79.0
968.06,61.0
968.12,63.0
968.18,63.0
968.25,60.0
968.31,64.0
968.37,72.0
968.44,86.0
968.5,85.0
968.56,76.0
968.62,59.0
968.69,95.0
968.75,85.0
968.81,68.0
968.88,67.0
968.94,60.0
969.0,63.0
969.07,82.0
969.13,73.0
969.19,86.0
969.25,85.0
969.32,66.0
969.38,77.0
969.44,73.0
969.51,97.0
969.57,96.0
969.63,100.0
969.7,109.0
969.76,101.0
969.82,112.0
969.88,108.0
969.95,93.0
970.01,122.0
970.07,104.0
970.14,104.0
970.2,104.0
970.26,108.0
970.33,112.0
970.39,114.0
970.45,97.0
970.51,113.0
970.58,109.0
970.64,112.0
970.7,117.0
970.77,120.0
970.83,101.0
970.89,115.0
970.96,116.0
971.02,109.0
971.08,118.0
971.14,129.0
971.21,133.0
971.27,119.0
971.33,106.0
971.4,120.0
971.46,109.0
971.52,117.0
971.59,121.0
971.65,128.0
971.71,142.0
971.77,134.0
971.84,130.0
971.9,129.0
971.96,130.0
972.03,143.0
972.09,132.0
972.15,144.0
972.22,132.0
972.28,134.0
972.34,130.0
972.4,141.0
972.47,153.0
972.53,134.0
972.59,144.0
972.66,134.0
972.72,130.0
972.78,129.0
972.85,126.0
972.91,134.0
972.97,132.0
973.03,137.0
973.1,130.0
973.16,127.0
973.22,149.0
973.29,143.0
973.35,143.0
973.41,125.0
973.48,127.0
973.54,138.0
973.6,146.0
973.66,149.0
973.73,146.0
973.79,134.0
973.85,133.0
973.92,135.0
973.98,142.0
974.04,128.0
974.11,140.0
974.17,135.0
974.23,133.0
974.29,130.0
974.36,132.0
974.42,128.0
974.48,125.0
974.55,151.0
974.61,136.0
974.67,128.0
974.74,125.0
974.8,135.0
974.86,152.0
974.92,141.0
974.99,142.0
975.05,146.0
975.11,134.0
975.18,136.0
975.24,162.0
975.3,130.0
975.37,125.0
975.43,132.0
975.49,122.0
975.55,130.0
975.62,138.0
975.68,125.0
975.74,126.0
975.81,123.0
975.87,122.0
975.93,123.0
976.0,113.0
976.06,127.0
976.12,147.0
976.18,131.0
976.25,141.0
976.31,134.0
976.37,122.0
976.44,105.0
976.5,109.0
976.56,133.0
976.63,112.0
976.69,125.0
976.75,145.0
976.81,153.0
976.88,138.0
976.94,150.0
977.0,158.0
977.07,145.0
977.13,149.0
977.19,147.0
977.26,132.0
977.32,141.0
977.38,134.0
977.44,127.0
977.51,135.0
977.57,156.0
977.63,171.0
977.7,154.0
977.76,141.0
977.82,144.0
977.89,123.0
977.95,130.0
978.01,138.0
978.07,122.0
978.14,148.0
978.2,129.0
978.26,135.0
978.33,127.0
978.39,124.0
978.45,137.0
978.52,144.0
978.58,142.0
978.64,160.0
978.7,134.0
978.77,120.0
978.83,127.0
978.89,113.0
978.96,127.0
979.02,124.0
979.08,98.0
979.15,120.0
979.21,130.0
979.27,103.0
979.33,103.0
979.4,108.0
979.46,119.0
979.52,140.0
979.59,118.0
979.65,137.0
979.71,128.0
979.78,119.0
979.84,116.0
979.9,106.0
979.96,101.0
980.03,97.0
980.09,103.0
980.15,127.0
980.22,110.0
980.28,92.0
980.34,123.0
980.41,128.0
980.47,119.0
980.53,116.0
980.59,141.0
980.66,128.0
980.72,112.0
980.78,126.0
980.85,123.0
980.91,119.0
980.97,116.0
981.04,112.0
981.1,117.0
981.16,109.0
981.22,108.0
981.29,97.0
981.35,90.0
981.41,119.0
981.48,115.0
981.54,127.0
981.6,112.0
981.67,127.0
981.73,114.0
981.79,121.0
981.85,110.0
981.92,98.0
981.98,114.0
982.04,94.0
982.11,108.0
982.17,86.0
982.23,90.0
982.3,110.0
982.36,96.0
982.42,102.0
982.48,102.0
982.55,112.0
982.61,117.0
982.67,102.0
982.74,113.0
982.8,92.0
982.86,112.0
982.93,123.0
982.99,101.0
983.05,95.0
983.11,101.0
983.18,106.0
983.24,120.0
983.3,107.0
983.37,111.0
983.43,112.0
983.49,88.0
983.56,62.0
983.62,95.0
983.68,79.0
983.74,78.0
983.81,92.0
983.87,50.0
983.93,82.0
984.0,98.0
984.06,87.0
984.12,65.0
984.19,77.0
984.25,86.0
984.31,97.0
984.37,94.0
984.44,118.0
984.5,104.0
984.56,82.0
984.63,102.0
984.69,131.0
984.75,125.0
984.82,126.0
984.88,108.0
984.94,87.0
985.0,91.0
985.07,84.0
985.13,77.0
985.19,86.0
985.26,116.0
985.32,122.0
985.38,120.0
985.45,127.0
985.51,116.0
985.57,131.0
985.63,159.0
985.7,135.0
985.76,134.0
985.82,134.0
985.89,140.0
985.95,122.0
986.01,138.0
986.08,142.0
986.14,150.0
986.2,155.0
986.26,153.0
986.33,165.0
986.39,136.0
986.45,149.0
986.52,176.0
986.58,157.0
986.64,161.0
986.71,150.0
986.77,156.0
986.83,175.0
986.89,154.0
986.96,142.0
987.02,153.0
987.08,133.0
987.15,147.0
987.21,160.0
987.27,152.0
987.34,150.0
987.4,153.0
987.46,144.0
987.52,150.0
987.59,154.0
987.65,159.0
987.71,167.0
987.78,175.0
987.84,163.0
987.9,166.0
987.97,152.0
988.03,154.0
988.09,142.0
988.15,167.0
988.22,169.0
988.28,157.0
988.34,158.0
988.41,172.0
988.47,163.0
988.53,180.0
988.6,171.0
988.66,163.0
988.72,166.0
988.78,190.0
988.85,157.0
988.91,174.0
988.97,188.0
989.04,156.0
989.1,160.0
989.16,150.0
989.23,171.0
989.29,185.0
989.35,169.0
989.41,189.0
989.48,175.0
989.54,191.0
989.6,207.0
989.67,174.0
989.73,189.0
989.79,167.0
989.86,163.0
989.92,164.0
989.98,172.0
990.04,180.0
990.11,176.0
990.17,185.0
990.23,183.0
990.3,182.0
990.36,154.0
990.42,152.0
990.49,147.0
990.55,146.0
990.61,160.0
990.67,146.0
990.74,142.0
990.8,134.0
990.86,155.0
990.93,129.0
990.99,147.0
991.05,143.0
991.12,132.0
991.18,121.0
991.24,129.0
991.3,137.0
991.37,133.0
991.43,148.0
991.49,138.0
991.56,132.0
991.62,127.0
991.68,123.0
991.75,127.0
991.81,129.0
991.87,141.0
991.93,137.0
992.0,136.0
992.06,150.0
992.12,141.0
992.19,141.0
992.25,137.0
992.31,120.0
992.38,133.0
992.44,130.0
992.5,127.0
992.56,136.0
992.63,135.0
992.69,147.0
992.75,145.0
992.82,159.0
992.88,145.0
992.94,131.0
993.01,147.0
993.07,142.0
993.13,133.0
993.19,150.0
993.26,164.0
993.32,136.0
993.38,150.0
993.45,178.0
993.51,151.0
993.57,153.0
993.64,156.0
993.7,134.0
993.76,142.0
993.82,141.0
993.89,139.0
993.95,166.0
994.01,163.0
994.08,156.0
994.14,155.0
994.2,180.0
994.27,160.0
994.33,159.0
994.39,169.0
994.45,171.0
994.52,189.0
994.58,172.0
994.64,193.0
994.71,212.0
994.77,182.0
994.83,189.0
994.9,188.0
994.96,186.0
995.02,174.0
995.08,164.0
995.15,178.0
995.21,178.0
995.27,176.0
995.34,168.0
995.4,168.0
995.46,145.0
995.53,137.0
995.59,148.0
995.65,163.0
995.71,147.0
995.78,115.0
995.84,120.0
995.9,111.0
995.97,115.0
996.03,109.0
996.09,112.0
996.16,112.0
996.22,108.0
996.28,101.0
996.34,104.0
996.41,113.0
996.47,91.0
996.53,104.0
996.6,100.0
996.66,104.0
996.72,101.0
996.79,96.0
996.85,86.0
996.91,71.0
996.97,87.0
997.04,91.0
997.1,84.0
997.16,99.0
997.23,112.0
997.29,100.0
997.35,86.0
997.42,85.0
997.48,103.0
997.54,101.0
997.6,94.0
997.67,114.0
997.73,81.0
997.79,87.0
997.86,99.0
997.92,81.0
997.98,91.0
998.05,104.0
998.11,84.0
998.17,99.0
998.23,86.0
998.3,75.0
998.36,64.0
998.42,73.0
998.49,77.0
998.55,85.0
998.61,90.0
998.68,86.0
998.74,43.0
998.8,45.0
998.86,73.0
998.93,76.0
998.99,48.0
999.05,67.0
999.12,77.0
999.18,60.0
999.24,64.0
999.31,67.0
999.37,67.0
999.43,86.0
999.49,97.0
999.56,79.0
999.62,79.0
999.68,90.0
999.75,93.0
999.81,96.0
999.87,78.0
