timestamp,intensity
0,-201.0
0.06,-208.0
0.13,-196.0
0.19,-183.0
0.25,-183.0
0.32,-188.0
0.38,-188.0
0.44,-202.0
0.5,-207.0
0.57,-186.0
0.63,-190.0
0.69,-195.0
0.76,-200.0
0.82,-189.0
0.88,-197.0
0.94,-213.0
1.01,-215.0
1.07,-211.0
1.13,-231.0
1.2,-230.0
1.26,-227.0
1.32,-232.0
1.39,-225.0
1.45,-231.0
1.51,-234.0
1.57,-258.0
1.64,-260.0
1.7,-222.0
1.76,-229.0
1.83,-213.0
1.89,-243.0
1.95,-243.0
2.02,-231.0
2.08,-223.0
2.14,-227.0
2.2,-251.0
2.27,-233.0
2.33,-226.0
2.39,-228.0
2.46,-242.0
2.52,-228.0
2.58,-221.0
2.65,-218.0
2.71,-231.0
2.77,-220.0
2.84,-229.0
2.9,-239.0
2.96,-243.0
3.02,-218.0
3.09,-211.0
3.15,-211.0
3.21,-196.0
3.28,-211.0
3.34,-204.0
3.4,-221.0
3.47,-213.0
3.53,-204.0
3.59,-211.0
3.65,-209.0
3.72,-205.0
3.78,-214.0
3.84,-190.0
3.91,-189.0
3.97,-217.0
4.03,-224.0
4.1,-203.0
4.16,-203.0
4.22,-190.0
4.28,-199.0
4.35,-202.0
4.41,-184.0
4.47,-195.0
4.54,-210.0
4.6,-209.0
4.66,-229.0
4.73,-215.0
4.79,-244.0
4.85,-231.0
4.91,-215.0
4.98,-226.0
5.04,-216.0
5.1,-205.0
5.17,-192.0
5.23,-168.0
5.29,-179.0
5.35,-181.0
5.42,-188.0
5.48,-177.0
5.54,-199.0
5.61,-191.0
5.67,-185.0
5.73,-176.0
5.8,-187.0
5.86,-215.0
5.92,-197.0
5.98,-219.0
6.05,-229.0
6.11,-209.0
6.17,-235.0
6.24,-225.0
6.3,-211.0
6.36,-198.0
6.43,-187.0
6.49,-199.0
6.55,-192.0
6.61,-204.0
6.68,-214.0
6.74,-215.0
6.8,-214.0
6.87,-193.0
6.93,-203.0
6.99,-211.0
7.06,-212.0
7.12,-222.0
7.18,-220.0
7.24,-222.0
7.31,-232.0
7.37,-244.0
7.43,-233.0
7.5,-215.0
7.56,-210.0
7.62,-187.0
7.69,-204.0
7.75,-197.0
7.81,-214.0
7.87,-207.0
7.94,-211.0
8.0,-206.0
8.06,-204.0
8.13,-215.0
8.19,-217.0
8.25,-214.0
8.32,-205.0
8.38,-211.0
8.44,-204.0
8.5,-198.0
8.57,-216.0
8.63,-213.0
8.69,-204.0
8.76,-205.0
8.82,-227.0
8.88,-230.0
8.95,-218.0
9.01,-208.0
9.07,-218.0
9.13,-216.0
9.2,-223.0
9.26,-221.0
9.32,-212.0
9.39,-222.0
9.45,-231.0
9.51,-216.0
9.58,-220.0
9.64,-215.0
9.7,-228.0
9.77,-243.0
9.83,-225.0
9.89,-212.0
9.95,-215.0
10.02,-231.0
10.08,-234.0
10.14,-226.0
10.21,-232.0
10.27,-238.0
10.33,-231.0
10.4,-245.0
10.46,-240.0
10.52,-243.0
10.58,-242.0
10.65,-221.0
10.71,-223.0
10.77,-223.0
10.84,-240.0
10.9,-222.0
10.96,-214.0
11.03,-238.0
11.09,-225.0
11.15,-247.0
11.21,-227.0
11.28,-211.0
11.34,-232.0
11.4,-193.0
11.47,-207.0
11.53,-197.0
11.59,-199.0
11.66,-201.0
11.72,-200.0
11.78,-208.0
11.84,-215.0
11.91,-215.0
11.97,-205.0
12.03,-201.0
12.1,-225.0
12.16,-229.0
12.22,-241.0
12.29,-261.0
12.35,-238.0
12.41,-232.0
12.47,-232.0
12.54,-242.0
12.6,-223.0
12.66,-229.0
12.73,-242.0
12.79,-259.0
12.85,-248.0
12.92,-256.0
12.98,-239.0
13.04,-234.0
13.1,-229.0
13.17,-224.0
13.23,-251.0
13.29,-238.0
13.36,-220.0
13.42,-218.0
13.48,-228.0
13.55,-220.0
13.61,-240.0
13.67,-222.0
13.73,-222.0
13.8,-250.0
13.86,-239.0
13.92,-238.0
13.99,-226.0
14.05,-223.0
14.11,-240.0
14.18,-248.0
14.24,-234.0
14.3,-240.0
14.36,-224.0
14.43,-229.0
14.49,-237.0
14.55,-239.0
14.62,-244.0
14.68,-216.0
14.74,-227.0
14.81,-222.0
14.87,-224.0
14.93,-243.0
14.99,-236.0
15.06,-232.0
15.12,-232.0
15.18,-209.0
15.25,-215.0
15.31,-233.0
15.37,-246.0
15.44,-239.0
15.5,-215.0
15.56,-218.0
15.62,-211.0
15.69,-234.0
15.75,-212.0
15.81,-198.0
15.88,-216.0
15.94,-214.0
16.0,-205.0
16.07,-229.0
16.13,-196.0
16.19,-232.0
16.25,-254.0
16.32,-229.0
16.38,-226.0
16.44,-217.0
16.51,-202.0
16.57,-210.0
16.63,-198.0
16.7,-181.0
16.76,-182.0
16.82,-194.0
16.88,-183.0
16.95,-173.0
17.01,-179.0
17.07,-166.0
17.14,-170.0
17.2,-193.0
17.26,-187.0
17.33,-188.0
17.39,-195.0
17.45,-186.0
17.51,-169.0
17.58,-176.0
17.64,-152.0
17.7,-166.0
17.77,-166.0
17.83,-180.0
17.89,-186.0
17.96,-174.0
18.02,-163.0
18.08,-172.0
18.14,-168.0
18.21,-164.0
18.27,-160.0
18.33,-156.0
18.4,-152.0
18.46,-157.0
18.52,-153.0
18.59,-157.0
18.65,-153.0
18.71,-151.0
18.77,-167.0
18.84,-151.0
18.9,-165.0
18.96,-145.0
19.03,-148.0
19.09,-164.0
19.15,-155.0
19.22,-169.0
19.28,-162.0
19.34,-159.0
19.4,-139.0
19.47,-130.0
19.53,-126.0
19.59,-132.0
19.66,-123.0
19.72,-159.0
19.78,-145.0
19.84,-175.0
19.91,-164.0
19.97,-172.0
20.03,-156.0
20.1,-170.0
20.16,-169.0
20.22,-152.0
20.29,-155.0
20.35,-169.0
20.41,-152.0
20.47,-164.0
20.54,-165.0
20.6,-155.0
20.66,-163.0
20.73,-167.0
20.79,-161.0
20.85,-160.0
20.92,-158.0
20.98,-165.0
21.04,-154.0
21.1,-159.0
21.17,-174.0
21.23,-173.0
21.29,-177.0
21.36,-167.0
21.42,-154.0
21.48,-159.0
21.55,-164.0
21.61,-144.0
21.67,-162.0
21.73,-158.0
21.8,-153.0
21.86,-154.0
21.92,-163.0
21.99,-164.0
22.05,-159.0
22.11,-173.0
22.18,-173.0
22.24,-161.0
22.3,-158.0
22.36,-169.0
22.43,-165.0
22.49,-174.0
22.55,-183.0
22.62,-169.0
22.68,-188.0
22.74,-197.0
22.81,-186.0
22.87,-183.0
22.93,-179.0
22.99,-178.0
23.06,-174.0
23.12,-193.0
23.18,-180.0
23.25,-170.0
23.31,-173.0
23.37,-181.0
23.44,-183.0
23.5,-176.0
23.56,-164.0
23.62,-198.0
23.69,-214.0
23.75,-201.0
23.81,-209.0
23.88,-201.0
23.94,-192.0
24.0,-211.0
24.07,-209.0
24.13,-189.0
24.19,-181.0
24.25,-189.0
24.32,-187.0
24.38,-189.0
24.44,-174.0
24.51,-203.0
24.57,-210.0
24.63,-207.0
24.7,-196.0
24.76,-182.0
24.82,-199.0
24.88,-209.0
24.95,-198.0
25.01,-189.0
25.07,-204.0
25.14,-194.0
25.2,-190.0
25.26,-205.0
25.33,-200.0
25.39,-191.0
25.45,-197.0
25.51,-192.0
25.58,-198.0
25.64,-170.0
25.7,-187.0
25.77,-180.0
25.83,-166.0
25.89,-178.0
25.96,-191.0
26.02,-187.0
26.08,-207.0
26.14,-221.0
26.21,-211.0
26.27,-202.0
26.33,-211.0
26.4,-200.0
26.46,-205.0
26.52,-212.0
26.59,-210.0
26.65,-218.0
26.71,-221.0
26.77,-241.0
26.84,-225.0
26.9,-215.0
26.96,-211.0
27.03,-214.0
27.09,-240.0
27.15,-214.0
27.22,-232.0
27.28,-220.0
27.34,-233.0
27.4,-231.0
27.47,-207.0
27.53,-199.0
27.59,-188.0
27.66,-213.0
27.72,-217.0
27.78,-211.0
27.85,-206.0
27.91,-193.0
27.97,-190.0
28.03,-199.0
28.1,-190.0
28.16,-190.0
28.22,-195.0
28.29,-193.0
28.35,-184.0
28.41,-191.0
28.48,-183.0
28.54,-185.0
28.6,-168.0
28.66,-180.0
28.73,-176.0
28.79,-184.0
28.85,-179.0
28.92,-206.0
28.98,-212.0
29.04,-218.0
29.11,-210.0
29.17,-201.0
29.23,-214.0
29.29,-207.0
29.36,-213.0
29.42,-193.0
29.48,-209.0
29.55,-221.0
29.61,-230.0
29.67,-218.0
29.74,-219.0
29.8,-207.0
29.86,-197.0
29.92,-194.0
29.99,-193.0
30.05,-193.0
30.11,-195.0
30.18,-176.0
30.24,-195.0
30.3,-202.0
30.37,-209.0
30.43,-192.0
30.49,-202.0
30.55,-205.0
30.62,-200.0
30.68,-198.0
30.74,-210.0
30.81,-220.0
30.87,-223.0
30.93,-226.0
31.0,-213.0
31.06,-227.0
31.12,-239.0
31.18,-242.0
31.25,-240.0
31.31,-237.0
31.37,-221.0
31.44,-238.0
31.5,-247.0
31.56,-247.0
31.63,-243.0
31.69,-225.0
31.75,-209.0
31.81,-229.0
31.88,-225.0
31.94,-221.0
32.0,-215.0
32.07,-199.0
32.13,-195.0
32.19,-199.0
32.26,-217.0
32.32,-209.0
32.38,-193.0
32.44,-178.0
32.51,-181.0
32.57,-170.0
32.63,-165.0
32.7,-167.0
32.76,-181.0
32.82,-194.0
32.89,-174.0
32.95,-174.0
33.01,-183.0
33.07,-182.0
33.14,-186.0
33.2,-172.0
33.26,-184.0
33.33,-181.0
33.39,-177.0
33.45,-175.0
33.52,-165.0
33.58,-150.0
33.64,-168.0
33.7,-168.0
33.77,-156.0
33.83,-143.0
33.89,-158.0
33.96,-167.0
34.02,-149.0
34.08,-149.0
34.15,-135.0
34.21,-147.0
34.27,-143.0
34.33,-148.0
34.4,-163.0
34.46,-170.0
34.52,-151.0
34.59,-145.0
34.65,-159.0
34.71,-160.0
34.78,-165.0
34.84,-144.0
34.9,-158.0
34.96,-174.0
35.03,-203.0
35.09,-193.0
35.15,-187.0
35.22,-172.0
35.28,-187.0
35.34,-192.0
35.41,-191.0
35.47,-186.0
35.53,-187.0
35.59,-203.0
35.66,-196.0
35.72,-200.0
35.78,-208.0
35.85,-205.0
35.91,-196.0
35.97,-202.0
36.04,-196.0
36.1,-188.0
36.16,-202.0
36.22,-188.0
36.29,-187.0
36.35,-173.0
36.41,-163.0
36.48,-167.0
36.54,-171.0
36.6,-173.0
36.67,-170.0
36.73,-147.0
36.79,-152.0
36.85,-165.0
36.92,-144.0
36.98,-150.0
37.04,-161.0
37.11,-165.0
37.17,-150.0
37.23,-153.0
37.3,-163.0
37.36,-164.0
37.42,-165.0
37.48,-145.0
37.55,-160.0
37.61,-167.0
37.67,-155.0
37.74,-159.0
37.8,-144.0
37.86,-146.0
37.93,-153.0
37.99,-151.0
38.05,-161.0
38.12,-163.0
38.18,-156.0
38.24,-150.0
38.3,-154.0
38.37,-163.0
38.43,-176.0
38.49,-162.0
38.56,-159.0
38.62,-142.0
38.68,-141.0
38.75,-171.0
38.81,-154.0
38.87,-170.0
38.93,-165.0
39.0,-167.0
39.06,-163.0
39.12,-149.0
39.19,-146.0
39.25,-153.0
39.31,-137.0
39.38,-139.0
39.44,-153.0
39.5,-123.0
39.56,-125.0
39.63,-118.0
39.69,-114.0
39.75,-119.0
39.82,-122.0
39.88,-133.0
39.94,-109.0
40.01,-101.0
40.07,-81.0
40.13,-104.0
40.19,-108.0
40.26,-96.0
40.32,-108.0
40.38,-124.0
40.45,-94.0
40.51,-103.0
40.57,-109.0
40.64,-102.0
40.7,-111.0
40.76,-110.0
40.82,-102.0
40.89,-112.0
40.95,-112.0
41.01,-123.0
41.08,-119.0
41.14,-127.0
41.2,-149.0
41.27,-152.0
41.33,-127.0
41.39,-126.0
41.45,-131.0
41.52,-137.0
41.58,-120.0
41.64,-108.0
41.71,-106.0
41.77,-113.0
41.83,-113.0
41.9,-111.0
41.96,-109.0
42.02,-116.0
42.08,-121.0
42.15,-121.0
42.21,-118.0
42.27,-115.0
42.34,-124.0
42.4,-131.0
42.46,-120.0
42.53,-104.0
42.59,-105.0
42.65,-115.0
42.71,-130.0
42.78,-112.0
42.84,-102.0
42.9,-115.0
42.97,-134.0
43.03,-123.0
43.09,-113.0
43.16,-120.0
43.22,-138.0
43.28,-123.0
43.34,-128.0
43.41,-116.0
43.47,-108.0
43.53,-112.0
43.6,-106.0
43.66,-97.0
43.72,-111.0
43.79,-89.0
43.85,-90.0
43.91,-84.0
43.97,-92.0
44.04,-72.0
44.1,-88.0
44.16,-89.0
44.23,-99.0
44.29,-103.0
44.35,-111.0
44.42,-79.0
44.48,-53.0
44.54,-81.0
44.6,-80.0
44.67,-92.0
44.73,-77.0
44.79,-79.0
44.86,-66.0
44.92,-46.0
44.98,-44.0
45.05,-46.0
45.11,-55.0
45.17,-58.0
45.23,-73.0
45.3,-78.0
45.36,-78.0
45.42,-82.0
45.49,-74.0
45.55,-86.0
45.61,-85.0
45.68,-84.0
45.74,-78.0
45.8,-78.0
45.86,-65.0
45.93,-76.0
45.99,-80.0
46.05,-66.0
46.12,-80.0
46.18,-68.0
46.24,-50.0
46.31,-72.0
46.37,-64.0
46.43,-68.0
46.49,-47.0
46.56,-30.0
46.62,-26.0
46.68,-46.0
46.75,-41.0
46.81,-30.0
46.87,-34.0
46.94,-30.0
47.0,-16.0
47.06,-35.0
47.12,-46.0
47.19,-34.0
47.25,-31.0
47.31,-45.0
47.38,-52.0
47.44,-47.0
47.5,-41.0
47.57,-29.0
47.63,-26.0
47.69,-37.0
47.75,-37.0
47.82,-53.0
47.88,-32.0
47.94,-41.0
48.01,-26.0
48.07,-12.0
48.13,-31.0
48.2,-44.0
48.26,-23.0
48.32,-39.0
48.38,-41.0
48.45,-26.0
48.51,-8.0
48.57,-13.0
48.64,-12.0
48.7,-28.0
48.76,-45.0
48.83,-36.0
48.89,-45.0
48.95,-35.0
49.01,-28.0
49.08,-40.0
49.14,-37.0
49.2,-52.0
49.27,-58.0
49.33,-42.0
49.39,-29.0
49.46,-42.0
49.52,-59.0
49.58,-46.0
49.64,-51.0
49.71,-23.0
49.77,-29.0
49.83,-1.0
49.9,-14.0
49.96,1.0
50.02,9.0
50.09,-2.0
50.15,9.0
50.21,-17.0
50.27,1.0
50.34,-1.0
50.4,1.0
50.46,-8.0
50.53,-26.0
50.59,-15.0
50.65,7.0
50.72,-14.0
50.78,-21.0
50.84,-3.0
50.9,-7.0
50.97,-9.0
51.03,-17.0
51.09,-9.0
51.16,4.0
51.22,-9.0
51.28,4.0
51.35,-13.0
51.41,7.0
51.47,16.0
51.53,-11.0
51.6,-5.0
51.66,-6.0
51.72,4.0
51.79,-3.0
51.85,-7.0
51.91,14.0
51.98,-8.0
52.04,-4.0
52.1,-12.0
52.16,-13.0
52.23,-26.0
52.29,-19.0
52.35,-25.0
52.42,-30.0
52.48,-40.0
52.54,-35.0
52.61,-40.0
52.67,-42.0
52.73,-40.0
52.79,-65.0
52.86,-63.0
52.92,-66.0
52.98,-67.0
53.05,-61.0
53.11,-57.0
53.17,-50.0
53.24,-72.0
53.3,-53.0
53.36,-37.0
53.42,-54.0
53.49,-61.0
53.55,-65.0
53.61,-45.0
53.68,-61.0
53.74,-52.0
53.8,-45.0
53.87,-52.0
53.93,-53.0
53.99,-41.0
54.05,-48.0
54.12,-44.0
54.18,-24.0
54.24,-48.0
54.31,-43.0
54.37,-26.0
54.43,-34.0
54.5,-28.0
54.56,-33.0
54.62,-32.0
54.68,-19.0
54.75,-46.0
54.81,-42.0
54.87,-47.0
54.94,-36.0
55.0,-23.0
55.06,-14.0
55.13,-6.0
55.19,-16.0
55.25,6.0
55.31,12.0
55.38,8.0
55.44,4.0
55.5,-9.0
55.57,19.0
55.63,4.0
55.69,-4.0
55.76,19.0
55.82,20.0
55.88,25.0
55.94,6.0
56.01,13.0
56.07,8.0
56.13,-2.0
56.2,-8.0
56.26,-1.0
56.32,-35.0
56.39,-34.0
56.45,-36.0
56.51,-44.0
56.57,-60.0
56.64,-56.0
56.7,-61.0
56.76,-55.0
56.83,-81.0
56.89,-79.0
56.95,-74.0
57.02,-61.0
57.08,-53.0
57.14,-71.0
57.2,-64.0
57.27,-64.0
57.33,-57.0
57.39,-56.0
57.46,-68.0
57.52,-79.0
57.58,-47.0
57.65,-67.0
57.71,-65.0
57.77,-92.0
57.83,-87.0
57.9,-59.0
57.96,-73.0
58.02,-61.0
58.09,-58.0
58.15,-46.0
58.21,-27.0
58.28,-7.0
58.34,-18.0
58.4,-33.0
58.46,-39.0
58.53,-40.0
58.59,-23.0
58.65,-23.0
58.72,-33.0
58.78,-20.0
58.84,-25.0
58.91,-32.0
58.97,-26.0
59.03,-34.0
59.09,-42.0
59.16,-37.0
59.22,-44.0
59.28,-22.0
59.35,-25.0
59.41,-44.0
59.47,-40.0
59.54,-45.0
59.6,-30.0
59.66,-35.0
59.72,-39.0
59.79,-33.0
59.85,-39.0
59.91,-63.0
59.98,-65.0
60.04,-63.0
60.1,-68.0
60.17,-68.0
60.23,-71.0
60.29,-64.0
60.35,-98.0
60.42,-82.0
60.48,-64.0
60.54,-80.0
60.61,-68.0
60.67,-70.0
60.73,-57.0
60.8,-55.0
60.86,-62.0
60.92,-69.0
60.98,-35.0
61.05,-26.0
61.11,-37.0
61.17,-38.0
61.24,-43.0
61.3,-32.0
61.36,-18.0
61.43,-1.0
61.49,-18.0
61.55,-32.0
61.61,-3.0
61.68,-22.0
61.74,-34.0
61.8,-28.0
61.87,-32.0
61.93,-32.0
61.99,-24.0
62.06,-28.0
62.12,-25.0
62.18,-22.0
62.24,-27.0
62.31,-30.0
62.37,-33.0
62.43,-26.0
62.5,-36.0
62.56,-39.0
62.62,-20.0
62.69,-41.0
62.75,-44.0
62.81,-65.0
62.87,-52.0
62.94,-58.0
63.0,-71.0
63.06,-70.0
63.13,-72.0
63.19,-73.0
63.25,-73.0
63.32,-61.0
63.38,-40.0
63.44,-39.0
63.5,-53.0
63.57,-42.0
63.63,-38.0
63.69,-37.0
63.76,-48.0
63.82,-29.0
63.88,-47.0
63.95,-56.0
64.01,-50.0
64.07,-25.0
64.13,-40.0
64.2,-55.0
64.26,-20.0
64.32,-35.0
64.39,-24.0
64.45,-43.0
64.51,-37.0
64.58,-30.0
64.64,-43.0
64.7,-54.0
64.76,-59.0
64.83,-55.0
64.89,-43.0
64.95,-30.0
65.02,-46.0
65.08,-41.0
65.14,-44.0
65.21,-43.0
65.27,-44.0
65.33,-42.0
65.39,-53.0
65.46,-41.0
65.52,-40.0
65.58,-27.0
65.65,-27.0
65.71,-22.0
65.77,-35.0
65.84,-47.0
65.9,-39.0
65.96,-24.0
66.02,9.0
66.09,-15.0
66.15,-32.0
66.21,2.0
66.28,18.0
66.34,-2.0
66.4,-2.0
66.47,-13.0
66.53,-13.0
66.59,-25.0
66.65,-34.0
66.72,-16.0
66.78,-35.0
66.84,-27.0
66.91,-6.0
66.97,-20.0
67.03,-21.0
67.1,-26.0
67.16,-33.0
67.22,-20.0
67.28,-10.0
67.35,-13.0
67.41,-25.0
67.47,-13.0
67.54,-20.0
67.6,-29.0
67.66,-35.0
67.73,-23.0
67.79,-1.0
67.85,-1.0
67.91,-8.0
67.98,-7.0
68.04,-9.0
68.1,0.0
68.17,-6.0
68.23,-27.0
68.29,-41.0
68.36,-23.0
68.42,-20.0
68.48,-20.0
68.54,-11.0
68.61,-1.0
68.67,-16.0
68.73,-20.0
68.8,-25.0
68.86,-51.0
68.92,-48.0
68.99,-45.0
69.05,-24.0
69.11,-28.0
69.17,-9.0
69.24,0.0
69.3,3.0
69.36,-18.0
69.43,-26.0
69.49,-11.0
69.55,-8.0
69.62,-14.0
69.68,-22.0
69.74,-23.0
69.8,-5.0
69.87,-11.0
69.93,3.0
69.99,2.0
70.06,14.0
70.12,16.0
70.18,27.0
70.25,23.0
70.31,9.0
70.37,21.0
70.43,18.0
70.5,8.0
70.56,26.0
70.62,23.0
70.69,38.0
70.75,42.0
70.81,27.0
70.88,16.0
70.94,34.0
71.0,40.0
71.06,27.0
71.13,38.0
71.19,45.0
71.25,33.0
71.32,25.0
71.38,15.0
71.44,5.0
71.51,24.0
71.57,26.0
71.63,13.0
71.69,44.0
71.76,35.0
71.82,38.0
71.88,54.0
71.95,22.0
72.01,21.0
72.07,10.0
72.14,33.0
72.2,45.0
72.26,44.0
72.32,40.0
72.39,54.0
72.45,40.0
72.51,34.0
72.58,29.0
72.64,52.0
72.7,29.0
72.77,34.0
72.83,27.0
72.89,27.0
72.95,46.0
73.02,19.0
73.08,30.0
73.14,32.0
73.21,12.0
73.27,1.0
73.33,21.0
73.4,20.0
73.46,20.0
73.52,7.0
73.58,10.0
73.65,-6.0
73.71,-1.0
73.77,-7.0
73.84,-9.0
73.9,9.0
73.96,-6.0
74.03,9.0
74.09,-9.0
74.15,-10.0
74.21,-22.0
74.28,-16.0
74.34,-9.0
74.4,5.0
74.47,17.0
74.53,16.0
74.59,12.0
74.66,32.0
74.72,33.0
74.78,15.0
74.84,9.0
74.91,-1.0
74.97,-3.0
75.03,0.0
75.1,-13.0
75.16,16.0
75.22,0.0
75.29,-1.0
75.35,8.0
75.41,-2.0
75.47,-11.0
75.54,14.0
75.6,14.0
75.66,13.0
75.73,3.0
75.79,-6.0
75.85,-16.0
75.92,0.0
75.98,0.0
76.04,11.0
76.1,9.0
76.17,0.0
76.23,-15.0
76.29,10.0
76.36,-13.0
76.42,-12.0
76.48,-14.0
76.55,-24.0
76.61,-4.0
76.67,-6.0
76.73,-17.0
76.8,-28.0
76.86,-25.0
76.92,-37.0
76.99,-42.0
77.05,-45.0
77.11,-35.0
77.18,-24.0
77.24,-21.0
77.3,-30.0
77.36,-28.0
77.43,-34.0
77.49,-35.0
77.55,-42.0
77.62,-34.0
77.68,-18.0
77.74,-15.0
77.81,-18.0
77.87,-15.0
77.93,-37.0
77.99,-25.0
78.06,-31.0
78.12,-37.0
78.18,-22.0
78.25,-40.0
78.31,-30.0
78.37,-23.0
78.44,-18.0
78.5,-25.0
78.56,-42.0
78.62,-27.0
78.69,-18.0
78.75,-42.0
78.81,-42.0
78.88,-28.0
78.94,-17.0
79.0,-17.0
79.07,-26.0
79.13,-19.0
79.19,-27.0
79.25,-52.0
79.32,-37.0
79.38,-26.0
79.44,-51.0
79.51,-55.0
79.57,-42.0
79.63,-32.0
79.7,-31.0
79.76,-22.0
79.82,-33.0
79.88,-29.0
79.95,-20.0
80.01,-29.0
80.07,-30.0
80.14,-11.0
80.2,-41.0
80.26,-20.0
80.33,-34.0
80.39,-26.0
80.45,-27.0
80.51,-52.0
80.58,-61.0
80.64,-45.0
80.7,-20.0
80.77,-42.0
80.83,-37.0
80.89,-29.0
80.96,-34.0
81.02,-58.0
81.08,-57.0
81.14,-48.0
81.21,-37.0
81.27,-43.0
81.33,-46.0
81.4,-24.0
81.46,-41.0
81.52,-39.0
81.59,-20.0
81.65,-24.0
81.71,-29.0
81.77,-27.0
81.84,-31.0
81.9,-25.0
81.96,-25.0
82.03,-28.0
82.09,-31.0
82.15,-31.0
82.22,-43.0
82.28,-46.0
82.34,-50.0
82.4,-49.0
82.47,-54.0
82.53,-51.0
82.59,-38.0
82.66,-22.0
82.72,-31.0
82.78,-40.0
82.85,-27.0
82.91,-45.0
82.97,-53.0
83.03,-34.0
83.1,-24.0
83.16,-13.0
83.22,-7.0
83.29,-27.0
83.35,5.0
83.41,6.0
83.48,-5.0
83.54,1.0
83.6,-7.0
83.66,-20.0
83.73,-21.0
83.79,-6.0
83.85,12.0
83.92,15.0
83.98,3.0
84.04,2.0
84.11,7.0
84.17,-1.0
84.23,0.0
84.29,6.0
84.36,6.0
84.42,0.0
84.48,-11.0
84.55,2.0
84.61,-19.0
84.67,-10.0
84.74,-9.0
84.8,-28.0
84.86,-30.0
84.92,-24.0
84.99,-21.0
85.05,-31.0
85.11,-28.0
85.18,-14.0
85.24,-9.0
85.3,-4.0
85.37,-2.0
85.43,-6.0
85.49,15.0
85.55,7.0
85.62,11.0
85.68,23.0
85.74,1.0
85.81,6.0
85.87,-4.0
85.93,-14.0
86.0,-13.0
86.06,14.0
86.12,-9.0
86.18,-28.0
86.25,-16.0
86.31,7.0
86.37,14.0
86.44,-8.0
86.5,-11.0
86.56,2.0
86.63,12.0
86.69,6.0
86.75,21.0
86.81,3.0
86.88,6.0
86.94,-8.0
87.0,-4.0
87.07,4.0
87.13,25.0
87.19,4.0
87.26,-7.0
87.32,11.0
87.38,-10.0
87.44,-2.0
87.51,-15.0
87.57,-11.0
87.63,20.0
87.7,16.0
87.76,1.0
87.82,20.0
87.89,23.0
87.95,23.0
88.01,14.0
88.07,24.0
88.14,22.0
88.2,13.0
88.26,39.0
88.33,44.0
88.39,55.0
88.45,45.0
88.52,35.0
88.58,10.0
88.64,8.0
88.7,16.0
88.77,18.0
88.83,11.0
88.89,23.0
88.96,30.0
89.02,44.0
89.08,24.0
89.15,14.0
89.21,23.0
89.27,25.0
89.33,8.0
89.4,27.0
89.46,24.0
89.52,7.0
89.59,18.0
89.65,6.0
89.71,13.0
89.78,28.0
89.84,17.0
89.9,59.0
89.96,51.0
90.03,40.0
90.09,53.0
90.15,41.0
90.22,34.0
90.28,23.0
90.34,12.0
90.41,30.0
90.47,3.0
90.53,0.0
90.59,8.0
90.66,7.0
90.72,2.0
90.78,16.0
90.85,2.0
90.91,-1.0
90.97,5.0
91.04,-31.0
91.1,-12.0
91.16,-26.0
91.22,-19.0
91.29,-9.0
91.35,-35.0
91.41,-30.0
91.48,-29.0
91.54,-18.0
91.6,-24.0
91.67,-22.0
91.73,-4.0
91.79,-3.0
91.85,-20.0
91.92,-6.0
91.98,-10.0
92.04,-3.0
92.11,-15.0
92.17,-16.0
92.23,-13.0
92.3,-10.0
92.36,-16.0
92.42,-30.0
92.48,-27.0
92.55,-27.0
92.61,-27.0
92.67,0.0
92.74,21.0
92.8,12.0
92.86,15.0
92.93,15.0
92.99,15.0
93.05,-15.0
93.11,8.0
93.18,1.0
93.24,9.0
93.3,12.0
93.37,0.0
93.43,-9.0
93.49,-7.0
93.56,0.0
93.62,-2.0
93.68,-9.0
93.74,-10.0
93.81,2.0
93.87,-8.0
93.93,-15.0
94.0,-7.0
94.06,-21.0
94.12,-20.0
94.19,-30.0
94.25,-40.0
94.31,-18.0
94.37,-3.0
94.44,-2.0
94.5,4.0
94.56,-9.0
94.63,-14.0
94.69,-16.0
94.75,-25.0
94.82,-27.0
94.88,-39.0
94.94,-19.0
95.0,-10.0
95.07,-21.0
95.13,1.0
95.19,-4.0
95.26,-5.0
95.32,-10.0
95.38,-12.0
95.45,-11.0
95.51,-27.0
95.57,-16.0
95.63,18.0
95.7,-3.0
95.76,-1.0
95.82,15.0
95.89,9.0
95.95,5.0
96.01,-3.0
96.08,19.0
96.14,22.0
96.2,32.0
96.26,37.0
96.33,31.0
96.39,29.0
96.45,23.0
96.52,26.0
96.58,28.0
96.64,27.0
96.71,47.0
96.77,37.0
96.83,44.0
96.89,46.0
96.96,37.0
97.02,46.0
97.08,52.0
97.15,66.0
97.21,72.0
97.27,55.0
97.34,73.0
97.4,55.0
97.46,61.0
97.52,55.0
97.59,52.0
97.65,58.0
97.71,66.0
97.78,58.0
97.84,54.0
97.9,67.0
97.97,67.0
98.03,70.0
98.09,67.0
98.15,73.0
98.22,80.0
98.28,80.0
98.34,81.0
98.41,47.0
98.47,48.0
98.53,56.0
98.6,49.0
98.66,62.0
98.72,62.0
98.78,52.0
98.85,67.0
98.91,72.0
98.97,75.0
99.04,80.0
99.1,88.0
99.16,91.0
99.23,87.0
99.29,76.0
99.35,86.0
99.41,87.0
99.48,109.0
99.54,91.0
99.6,92.0
99.67,87.0
99.73,91.0
99.79,107.0
99.86,92.0
99.92,98.0
99.98,100.0
100.04,102.0
100.11,118.0
100.17,115.0
100.23,141.0
100.3,123.0
100.36,126.0
100.42,115.0
100.49,120.0
100.55,139.0
100.61,130.0
100.67,129.0
100.74,127.0
100.8,119.0
100.86,110.0
100.93,122.0
100.99,121.0
101.05,90.0
101.12,117.0
101.18,117.0
101.24,117.0
101.3,141.0
101.37,121.0
101.43,111.0
101.49,122.0
101.56,120.0
101.62,147.0
101.68,140.0
101.75,133.0
101.81,116.0
101.87,105.0
101.93,130.0
102.0,125.0
102.06,102.0
102.12,95.0
102.19,115.0
102.25,124.0
102.31,112.0
102.38,116.0
102.44,137.0
102.5,112.0
102.56,112.0
102.63,133.0
102.69,151.0
102.75,146.0
102.82,116.0
102.88,128.0
102.94,136.0
103.01,132.0
103.07,150.0
103.13,134.0
103.19,111.0
103.26,124.0
103.32,138.0
103.38,117.0
103.45,120.0
103.51,106.0
103.57,140.0
103.64,120.0
103.7,137.0
103.76,153.0
103.82,135.0
103.89,143.0
103.95,127.0
104.01,118.0
104.08,125.0
104.14,118.0
104.2,124.0
104.27,139.0
104.33,130.0
104.39,121.0
104.45,124.0
104.52,126.0
104.58,130.0
104.64,135.0
104.71,149.0
104.77,149.0
104.83,146.0
104.9,144.0
104.96,130.0
105.02,143.0
105.08,148.0
105.15,150.0
105.21,168.0
105.27,179.0
105.34,164.0
105.4,182.0
105.46,180.0
105.53,160.0
105.59,157.0
105.65,142.0
105.71,145.0
105.78,149.0
105.84,158.0
105.9,155.0
105.97,163.0
106.03,161.0
106.09,153.0
106.16,146.0
106.22,136.0
106.28,160.0
106.34,141.0
106.41,150.0
106.47,150.0
106.53,163.0
106.6,140.0
106.66,147.0
106.72,147.0
106.79,122.0
106.85,127.0
106.91,134.0
106.97,118.0
107.04,126.0
107.1,122.0
107.16,119.0
107.23,104.0
107.29,115.0
107.35,97.0
107.42,106.0
107.48,101.0
107.54,100.0
107.6,91.0
107.67,86.0
107.73,114.0
107.79,96.0
107.86,88.0
107.92,84.0
107.98,73.0
108.05,95.0
108.11,80.0
108.17,75.0
108.23,68.0
108.3,81.0
108.36,92.0
108.42,83.0
108.49,54.0
108.55,55.0
108.61,61.0
108.68,71.0
108.74,73.0
108.8,70.0
108.86,85.0
108.93,65.0
108.99,64.0
109.05,82.0
109.12,81.0
109.18,60.0
109.24,50.0
109.31,53.0
109.37,37.0
109.43,30.0
109.49,52.0
109.56,77.0
109.62,84.0
109.68,70.0
109.75,40.0
109.81,46.0
109.87,54.0
109.94,48.0
110.0,40.0
110.06,25.0
110.12,18.0
110.19,23.0
110.25,28.0
110.31,33.0
110.38,34.0
110.44,46.0
110.5,25.0
110.57,29.0
110.63,34.0
110.69,20.0
110.75,23.0
110.82,38.0
110.88,20.0
110.94,39.0
111.01,23.0
111.07,25.0
111.13,38.0
111.2,60.0
111.26,36.0
111.32,50.0
111.38,56.0
111.45,49.0
111.51,47.0
111.57,47.0
111.64,44.0
111.7,38.0
111.76,48.0
111.83,46.0
111.89,56.0
111.95,53.0
112.01,69.0
112.08,55.0
112.14,51.0
112.2,51.0
112.27,48.0
112.33,46.0
112.39,40.0
112.46,59.0
112.52,47.0
112.58,61.0
112.64,44.0
112.71,40.0
112.77,51.0
112.83,24.0
112.9,34.0
112.96,36.0
113.02,31.0
113.09,43.0
113.15,34.0
113.21,21.0
113.27,15.0
113.34,32.0
113.4,30.0
113.46,35.0
113.53,36.0
113.59,19.0
113.65,22.0
113.72,14.0
113.78,21.0
113.84,24.0
113.9,46.0
113.97,56.0
114.03,61.0
114.09,56.0
114.16,47.0
114.22,51.0
114.28,59.0
114.35,75.0
114.41,63.0
114.47,77.0
114.53,88.0
114.6,80.0
114.66,81.0
114.72,80.0
114.79,78.0
114.85,62.0
114.91,73.0
114.98,61.0
115.04,67.0
115.1,44.0
115.16,50.0
115.23,44.0
115.29,46.0
115.35,78.0
115.42,48.0
115.48,61.0
115.54,58.0
115.61,51.0
115.67,54.0
115.73,72.0
115.79,62.0
115.86,44.0
115.92,42.0
115.98,47.0
116.05,70.0
116.11,47.0
116.17,61.0
116.24,34.0
116.3,48.0
116.36,69.0
116.42,25.0
116.49,44.0
116.55,61.0
116.61,47.0
116.68,62.0
116.74,38.0
116.8,23.0
116.87,51.0
116.93,39.0
116.99,42.0
117.05,42.0
117.12,24.0
117.18,41.0
117.24,26.0
117.31,37.0
117.37,31.0
117.43,20.0
117.5,17.0
117.56,21.0
117.62,40.0
117.68,25.0
117.75,31.0
117.81,32.0
117.87,37.0
117.94,38.0
118.0,1.0
118.06,19.0
118.13,20.0
118.19,29.0
118.25,22.0
118.31,22.0
118.38,36.0
118.44,23.0
118.5,20.0
118.57,26.0
118.63,25.0
118.69,17.0
118.76,26.0
118.82,32.0
118.88,29.0
118.94,14.0
119.01,3.0
119.07,-4.0
119.13,17.0
119.2,27.0
119.26,5.0
119.32,24.0
119.39,33.0
119.45,24.0
119.51,13.0
119.57,32.0
119.64,24.0
119.7,23.0
119.76,18.0
119.83,8.0
119.89,5.0
119.95,21.0
120.02,10.0
120.08,6.0
120.14,15.0
120.2,6.0
120.27,-6.0
120.33,-10.0
120.39,6.0
120.46,23.0
120.52,33.0
120.58,35.0
120.65,48.0
120.71,69.0
120.77,58.0
120.83,54.0
120.9,67.0
120.96,76.0
121.02,71.0
121.09,60.0
121.15,68.0
121.21,74.0
121.28,78.0
121.34,67.0
121.4,60.0
121.46,52.0
121.53,71.0
121.59,70.0
121.65,77.0
121.72,83.0
121.78,81.0
121.84,74.0
121.91,91.0
121.97,82.0
122.03,96.0
122.09,96.0
122.16,85.0
122.22,95.0
122.28,89.0
122.35,101.0
122.41,90.0
122.47,80.0
122.54,97.0
122.6,92.0
122.66,115.0
122.72,105.0
122.79,117.0
122.85,107.0
122.91,121.0
122.98,122.0
123.04,101.0
123.1,114.0
123.17,129.0
123.23,120.0
123.29,125.0
123.35,128.0
123.42,126.0
123.48,123.0
123.54,126.0
123.61,109.0
123.67,118.0
123.73,114.0
123.8,131.0
123.86,123.0
123.92,122.0
123.98,126.0
124.05,126.0
124.11,129.0
124.17,112.0
124.24,128.0
124.3,107.0
124.36,87.0
124.43,104.0
124.49,111.0
124.55,104.0
124.61,104.0
124.68,92.0
124.74,82.0
124.8,107.0
124.87,93.0
124.93,95.0
124.99,104.0
125.06,90.0
125.12,85.0
125.18,73.0
125.24,75.0
125.31,78.0
125.37,66.0
125.43,70.0
125.5,75.0
125.56,89.0
125.62,66.0
125.69,69.0
125.75,72.0
125.81,80.0
125.87,89.0
125.94,87.0
126.0,56.0
126.06,63.0
126.13,67.0
126.19,68.0
126.25,74.0
126.32,58.0
126.38,62.0
126.44,74.0
126.5,64.0
126.57,81.0
126.63,42.0
126.69,45.0
126.76,57.0
126.82,52.0
126.88,54.0
126.95,39.0
127.01,42.0
127.07,43.0
127.13,49.0
127.2,49.0
127.26,39.0
127.32,48.0
127.39,60.0
127.45,58.0
127.51,43.0
127.58,54.0
127.64,51.0
127.7,78.0
127.76,78.0
127.83,63.0
127.89,65.0
127.95,48.0
128.02,61.0
128.08,70.0
128.14,52.0
128.21,54.0
128.27,65.0
128.33,78.0
128.39,70.0
128.46,39.0
128.52,45.0
128.58,53.0
128.65,63.0
128.71,54.0
128.77,47.0
128.84,58.0
128.9,41.0
128.96,43.0
129.02,42.0
129.09,34.0
129.15,58.0
129.21,51.0
129.28,26.0
129.34,40.0
129.4,57.0
129.47,56.0
129.53,64.0
129.59,61.0
129.65,77.0
129.72,74.0
129.78,70.0
129.84,74.0
129.91,80.0
129.97,81.0
130.03,62.0
130.1,55.0
130.16,58.0
130.22,62.0
130.28,59.0
130.35,47.0
130.41,46.0
130.47,27.0
130.54,33.0
130.6,32.0
130.66,38.0
130.73,42.0
130.79,43.0
130.85,33.0
130.91,47.0
130.98,55.0
131.04,56.0
131.1,45.0
131.17,58.0
131.23,40.0
131.29,38.0
131.36,54.0
131.42,31.0
131.48,35.0
131.54,53.0
131.61,48.0
131.67,24.0
131.73,36.0
131.8,41.0
131.86,45.0
131.92,60.0
131.99,44.0
132.05,39.0
132.11,55.0
132.17,47.0
132.24,43.0
132.3,48.0
132.36,41.0
132.43,33.0
132.49,36.0
132.55,24.0
132.62,31.0
132.68,30.0
132.74,32.0
132.8,29.0
132.87,50.0
132.93,56.0
132.99,50.0
133.06,62.0
133.12,52.0
133.18,49.0
133.25,43.0
133.31,48.0
133.37,26.0
133.43,36.0
133.5,34.0
133.56,37.0
133.62,45.0
133.69,34.0
133.75,32.0
133.81,18.0
133.88,15.0
133.94,9.0
134.0,-1.0
134.06,22.0
134.13,9.0
134.19,5.0
134.25,21.0
134.32,10.0
134.38,2.0
134.44,-14.0
134.51,-18.0
134.57,-12.0
134.63,6.0
134.69,19.0
134.76,5.0
134.82,-5.0
134.88,-4.0
134.95,12.0
135.01,-8.0
135.07,-17.0
135.14,-19.0
135.2,-7.0
135.26,1.0
135.32,-6.0
135.39,3.0
135.45,-25.0
135.51,-1.0
135.58,7.0
135.64,2.0
135.7,-30.0
135.77,-19.0
135.83,-17.0
135.89,-35.0
135.95,-30.0
136.02,-18.0
136.08,-26.0
136.14,-21.0
136.21,-29.0
136.27,-13.0
136.33,-26.0
136.4,11.0
136.46,0.0
136.52,-13.0
136.58,-12.0
136.65,-11.0
136.71,-13.0
136.77,-5.0
136.84,-6.0
136.9,-7.0
136.96,9.0
137.03,24.0
137.09,32.0
137.15,10.0
137.21,17.0
137.28,41.0
137.34,43.0
137.4,29.0
137.47,39.0
137.53,54.0
137.59,43.0
137.66,47.0
137.72,51.0
137.78,45.0
137.84,40.0
137.91,34.0
137.97,48.0
138.03,33.0
138.1,36.0
138.16,41.0
138.22,33.0
138.29,41.0
138.35,25.0
138.41,39.0
138.47,43.0
138.54,30.0
138.6,41.0
138.66,65.0
138.73,47.0
138.79,73.0
138.85,73.0
138.92,47.0
138.98,63.0
139.04,65.0
139.1,76.0
139.17,81.0
139.23,95.0
139.29,100.0
139.36,102.0
139.42,84.0
139.48,75.0
139.55,56.0
139.61,91.0
139.67,85.0
139.73,67.0
139.8,82.0
139.86,92.0
139.92,81.0
139.99,75.0
140.05,87.0
140.11,101.0
140.18,98.0
140.24,100.0
140.3,108.0
140.36,100.0
140.43,87.0
140.49,101.0
140.55,90.0
140.62,104.0
140.68,85.0
140.74,83.0
140.81,70.0
140.87,67.0
140.93,65.0
140.99,65.0
141.06,59.0
141.12,75.0
141.18,64.0
141.25,60.0
141.31,68.0
141.37,55.0
141.44,58.0
141.5,43.0
141.56,38.0
141.62,39.0
141.69,39.0
141.75,38.0
141.81,49.0
141.88,33.0
141.94,20.0
142.0,19.0
142.07,26.0
142.13,29.0
142.19,33.0
142.25,39.0
142.32,30.0
142.38,22.0
142.44,20.0
142.51,23.0
142.57,37.0
142.63,51.0
142.7,48.0
142.76,59.0
142.82,47.0
142.88,26.0
142.95,28.0
143.01,47.0
143.07,38.0
143.14,34.0
143.2,32.0
143.26,36.0
143.33,37.0
143.39,33.0
143.45,27.0
143.51,41.0
143.58,32.0
143.64,28.0
143.7,31.0
143.77,15.0
143.83,24.0
143.89,23.0
143.96,9.0
144.02,15.0
144.08,6.0
144.14,9.0
144.21,15.0
144.27,5.0
144.33,2.0
144.4,-7.0
144.46,4.0
144.52,9.0
144.59,-1.0
144.65,22.0
144.71,21.0
144.77,18.0
144.84,24.0
144.9,9.0
144.96,27.0
145.03,29.0
145.09,14.0
145.15,18.0
145.22,11.0
145.28,33.0
145.34,35.0
145.4,18.0
145.47,28.0
145.53,29.0
145.59,42.0
145.66,33.0
145.72,44.0
145.78,39.0
145.85,38.0
145.91,37.0
145.97,30.0
146.03,45.0
146.1,36.0
146.16,50.0
146.22,41.0
146.29,46.0
146.35,55.0
146.41,52.0
146.47,44.0
146.54,39.0
146.6,32.0
146.66,53.0
146.73,62.0
146.79,60.0
146.85,63.0
146.92,66.0
146.98,79.0
147.04,81.0
147.1,75.0
147.17,73.0
147.23,61.0
147.29,79.0
147.36,86.0
147.42,79.0
147.48,71.0
147.55,57.0
147.61,67.0
147.67,79.0
147.73,91.0
147.8,79.0
147.86,82.0
147.92,81.0
147.99,86.0
148.05,82.0
148.11,77.0
148.18,80.0
148.24,82.0
148.3,98.0
148.36,89.0
148.43,87.0
148.49,115.0
148.55,100.0
148.62,97.0
148.68,89.0
148.74,89.0
148.81,111.0
148.87,81.0
148.93,82.0
148.99,73.0
149.06,69.0
149.12,88.0
149.18,74.0
149.25,77.0
149.31,68.0
149.37,78.0
149.44,111.0
149.5,95.0
149.56,78.0
149.62,84.0
149.69,85.0
149.75,85.0
149.81,87.0
149.88,75.0
149.94,66.0
150.0,71.0
150.07,70.0
150.13,60.0
150.19,67.0
150.25,67.0
150.32,65.0
150.38,68.0
150.44,81.0
150.51,81.0
150.57,85.0
150.63,78.0
150.7,85.0
150.76,100.0
150.82,86.0
150.88,94.0
150.95,78.0
151.01,68.0
151.07,83.0
151.14,77.0
151.2,97.0
151.26,68.0
151.33,87.0
151.39,84.0
151.45,73.0
151.51,73.0
151.58,83.0
151.64,84.0
151.7,59.0
151.77,79.0
151.83,74.0
151.89,75.0
151.96,71.0
152.02,82.0
152.08,77.0
152.14,64.0
152.21,68.0
152.27,69.0
152.33,77.0
152.4,81.0
152.46,87.0
152.52,86.0
152.59,79.0
152.65,84.0
152.71,78.0
152.77,78.0
152.84,64.0
152.9,89.0
152.96,95.0
153.03,104.0
153.09,89.0
153.15,102.0
153.22,94.0
153.28,115.0
153.34,133.0
153.4,108.0
153.47,114.0
153.53,85.0
153.59,114.0
153.66,118.0
153.72,108.0
153.78,118.0
153.85,103.0
153.91,107.0
153.97,91.0
154.03,91.0
154.1,85.0
154.16,82.0
154.22,87.0
154.29,95.0
154.35,120.0
154.41,119.0
154.48,133.0
154.54,142.0
154.6,133.0
154.66,139.0
154.73,140.0
154.79,132.0
154.85,126.0
154.92,141.0
154.98,159.0
155.04,151.0
155.11,159.0
155.17,162.0
155.23,143.0
155.29,140.0
155.36,136.0
155.42,142.0
155.48,147.0
155.55,144.0
155.61,144.0
155.67,140.0
155.74,127.0
155.8,140.0
155.86,158.0
155.92,145.0
155.99,155.0
156.05,145.0
156.11,139.0
156.18,158.0
156.24,148.0
156.3,167.0
156.37,167.0
156.43,171.0
156.49,183.0
156.55,181.0
156.62,180.0
156.68,175.0
156.74,186.0
156.81,185.0
156.87,192.0
156.93,180.0
157.0,197.0
157.06,197.0
157.12,165.0
157.18,180.0
157.25,174.0
157.31,153.0
157.37,150.0
157.44,162.0
157.5,167.0
157.56,155.0
157.63,163.0
157.69,177.0
157.75,168.0
157.81,180.0
157.88,161.0
157.94,150.0
158.0,152.0
158.07,171.0
158.13,174.0
158.19,155.0
158.26,133.0
158.32,140.0
158.38,152.0
158.44,144.0
158.51,145.0
158.57,148.0
158.63,145.0
158.7,152.0
158.76,137.0
158.82,140.0
158.89,131.0
158.95,143.0
159.01,133.0
159.07,135.0
159.14,125.0
159.2,104.0
159.26,126.0
159.33,115.0
159.39,125.0
159.45,122.0
159.52,105.0
159.58,113.0
159.64,107.0
159.7,100.0
159.77,96.0
159.83,81.0
159.89,94.0
159.96,79.0
160.02,81.0
160.08,79.0
160.15,86.0
160.21,86.0
160.27,92.0
160.33,76.0
160.4,67.0
160.46,60.0
160.52,55.0
160.59,62.0
160.65,59.0
160.71,52.0
160.78,55.0
160.84,47.0
160.9,46.0
160.96,53.0
161.03,53.0
161.09,30.0
161.15,46.0
161.22,46.0
161.28,30.0
161.34,10.0
161.41,7.0
161.47,27.0
161.53,30.0
161.59,26.0
161.66,30.0
161.72,44.0
161.78,49.0
161.85,52.0
161.91,50.0
161.97,48.0
162.04,55.0
162.1,51.0
162.16,40.0
162.22,29.0
162.29,51.0
162.35,43.0
162.41,52.0
162.48,60.0
162.54,37.0
162.6,42.0
162.67,53.0
162.73,60.0
162.79,38.0
162.85,52.0
162.92,38.0
162.98,49.0
163.04,44.0
163.11,45.0
163.17,49.0
163.23,46.0
163.3,59.0
163.36,74.0
163.42,60.0
163.48,52.0
163.55,57.0
163.61,63.0
163.67,49.0
163.74,47.0
163.8,51.0
163.86,51.0
163.93,54.0
163.99,67.0
164.05,82.0
164.11,87.0
164.18,47.0
164.24,45.0
164.3,54.0
164.37,62.0
164.43,49.0
164.49,74.0
164.56,58.0
164.62,47.0
164.68,50.0
164.74,57.0
164.81,72.0
164.87,43.0
164.93,43.0
165.0,45.0
165.06,45.0
165.12,57.0
165.19,55.0
165.25,20.0
165.31,37.0
165.37,40.0
165.44,44.0
165.5,33.0
165.56,55.0
165.63,65.0
165.69,75.0
165.75,79.0
165.82,60.0
165.88,63.0
165.94,75.0
166.0,72.0
166.07,56.0
166.13,71.0
166.19,58.0
166.26,59.0
166.32,67.0
166.38,65.0
166.45,65.0
166.51,57.0
166.57,49.0
166.63,61.0
166.7,65.0
166.76,63.0
166.82,55.0
166.89,57.0
166.95,58.0
167.01,70.0
167.08,66.0
167.14,47.0
167.2,36.0
167.26,27.0
167.33,32.0
167.39,37.0
167.45,27.0
167.52,29.0
167.58,24.0
167.64,31.0
167.71,20.0
167.77,23.0
167.83,42.0
167.89,21.0
167.96,42.0
168.02,50.0
168.08,40.0
168.15,43.0
168.21,34.0
168.27,29.0
168.34,19.0
168.4,15.0
168.46,13.0
168.52,23.0
168.59,25.0
168.65,24.0
168.71,30.0
168.78,31.0
168.84,20.0
168.9,33.0
168.97,42.0
169.03,35.0
169.09,40.0
169.15,53.0
169.22,73.0
169.28,55.0
169.34,46.0
169.41,51.0
169.47,45.0
169.53,43.0
169.6,32.0
169.66,19.0
169.72,16.0
169.78,24.0
169.85,38.0
169.91,11.0
169.97,19.0
170.04,9.0
170.1,7.0
170.16,2.0
170.23,0.0
170.29,15.0
170.35,2.0
170.41,-4.0
170.48,7.0
170.54,20.0
170.6,39.0
170.67,26.0
170.73,1.0
170.79,-2.0
170.86,19.0
170.92,21.0
170.98,8.0
171.04,0.0
171.11,13.0
171.17,14.0
171.23,6.0
171.3,38.0
171.36,39.0
171.42,48.0
171.49,39.0
171.55,25.0
171.61,18.0
171.67,32.0
171.74,39.0
171.8,22.0
171.86,36.0
171.93,52.0
171.99,41.0
172.05,55.0
172.12,73.0
172.18,55.0
172.24,73.0
172.3,91.0
172.37,79.0
172.43,85.0
172.49,78.0
172.56,85.0
172.62,87.0
172.68,72.0
172.75,81.0
172.81,102.0
172.87,104.0
172.93,86.0
173.0,112.0
173.06,106.0
173.12,95.0
173.19,89.0
173.25,98.0
173.31,91.0
173.38,98.0
173.44,99.0
173.5,130.0
173.56,119.0
173.63,124.0
173.69,104.0
173.75,108.0
173.82,110.0
173.88,110.0
173.94,110.0
174.01,85.0
174.07,96.0
174.13,101.0
174.19,89.0
174.26,111.0
174.32,117.0
174.38,109.0
174.45,102.0
174.51,107.0
174.57,104.0
174.64,102.0
174.7,106.0
174.76,115.0
174.82,110.0
174.89,94.0
174.95,105.0
175.01,98.0
175.08,109.0
175.14,98.0
175.2,98.0
175.27,99.0
175.33,93.0
175.39,85.0
175.45,90.0
175.52,93.0
175.58,105.0
175.64,106.0
175.71,78.0
175.77,91.0
175.83,92.0
175.9,92.0
175.96,76.0
176.02,87.0
176.08,99.0
176.15,81.0
176.21,70.0
176.27,54.0
176.34,55.0
176.4,74.0
176.46,84.0
176.53,88.0
176.59,63.0
176.65,73.0
176.71,62.0
176.78,70.0
176.84,71.0
176.9,74.0
176.97,73.0
177.03,68.0
177.09,65.0
177.16,71.0
177.22,58.0
177.28,59.0
177.34,66.0
177.41,74.0
177.47,90.0
177.53,60.0
177.6,61.0
177.66,61.0
177.72,44.0
177.79,61.0
177.85,62.0
177.91,53.0
177.97,57.0
178.04,69.0
178.1,76.0
178.16,61.0
178.23,62.0
178.29,44.0
178.35,41.0
178.42,52.0
178.48,33.0
178.54,36.0
178.6,40.0
178.67,50.0
178.73,21.0
178.79,23.0
178.86,6.0
178.92,18.0
178.98,35.0
179.05,36.0
179.11,47.0
179.17,34.0
179.23,37.0
179.3,47.0
179.36,48.0
179.42,56.0
179.49,63.0
179.55,39.0
179.61,33.0
179.68,59.0
179.74,59.0
179.8,41.0
179.86,60.0
179.93,57.0
179.99,50.0
180.05,63.0
180.12,84.0
180.18,76.0
180.24,65.0
180.31,72.0
180.37,83.0
180.43,86.0
180.49,101.0
180.56,100.0
180.62,83.0
180.68,82.0
180.75,77.0
180.81,67.0
180.87,77.0
180.94,89.0
181.0,76.0
181.06,77.0
181.12,83.0
181.19,96.0
181.25,99.0
181.31,76.0
181.38,103.0
181.44,87.0
181.5,79.0
181.57,93.0
181.63,85.0
181.69,92.0
181.75,76.0
181.82,89.0
181.88,72.0
181.94,60.0
182.01,79.0
182.07,64.0
182.13,92.0
182.2,59.0
182.26,62.0
182.32,63.0
182.38,46.0
182.45,51.0
182.51,47.0
182.57,69.0
182.64,63.0
182.7,54.0
182.76,63.0
182.83,77.0
182.89,59.0
182.95,52.0
183.01,43.0
183.08,35.0
183.14,48.0
183.2,63.0
183.27,75.0
183.33,63.0
183.39,47.0
183.46,51.0
183.52,55.0
183.58,74.0
183.64,32.0
183.71,52.0
183.77,37.0
183.83,53.0
183.9,58.0
183.96,54.0
184.02,59.0
184.09,46.0
184.15,60.0
184.21,46.0
184.27,54.0
184.34,61.0
184.4,44.0
184.46,35.0
184.53,49.0
184.59,37.0
184.65,25.0
184.72,23.0
184.78,48.0
184.84,48.0
184.9,46.0
184.97,29.0
185.03,25.0
185.09,41.0
185.16,15.0
185.22,-6.0
185.28,3.0
185.35,13.0
185.41,-18.0
185.47,-17.0
185.53,10.0
185.6,19.0
185.66,-16.0
185.72,-17.0
185.79,-10.0
185.85,-22.0
185.91,-2.0
185.98,-6.0
186.04,-2.0
186.1,-14.0
186.16,-15.0
186.23,-5.0
186.29,-28.0
186.35,-18.0
186.42,-21.0
186.48,-21.0
186.54,-40.0
186.61,-38.0
186.67,-27.0
186.73,-34.0
186.79,-18.0
186.86,-34.0
186.92,-10.0
186.98,-7.0
187.05,-4.0
187.11,-2.0
187.17,-3.0
187.24,10.0
187.3,0.0
187.36,7.0
187.42,9.0
187.49,7.0
187.55,-4.0
187.61,6.0
187.68,-5.0
187.74,-2.0
187.8,7.0
187.87,-2.0
187.93,-6.0
187.99,0.0
188.05,17.0
188.12,27.0
188.18,22.0
188.24,32.0
188.31,38.0
188.37,25.0
188.43,37.0
188.5,60.0
188.56,46.0
188.62,33.0
188.68,37.0
188.75,58.0
188.81,47.0
188.87,58.0
188.94,49.0
189.0,68.0
189.06,60.0
189.13,67.0
189.19,51.0
189.25,61.0
189.31,71.0
189.38,85.0
189.44,88.0
189.5,93.0
189.57,98.0
189.63,91.0
189.69,94.0
189.76,99.0
189.82,87.0
189.88,98.0
189.94,79.0
190.01,77.0
190.07,73.0
190.13,61.0
190.2,57.0
190.26,63.0
190.32,49.0
190.39,56.0
190.45,73.0
190.51,77.0
190.57,79.0
190.64,68.0
190.7,71.0
190.76,71.0
190.83,71.0
190.89,82.0
190.95,78.0
191.02,78.0
191.08,76.0
191.14,85.0
191.2,79.0
191.27,65.0
191.33,51.0
191.39,60.0
191.46,60.0
191.52,57.0
191.58,70.0
191.65,63.0
191.71,67.0
191.77,62.0
191.83,66.0
191.9,84.0
191.96,72.0
192.02,65.0
192.09,79.0
192.15,59.0
192.21,77.0
192.28,68.0
192.34,68.0
192.4,68.0
192.46,62.0
192.53,55.0
192.59,69.0
192.65,72.0
192.72,75.0
192.78,68.0
192.84,66.0
192.91,66.0
192.97,54.0
193.03,26.0
193.09,46.0
193.16,46.0
193.22,52.0
193.28,46.0
193.35,37.0
193.41,65.0
193.47,51.0
193.54,39.0
193.6,50.0
193.66,42.0
193.72,39.0
193.79,33.0
193.85,22.0
193.91,31.0
193.98,25.0
194.04,2.0
194.1,15.0
194.17,24.0
194.23,4.0
194.29,0.0
194.35,-1.0
194.42,-2.0
194.48,-3.0
194.54,-7.0
194.61,-22.0
194.67,6.0
194.73,9.0
194.8,-2.0
194.86,0.0
194.92,-13.0
194.98,-19.0
195.05,-5.0
195.11,18.0
195.17,4.0
195.24,21.0
195.3,16.0
195.36,-5.0
195.43,19.0
195.49,45.0
195.55,16.0
195.61,27.0
195.68,53.0
195.74,62.0
195.8,37.0
195.87,36.0
195.93,30.0
195.99,35.0
196.06,26.0
196.12,29.0
196.18,31.0
196.24,44.0
196.31,37.0
196.37,23.0
196.43,20.0
196.5,23.0
196.56,32.0
196.62,19.0
196.69,21.0
196.75,2.0
196.81,-10.0
196.87,0.0
196.94,4.0
197.0,-9.0
197.06,-25.0
197.13,-28.0
197.19,-6.0
197.25,-13.0
197.32,-24.0
197.38,0.0
197.44,-1.0
197.5,-2.0
197.57,1.0
197.63,1.0
197.69,17.0
197.76,8.0
197.82,21.0
197.88,7.0
197.95,18.0
198.01,13.0
198.07,9.0
198.13,6.0
198.2,41.0
198.26,24.0
198.32,9.0
198.39,13.0
198.45,18.0
198.51,11.0
198.58,10.0
198.64,31.0
198.7,31.0
198.76,22.0
198.83,40.0
198.89,53.0
198.95,42.0
199.02,50.0
199.08,51.0
199.14,54.0
199.21,65.0
199.27,76.0
199.33,61.0
199.39,54.0
199.46,70.0
199.52,77.0
199.58,58.0
199.65,68.0
199.71,79.0
199.77,70.0
199.84,79.0
199.9,78.0
199.96,50.0
200.02,70.0
200.09,61.0
200.15,72.0
200.21,65.0
200.28,79.0
200.34,72.0
200.4,61.0
200.47,64.0
200.53,67.0
200.59,65.0
200.65,74.0
200.72,79.0
200.78,92.0
200.84,83.0
200.91,64.0
200.97,81.0
201.03,64.0
201.1,55.0
201.16,64.0
201.22,82.0
201.28,70.0
201.35,70.0
201.41,77.0
201.47,94.0
201.54,93.0
201.6,86.0
201.66,89.0
201.73,66.0
201.79,73.0
201.85,84.0
201.91,71.0
201.98,53.0
202.04,47.0
202.1,60.0
202.17,54.0
202.23,71.0
202.29,54.0
202.36,58.0
202.42,64.0
202.48,51.0
202.54,55.0
202.61,68.0
202.67,76.0
202.73,75.0
202.8,52.0
202.86,46.0
202.92,54.0
202.99,34.0
203.05,49.0
203.11,82.0
203.17,76.0
203.24,51.0
203.3,59.0
203.36,43.0
203.43,56.0
203.49,54.0
203.55,90.0
203.62,64.0
203.68,65.0
203.74,81.0
203.8,75.0
203.87,62.0
203.93,67.0
203.99,69.0
204.06,75.0
204.12,64.0
204.18,59.0
204.25,80.0
204.31,68.0
204.37,61.0
204.43,56.0
204.5,42.0
204.56,47.0
204.62,79.0
204.69,70.0
204.75,75.0
204.81,73.0
204.88,76.0
204.94,97.0
205.0,90.0
205.06,99.0
205.13,105.0
205.19,98.0
205.25,98.0
205.32,116.0
205.38,122.0
205.44,109.0
205.51,124.0
205.57,127.0
205.63,128.0
205.69,116.0
205.76,119.0
205.82,138.0
205.88,132.0
205.95,153.0
206.01,153.0
206.07,163.0
206.14,150.0
206.2,154.0
206.26,157.0
206.32,176.0
206.39,167.0
206.45,163.0
206.51,174.0
206.58,171.0
206.64,180.0
206.7,176.0
206.77,162.0
206.83,195.0
206.89,205.0
206.95,200.0
207.02,185.0
207.08,193.0
207.14,189.0
207.21,189.0
207.27,188.0
207.33,169.0
207.4,182.0
207.46,196.0
207.52,159.0
207.58,167.0
207.65,175.0
207.71,168.0
207.77,163.0
207.84,178.0
207.9,177.0
207.96,163.0
208.03,141.0
208.09,155.0
208.15,145.0
208.21,157.0
208.28,142.0
208.34,131.0
208.4,148.0
208.47,136.0
208.53,148.0
208.59,142.0
208.66,138.0
208.72,164.0
208.78,141.0
208.84,126.0
208.91,124.0
208.97,123.0
209.03,138.0
209.1,136.0
209.16,134.0
209.22,143.0
209.29,129.0
209.35,115.0
209.41,112.0
209.47,114.0
209.54,134.0
209.6,111.0
209.66,122.0
209.73,121.0
209.79,138.0
209.85,124.0
209.92,119.0
209.98,103.0
210.04,115.0
210.1,122.0
210.17,107.0
210.23,117.0
210.29,108.0
210.36,113.0
210.42,117.0
210.48,116.0
210.55,109.0
210.61,101.0
210.67,89.0
210.73,73.0
210.8,55.0
210.86,62.0
210.92,85.0
210.99,75.0
211.05,74.0
211.11,80.0
211.18,70.0
211.24,54.0
211.3,63.0
211.36,63.0
211.43,59.0
211.49,63.0
211.55,70.0
211.62,73.0
211.68,71.0
211.74,59.0
211.81,51.0
211.87,39.0
211.93,60.0
211.99,63.0
212.06,61.0
212.12,75.0
212.18,63.0
212.25,69.0
212.31,71.0
212.37,54.0
212.44,59.0
212.5,64.0
212.56,57.0
212.62,56.0
212.69,51.0
212.75,71.0
212.81,55.0
212.88,37.0
212.94,53.0
213.0,51.0
213.07,49.0
213.13,45.0
213.19,51.0
213.25,58.0
213.32,61.0
213.38,55.0
213.44,34.0
213.51,16.0
213.57,36.0
213.63,31.0
213.7,49.0
213.76,33.0
213.82,56.0
213.88,67.0
213.95,44.0
214.01,75.0
214.07,72.0
214.14,64.0
214.2,77.0
214.26,80.0
214.33,65.0
214.39,64.0
214.45,70.0
214.51,70.0
214.58,62.0
214.64,46.0
214.7,67.0
214.77,57.0
214.83,41.0
214.89,58.0
214.96,71.0
215.02,56.0
215.08,58.0
215.14,83.0
215.21,40.0
215.27,64.0
215.33,73.0
215.4,48.0
215.46,61.0
215.52,53.0
215.59,49.0
215.65,56.0
215.71,52.0
215.77,48.0
215.84,53.0
215.9,48.0
215.96,33.0
216.03,43.0
216.09,50.0
216.15,59.0
216.22,49.0
216.28,56.0
216.34,52.0
216.4,64.0
216.47,60.0
216.53,49.0
216.59,39.0
216.66,49.0
216.72,43.0
216.78,35.0
216.85,45.0
216.91,31.0
216.97,46.0
217.03,46.0
217.1,37.0
217.16,63.0
217.22,56.0
217.29,59.0
217.35,79.0
217.41,67.0
217.48,47.0
217.54,66.0
217.6,61.0
217.66,53.0
217.73,50.0
217.79,75.0
217.85,53.0
217.92,64.0
217.98,85.0
218.04,84.0
218.11,81.0
218.17,68.0
218.23,60.0
218.29,64.0
218.36,46.0
218.42,51.0
218.48,46.0
218.55,54.0
218.61,57.0
218.67,49.0
218.74,39.0
218.8,16.0
218.86,29.0
218.92,37.0
218.99,26.0
219.05,49.0
219.11,41.0
219.18,41.0
219.24,39.0
219.3,37.0
219.37,20.0
219.43,24.0
219.49,27.0
219.55,38.0
219.62,38.0
219.68,33.0
219.74,37.0
219.81,18.0
219.87,20.0
219.93,9.0
220.0,25.0
220.06,22.0
220.12,19.0
220.18,17.0
220.25,38.0
220.31,25.0
220.37,12.0
220.44,27.0
220.5,18.0
220.56,4.0
220.63,22.0
220.69,33.0
220.75,18.0
220.81,37.0
220.88,49.0
220.94,33.0
221.0,36.0
221.07,36.0
221.13,37.0
221.19,39.0
221.26,33.0
221.32,36.0
221.38,42.0
221.44,25.0
221.51,24.0
221.57,54.0
221.63,50.0
221.7,61.0
221.76,58.0
221.82,70.0
221.89,82.0
221.95,73.0
222.01,64.0
222.07,70.0
222.14,74.0
222.2,85.0
222.26,79.0
222.33,86.0
222.39,105.0
222.45,111.0
222.52,94.0
222.58,100.0
222.64,105.0
222.7,115.0
222.77,120.0
222.83,109.0
222.89,122.0
222.96,90.0
223.02,109.0
223.08,119.0
223.15,108.0
223.21,132.0
223.27,105.0
223.33,118.0
223.4,134.0
223.46,141.0
223.52,146.0
223.59,134.0
223.65,141.0
223.71,139.0
223.78,154.0
223.84,140.0
223.9,134.0
223.96,134.0
224.03,139.0
224.09,137.0
224.15,147.0
224.22,152.0
224.28,131.0
224.34,151.0
224.41,144.0
224.47,133.0
224.53,135.0
224.59,139.0
224.66,135.0
224.72,161.0
224.78,159.0
224.85,139.0
224.91,135.0
224.97,128.0
225.04,127.0
225.1,123.0
225.16,131.0
225.22,139.0
225.29,128.0
225.35,139.0
225.41,140.0
225.48,127.0
225.54,130.0
225.6,141.0
225.67,154.0
225.73,141.0
225.79,130.0
225.85,134.0
225.92,153.0
225.98,168.0
226.04,170.0
226.11,141.0
226.17,144.0
226.23,161.0
226.3,141.0
226.36,140.0
226.42,150.0
226.48,139.0
226.55,124.0
226.61,123.0
226.67,138.0
226.74,124.0
226.8,116.0
226.86,126.0
226.93,120.0
226.99,111.0
227.05,125.0
227.11,122.0
227.18,115.0
227.24,104.0
227.3,109.0
227.37,72.0
227.43,86.0
227.49,86.0
227.56,97.0
227.62,78.0
227.68,54.0
227.74,53.0
227.81,62.0
227.87,56.0
227.93,66.0
228.0,59.0
228.06,52.0
228.12,35.0
228.19,47.0
228.25,53.0
228.31,42.0
228.37,45.0
228.44,42.0
228.5,56.0
228.56,46.0
228.63,44.0
228.69,38.0
228.75,40.0
228.82,59.0
228.88,37.0
228.94,32.0
229.0,53.0
229.07,37.0
229.13,48.0
229.19,32.0
229.26,56.0
229.32,55.0
229.38,59.0
229.45,57.0
229.51,46.0
229.57,62.0
229.63,64.0
229.7,46.0
229.76,46.0
229.82,74.0
229.89,70.0
229.95,86.0
230.01,66.0
230.08,69.0
230.14,67.0
230.2,82.0
230.26,69.0
230.33,61.0
230.39,82.0
230.45,90.0
230.52,67.0
230.58,53.0
230.64,85.0
230.71,62.0
230.77,67.0
230.83,93.0
230.89,86.0
230.96,84.0
231.02,72.0
231.08,83.0
231.15,67.0
231.21,82.0
231.27,85.0
231.34,85.0
231.4,100.0
231.46,96.0
231.52,97.0
231.59,119.0
231.65,119.0
231.71,111.0
231.78,136.0
231.84,119.0
231.9,122.0
231.97,133.0
232.03,137.0
232.09,137.0
232.15,122.0
232.22,146.0
232.28,144.0
232.34,141.0
232.41,147.0
232.47,148.0
232.53,135.0
232.6,136.0
232.66,121.0
232.72,129.0
232.78,136.0
232.85,130.0
232.91,159.0
232.97,150.0
233.04,145.0
233.1,125.0
233.16,128.0
233.23,153.0
233.29,126.0
233.35,131.0
233.41,126.0
233.48,127.0
233.54,131.0
233.6,139.0
233.67,129.0
233.73,100.0
233.79,105.0
233.86,117.0
233.92,128.0
233.98,148.0
234.04,115.0
234.11,107.0
234.17,109.0
234.23,114.0
234.3,104.0
234.36,82.0
234.42,70.0
234.49,76.0
234.55,82.0
234.61,88.0
234.67,81.0
234.74,86.0
234.8,84.0
234.86,76.0
234.93,79.0
234.99,76.0
235.05,85.0
235.12,76.0
235.18,68.0
235.24,83.0
235.3,87.0
235.37,78.0
235.43,67.0
235.49,75.0
235.56,84.0
235.62,70.0
235.68,82.0
235.75,75.0
235.81,69.0
235.87,84.0
235.93,82.0
236.0,78.0
236.06,78.0
236.12,84.0
236.19,66.0
236.25,56.0
236.31,65.0
236.38,69.0
236.44,65.0
236.5,64.0
236.56,54.0
236.63,52.0
236.69,52.0
236.75,54.0
236.82,40.0
236.88,43.0
236.94,24.0
237.01,22.0
237.07,46.0
237.13,24.0
237.19,10.0
237.26,26.0
237.32,33.0
237.38,23.0
237.45,37.0
237.51,26.0
237.57,20.0
237.64,31.0
237.7,53.0
237.76,54.0
237.82,29.0
237.89,42.0
237.95,57.0
238.01,51.0
238.08,42.0
238.14,45.0
238.2,18.0
238.27,34.0
238.33,46.0
238.39,45.0
238.45,46.0
238.52,35.0
238.58,40.0
238.64,50.0
238.71,53.0
238.77,48.0
238.83,31.0
238.9,45.0
238.96,35.0
239.02,44.0
239.08,46.0
239.15,46.0
239.21,57.0
239.27,43.0
239.34,41.0
239.4,54.0
239.46,53.0
239.53,53.0
239.59,57.0
239.65,63.0
239.71,49.0
239.78,68.0
239.84,72.0
239.9,68.0
239.97,68.0
240.03,58.0
240.09,73.0
240.16,79.0
240.22,85.0
240.28,83.0
240.34,82.0
240.41,90.0
240.47,82.0
240.53,93.0
240.6,95.0
240.66,68.0
240.72,81.0
240.79,99.0
240.85,108.0
240.91,86.0
240.97,92.0
241.04,100.0
241.1,89.0
241.16,89.0
241.23,70.0
241.29,51.0
241.35,69.0
241.42,80.0
241.48,84.0
241.54,88.0
241.6,74.0
241.67,89.0
241.73,79.0
241.79,68.0
241.86,68.0
241.92,67.0
241.98,65.0
242.05,62.0
242.11,55.0
242.17,63.0
242.23,69.0
242.3,71.0
242.36,79.0
242.42,100.0
242.49,85.0
242.55,91.0
242.61,91.0
242.68,86.0
242.74,72.0
242.8,70.0
242.86,63.0
242.93,72.0
242.99,64.0
243.05,47.0
243.12,70.0
243.18,69.0
243.24,66.0
243.31,51.0
243.37,52.0
243.43,57.0
243.49,60.0
243.56,52.0
243.62,60.0
243.68,47.0
243.75,39.0
243.81,27.0
243.87,16.0
243.94,19.0
244.0,25.0
244.06,42.0
244.12,30.0
244.19,20.0
244.25,20.0
244.31,21.0
244.38,26.0
244.44,28.0
244.5,18.0
244.57,17.0
244.63,23.0
244.69,6.0
244.75,28.0
244.82,27.0
244.88,20.0
244.94,20.0
245.01,3.0
245.07,7.0
245.13,6.0
245.2,5.0
245.26,23.0
245.32,15.0
245.38,-2.0
245.45,1.0
245.51,9.0
245.57,4.0
245.64,-4.0
245.7,16.0
245.76,15.0
245.83,13.0
245.89,4.0
245.95,4.0
246.01,11.0
246.08,-1.0
246.14,-5.0
246.2,-8.0
246.27,-9.0
246.33,-2.0
246.39,11.0
246.46,-1.0
246.52,15.0
246.58,6.0
246.64,10.0
246.71,3.0
246.77,-16.0
246.83,-4.0
246.9,4.0
246.96,21.0
247.02,33.0
247.09,7.0
247.15,4.0
247.21,3.0
247.27,3.0
247.34,-7.0
247.4,-6.0
247.46,23.0
247.53,22.0
247.59,18.0
247.65,19.0
247.72,12.0
247.78,26.0
247.84,20.0
247.9,25.0
247.97,42.0
248.03,39.0
248.09,59.0
248.16,47.0
248.22,46.0
248.28,48.0
248.35,26.0
248.41,37.0
248.47,52.0
248.53,47.0
248.6,58.0
248.66,44.0
248.72,47.0
248.79,52.0
248.85,45.0
248.91,57.0
248.98,56.0
249.04,79.0
249.1,85.0
249.16,62.0
249.23,65.0
249.29,57.0
249.35,62.0
249.42,70.0
249.48,71.0
249.54,82.0
249.61,59.0
249.67,65.0
249.73,47.0
249.79,39.0
249.86,64.0
249.92,49.0
249.98,66.0
250.05,53.0
250.11,40.0
250.17,59.0
250.24,51.0
250.3,53.0
250.36,71.0
250.42,73.0
250.49,65.0
250.55,67.0
250.61,79.0
250.68,80.0
250.74,71.0
250.8,52.0
250.87,66.0
250.93,92.0
250.99,86.0
251.05,87.0
251.12,91.0
251.18,119.0
251.24,87.0
251.31,86.0
251.37,107.0
251.43,100.0
251.5,107.0
251.56,103.0
251.62,122.0
251.68,102.0
251.75,108.0
251.81,107.0
251.87,113.0
251.94,85.0
252.0,95.0
252.06,86.0
252.13,101.0
252.19,106.0
252.25,111.0
252.31,89.0
252.38,83.0
252.44,62.0
252.5,51.0
252.57,61.0
252.63,52.0
252.69,64.0
252.76,64.0
252.82,76.0
252.88,46.0
252.94,66.0
253.01,48.0
253.07,47.0
253.13,49.0
253.2,54.0
253.26,40.0
253.32,45.0
253.39,49.0
253.45,50.0
253.51,43.0
253.57,39.0
253.64,38.0
253.7,45.0
253.76,34.0
253.83,30.0
253.89,29.0
253.95,36.0
254.02,48.0
254.08,29.0
254.14,34.0
254.2,43.0
254.27,38.0
254.33,25.0
254.39,39.0
254.46,46.0
254.52,25.0
254.58,16.0
254.65,43.0
254.71,56.0
254.77,32.0
254.83,49.0
254.9,47.0
254.96,68.0
255.02,51.0
255.09,67.0
255.15,72.0
255.21,88.0
255.28,86.0
255.34,84.0
255.4,74.0
255.46,75.0
255.53,100.0
255.59,92.0
255.65,70.0
255.72,68.0
255.78,86.0
255.84,90.0
255.91,97.0
255.97,85.0
256.03,86.0
256.09,96.0
256.16,102.0
256.22,104.0
256.28,103.0
256.35,98.0
256.41,107.0
256.47,108.0
256.54,121.0
256.6,120.0
256.66,106.0
256.72,123.0
256.79,122.0
256.85,131.0
256.91,132.0
256.98,120.0
257.04,125.0
257.1,123.0
257.17,113.0
257.23,117.0
257.29,122.0
257.35,131.0
257.42,132.0
257.48,136.0
257.54,150.0
257.61,138.0
257.67,158.0
257.73,170.0
257.8,173.0
257.86,170.0
257.92,180.0
257.98,188.0
258.05,167.0
258.11,180.0
258.17,176.0
258.24,165.0
258.3,181.0
258.36,174.0
258.43,166.0
258.49,167.0
258.55,175.0
258.61,183.0
258.68,165.0
258.74,193.0
258.8,183.0
258.87,158.0
258.93,168.0
258.99,167.0
259.06,178.0
259.12,181.0
259.18,187.0
259.24,166.0
259.31,195.0
259.37,184.0
259.43,184.0
259.5,188.0
259.56,180.0
259.62,165.0
259.69,177.0
259.75,192.0
259.81,207.0
259.87,206.0
259.94,181.0
260.0,186.0
260.06,174.0
260.13,184.0
260.19,185.0
260.25,168.0
260.32,169.0
260.38,172.0
260.44,166.0
260.5,155.0
260.57,130.0
260.63,139.0
260.69,141.0
260.76,143.0
260.82,122.0
260.88,119.0
260.95,125.0
261.01,113.0
261.07,107.0
261.13,100.0
261.2,92.0
261.26,102.0
261.32,108.0
261.39,95.0
261.45,100.0
261.51,100.0
261.58,87.0
261.64,90.0
261.7,82.0
261.76,69.0
261.83,89.0
261.89,81.0
261.95,81.0
262.02,86.0
262.08,95.0
262.14,103.0
262.21,106.0
262.27,98.0
262.33,88.0
262.39,76.0
262.46,90.0
262.52,94.0
262.58,85.0
262.65,75.0
262.71,99.0
262.77,102.0
262.84,91.0
262.9,93.0
262.96,76.0
263.02,73.0
263.09,73.0
263.15,67.0
263.21,80.0
263.28,60.0
263.34,52.0
263.4,62.0
263.47,45.0
263.53,27.0
263.59,27.0
263.65,35.0
263.72,41.0
263.78,49.0
263.84,51.0
263.91,35.0
263.97,43.0
264.03,46.0
264.1,58.0
264.16,40.0
264.22,23.0
264.28,15.0
264.35,34.0
264.41,23.0
264.47,34.0
264.54,32.0
264.6,41.0
264.66,47.0
264.73,42.0
264.79,58.0
264.85,52.0
264.91,41.0
264.98,50.0
265.04,26.0
265.1,35.0
265.17,34.0
265.23,37.0
265.29,52.0
265.36,49.0
265.42,48.0
265.48,53.0
265.54,62.0
265.61,66.0
265.67,38.0
265.73,53.0
265.8,66.0
265.86,60.0
265.92,68.0
265.99,65.0
266.05,90.0
266.11,101.0
266.17,118.0
266.24,122.0
266.3,93.0
266.36,78.0
266.43,100.0
266.49,93.0
266.55,98.0
266.62,113.0
266.68,113.0
266.74,100.0
266.8,96.0
266.87,106.0
266.93,92.0
266.99,99.0
267.06,117.0
267.12,120.0
267.18,140.0
267.25,118.0
267.31,123.0
267.37,111.0
267.43,110.0
267.5,127.0
267.56,110.0
267.62,110.0
267.69,104.0
267.75,115.0
267.81,97.0
267.88,120.0
267.94,120.0
268.0,111.0
268.06,115.0
268.13,93.0
268.19,126.0
268.25,107.0
268.32,100.0
268.38,97.0
268.44,82.0
268.51,98.0
268.57,100.0
268.63,106.0
268.69,99.0
268.76,95.0
268.82,81.0
268.88,82.0
268.95,97.0
269.01,88.0
269.07,91.0
269.14,103.0
269.2,100.0
269.26,112.0
269.32,89.0
269.39,105.0
269.45,90.0
269.51,60.0
269.58,63.0
269.64,71.0
269.7,76.0
269.77,60.0
269.83,49.0
269.89,59.0
269.95,34.0
270.02,20.0
270.08,49.0
270.14,22.0
270.21,28.0
270.27,21.0
270.33,7.0
270.4,0.0
270.46,16.0
270.52,34.0
270.58,27.0
270.65,30.0
270.71,32.0
270.77,40.0
270.84,32.0
270.9,43.0
270.96,43.0
271.03,50.0
271.09,29.0
271.15,23.0
271.21,24.0
271.28,16.0
271.34,16.0
271.4,38.0
271.47,35.0
271.53,31.0
271.59,45.0
271.66,30.0
271.72,8.0
271.78,4.0
271.84,12.0
271.91,-1.0
271.97,11.0
272.03,11.0
272.1,31.0
272.16,37.0
272.22,34.0
272.29,18.0
272.35,30.0
272.41,40.0
272.47,60.0
272.54,61.0
272.6,66.0
272.66,56.0
272.73,61.0
272.79,78.0
272.85,70.0
272.92,69.0
272.98,72.0
273.04,63.0
273.1,79.0
273.17,88.0
273.23,74.0
273.29,90.0
273.36,77.0
273.42,84.0
273.48,89.0
273.55,73.0
273.61,67.0
273.67,63.0
273.73,87.0
273.8,87.0
273.86,79.0
273.92,87.0
273.99,111.0
274.05,109.0
274.11,91.0
274.18,96.0
274.24,92.0
274.3,111.0
274.36,103.0
274.43,114.0
274.49,120.0
274.55,130.0
274.62,137.0
274.68,125.0
274.74,123.0
274.81,125.0
274.87,107.0
274.93,125.0
274.99,134.0
275.06,140.0
275.12,139.0
275.18,119.0
275.25,120.0
275.31,94.0
275.37,117.0
275.44,133.0
275.5,132.0
275.56,126.0
275.62,122.0
275.69,131.0
275.75,137.0
275.81,139.0
275.88,129.0
275.94,132.0
276.0,130.0
276.07,112.0
276.13,134.0
276.19,135.0
276.25,151.0
276.32,155.0
276.38,133.0
276.44,139.0
276.51,121.0
276.57,120.0
276.63,122.0
276.7,106.0
276.76,106.0
276.82,110.0
276.88,106.0
276.95,119.0
277.01,142.0
277.07,128.0
277.14,120.0
277.2,116.0
277.26,126.0
277.33,107.0
277.39,133.0
277.45,98.0
277.51,94.0
277.58,101.0
277.64,110.0
277.7,115.0
277.77,105.0
277.83,128.0
277.89,122.0
277.96,97.0
278.02,94.0
278.08,98.0
278.14,91.0
278.21,89.0
278.27,79.0
278.33,89.0
278.4,92.0
278.46,81.0
278.52,86.0
278.59,69.0
278.65,76.0
278.71,68.0
278.77,77.0
278.84,77.0
278.9,89.0
278.96,65.0
279.03,75.0
279.09,65.0
279.15,58.0
279.22,33.0
279.28,48.0
279.34,35.0
279.4,16.0
279.47,32.0
279.53,16.0
279.59,7.0
279.66,5.0
279.72,23.0
279.78,24.0
279.85,40.0
279.91,30.0
279.97,19.0
280.03,15.0
280.1,18.0
280.16,26.0
280.22,3.0
280.29,8.0
280.35,16.0
280.41,5.0
280.48,25.0
280.54,17.0
280.6,16.0
280.66,35.0
280.73,23.0
280.79,31.0
280.85,48.0
280.92,26.0
280.98,5.0
281.04,34.0
281.11,26.0
281.17,23.0
281.23,34.0
281.29,19.0
281.36,19.0
281.42,19.0
281.48,24.0
281.55,19.0
281.61,44.0
281.67,56.0
281.74,53.0
281.8,55.0
281.86,44.0
281.92,49.0
281.99,55.0
282.05,57.0
282.11,74.0
282.18,65.0
282.24,66.0
282.3,48.0
282.37,52.0
282.43,54.0
282.49,46.0
282.55,38.0
282.62,32.0
282.68,23.0
282.74,38.0
282.81,37.0
282.87,58.0
282.93,45.0
283.0,36.0
283.06,28.0
283.12,44.0
283.18,65.0
283.25,40.0
283.31,61.0
283.37,68.0
283.44,73.0
283.5,78.0
283.56,80.0
283.63,83.0
283.69,72.0
283.75,64.0
283.81,65.0
283.88,82.0
283.94,75.0
284.0,74.0
284.07,70.0
284.13,98.0
284.19,77.0
284.26,65.0
284.32,76.0
284.38,90.0
284.44,85.0
284.51,89.0
284.57,90.0
284.63,87.0
284.7,85.0
284.76,88.0
284.82,78.0
284.89,83.0
284.95,104.0
285.01,78.0
285.07,77.0
285.14,102.0
285.2,79.0
285.26,68.0
285.33,58.0
285.39,77.0
285.45,88.0
285.52,55.0
285.58,81.0
285.64,56.0
285.7,61.0
285.77,61.0
285.83,79.0
285.89,66.0
285.96,66.0
286.02,70.0
286.08,75.0
286.15,94.0
286.21,70.0
286.27,47.0
286.33,45.0
286.4,56.0
286.46,48.0
286.52,24.0
286.59,46.0
286.65,58.0
286.71,48.0
286.78,40.0
286.84,36.0
286.9,35.0
286.96,37.0
287.03,11.0
287.09,31.0
287.15,31.0
287.22,35.0
287.28,27.0
287.34,24.0
287.41,36.0
287.47,15.0
287.53,-3.0
287.59,36.0
287.66,42.0
287.72,27.0
287.78,14.0
287.85,2.0
287.91,10.0
287.97,22.0
288.04,15.0
288.1,15.0
288.16,-4.0
288.22,-1.0
288.29,9.0
288.35,32.0
288.41,14.0
288.48,20.0
288.54,11.0
288.6,-3.0
288.67,14.0
288.73,21.0
288.79,28.0
288.85,27.0
288.92,41.0
288.98,32.0
289.04,20.0
289.11,28.0
289.17,6.0
289.23,32.0
289.3,27.0
289.36,24.0
289.42,53.0
289.48,48.0
289.55,53.0
289.61,48.0
289.67,62.0
289.74,70.0
289.8,71.0
289.86,70.0
289.93,68.0
289.99,76.0
290.05,63.0
290.11,69.0
290.18,82.0
290.24,89.0
290.3,86.0
290.37,85.0
290.43,78.0
290.49,102.0
290.56,82.0
290.62,69.0
290.68,70.0
290.74,79.0
290.81,91.0
290.87,101.0
290.93,88.0
291.0,103.0
291.06,106.0
291.12,102.0
291.19,96.0
291.25,93.0
291.31,102.0
291.37,130.0
291.44,126.0
291.5,111.0
291.56,111.0
291.63,134.0
291.69,132.0
291.75,131.0
291.82,116.0
291.88,135.0
291.94,135.0
292.0,134.0
292.07,144.0
292.13,117.0
292.19,135.0
292.26,135.0
292.32,140.0
292.38,126.0
292.45,137.0
292.51,145.0
292.57,135.0
292.63,138.0
292.7,151.0
292.76,159.0
292.82,157.0
292.89,150.0
292.95,155.0
293.01,136.0
293.08,139.0
293.14,131.0
293.2,136.0
293.26,157.0
293.33,152.0
293.39,141.0
293.45,152.0
293.52,159.0
293.58,162.0
293.64,147.0
293.71,165.0
293.77,167.0
293.83,152.0
293.89,171.0
293.96,159.0
294.02,167.0
294.08,148.0
294.15,123.0
294.21,128.0
294.27,110.0
294.34,120.0
294.4,112.0
294.46,113.0
294.52,114.0
294.59,87.0
294.65,112.0
294.71,115.0
294.78,121.0
294.84,116.0
294.9,89.0
294.97,94.0
295.03,77.0
295.09,64.0
295.15,60.0
295.22,63.0
295.28,73.0
295.34,69.0
295.41,76.0
295.47,80.0
295.53,66.0
295.6,63.0
295.66,68.0
295.72,69.0
295.78,80.0
295.85,100.0
295.91,77.0
295.97,63.0
296.04,58.0
296.1,67.0
296.16,73.0
296.23,90.0
296.29,79.0
296.35,75.0
296.41,79.0
296.48,48.0
296.54,42.0
296.6,55.0
296.67,30.0
296.73,33.0
296.79,46.0
296.86,18.0
296.92,27.0
296.98,25.0
297.04,49.0
297.11,60.0
297.17,53.0
297.23,47.0
297.3,42.0
297.36,51.0
297.42,46.0
297.49,44.0
297.55,39.0
297.61,64.0
297.67,78.0
297.74,89.0
297.8,64.0
297.86,49.0
297.93,55.0
297.99,44.0
298.05,37.0
298.12,53.0
298.18,63.0
298.24,53.0
298.3,40.0
298.37,39.0
298.43,38.0
298.49,57.0
298.56,41.0
298.62,42.0
298.68,57.0
298.75,41.0
298.81,35.0
298.87,48.0
298.93,45.0
299.0,36.0
299.06,40.0
299.12,56.0
299.19,55.0
299.25,68.0
299.31,88.0
299.38,74.0
299.44,69.0
299.5,66.0
299.56,61.0
299.63,67.0
299.69,56.0
299.75,46.0
299.82,69.0
299.88,72.0
299.94,71.0
300.01,82.0
300.07,82.0
300.13,92.0
300.19,83.0
300.26,82.0
300.32,91.0
300.38,82.0
300.45,93.0
300.51,71.0
300.57,59.0
300.64,67.0
300.7,73.0
300.76,78.0
300.82,92.0
300.89,71.0
300.95,73.0
301.01,106.0
301.08,113.0
301.14,96.0
301.2,84.0
301.27,92.0
301.33,88.0
301.39,83.0
301.45,96.0
301.52,85.0
301.58,114.0
301.64,110.0
301.71,93.0
301.77,108.0
301.83,105.0
301.9,107.0
301.96,108.0
302.02,101.0
302.08,104.0
302.15,90.0
302.21,86.0
302.27,81.0
302.34,85.0
302.4,94.0
302.46,87.0
302.53,86.0
302.59,75.0
302.65,71.0
302.71,83.0
302.78,88.0
302.84,88.0
302.9,61.0
302.97,67.0
303.03,74.0
303.09,79.0
303.16,63.0
303.22,56.0
303.28,35.0
303.34,41.0
303.41,32.0
303.47,37.0
303.53,27.0
303.6,26.0
303.66,46.0
303.72,42.0
303.79,40.0
303.85,29.0
303.91,31.0
303.97,24.0
304.04,16.0
304.1,20.0
304.16,19.0
304.23,16.0
304.29,28.0
304.35,26.0
304.42,29.0
304.48,5.0
304.54,15.0
304.6,18.0
304.67,24.0
304.73,23.0
304.79,20.0
304.86,27.0
304.92,-1.0
304.98,23.0
305.05,20.0
305.11,3.0
305.17,6.0
305.23,13.0
305.3,12.0
305.36,4.0
305.42,6.0
305.49,25.0
305.55,0.0
305.61,3.0
305.68,8.0
305.74,-2.0
305.8,13.0
305.86,13.0
305.93,23.0
305.99,19.0
306.05,22.0
306.12,13.0
306.18,24.0
306.24,2.0
306.31,22.0
306.37,12.0
306.43,18.0
306.49,20.0
306.56,29.0
306.62,28.0
306.68,18.0
306.75,34.0
306.81,25.0
306.87,29.0
306.94,42.0
307.0,31.0
307.06,35.0
307.12,67.0
307.19,56.0
307.25,66.0
307.31,56.0
307.38,47.0
307.44,72.0
307.5,73.0
307.57,81.0
307.63,64.0
307.69,67.0
307.75,73.0
307.82,61.0
307.88,64.0
307.94,73.0
308.01,80.0
308.07,77.0
308.13,72.0
308.2,73.0
308.26,87.0
308.32,81.0
308.38,85.0
308.45,75.0
308.51,67.0
308.57,79.0
308.64,64.0
308.7,72.0
308.76,56.0
308.83,63.0
308.89,67.0
308.95,73.0
309.01,66.0
309.08,56.0
309.14,83.0
309.2,87.0
309.27,111.0
309.33,93.0
309.39,89.0
309.46,95.0
309.52,99.0
309.58,107.0
309.64,138.0
309.71,128.0
309.77,115.0
309.83,110.0
309.9,99.0
309.96,99.0
310.02,110.0
310.09,112.0
310.15,110.0
310.21,121.0
310.27,98.0
310.34,115.0
310.4,95.0
310.46,102.0
310.53,112.0
310.59,110.0
310.65,105.0
310.72,106.0
310.78,104.0
310.84,100.0
310.9,96.0
310.97,114.0
311.03,119.0
311.09,117.0
311.16,101.0
311.22,110.0
311.28,108.0
311.35,103.0
311.41,104.0
311.47,97.0
311.53,79.0
311.6,86.0
311.66,102.0
311.72,88.0
311.79,87.0
311.85,83.0
311.91,74.0
311.98,53.0
312.04,55.0
312.1,54.0
312.16,55.0
312.23,43.0
312.29,42.0
312.35,52.0
312.42,52.0
312.48,63.0
312.54,55.0
312.61,60.0
312.67,60.0
312.73,54.0
312.79,50.0
312.86,55.0
312.92,49.0
312.98,66.0
313.05,85.0
313.11,66.0
313.17,85.0
313.24,78.0
313.3,73.0
313.36,85.0
313.42,69.0
313.49,75.0
313.55,70.0
313.61,60.0
313.68,76.0
313.74,73.0
313.8,83.0
313.87,69.0
313.93,63.0
313.99,68.0
314.05,83.0
314.12,57.0
314.18,68.0
314.24,53.0
314.31,46.0
314.37,75.0
314.43,49.0
314.5,67.0
314.56,77.0
314.62,72.0
314.68,78.0
314.75,60.0
314.81,63.0
314.87,62.0
314.94,78.0
315.0,89.0
315.06,97.0
315.13,117.0
315.19,105.0
315.25,96.0
315.31,90.0
315.38,117.0
315.44,95.0
315.5,84.0
315.57,85.0
315.63,83.0
315.69,88.0
315.76,84.0
315.82,99.0
315.88,79.0
315.94,59.0
316.01,65.0
316.07,70.0
316.13,74.0
316.2,100.0
316.26,95.0
316.32,88.0
316.39,110.0
316.45,118.0
316.51,111.0
316.57,111.0
316.64,118.0
316.7,102.0
316.76,122.0
316.83,122.0
316.89,119.0
316.95,134.0
317.02,107.0
317.08,110.0
317.14,103.0
317.2,105.0
317.27,110.0
317.33,110.0
317.39,118.0
317.46,136.0
317.52,150.0
317.58,129.0
317.65,130.0
317.71,138.0
317.77,141.0
317.83,160.0
317.9,150.0
317.96,136.0
318.02,143.0
318.09,143.0
318.15,133.0
318.21,131.0
318.28,135.0
318.34,144.0
318.4,145.0
318.46,120.0
318.53,133.0
318.59,141.0
318.65,121.0
318.72,152.0
318.78,148.0
318.84,132.0
318.91,141.0
318.97,152.0
319.03,141.0
319.09,130.0
319.16,158.0
319.22,144.0
319.28,132.0
319.35,120.0
319.41,121.0
319.47,124.0
319.54,118.0
319.6,92.0
319.66,120.0
319.72,125.0
319.79,119.0
319.85,115.0
319.91,96.0
319.98,113.0
320.04,89.0
320.1,103.0
320.17,107.0
320.23,108.0
320.29,98.0
320.35,87.0
320.42,90.0
320.48,82.0
320.54,88.0
320.61,95.0
320.67,92.0
320.73,86.0
320.8,83.0
320.86,84.0
320.92,86.0
320.98,64.0
321.05,63.0
321.11,82.0
321.17,64.0
321.24,77.0
321.3,77.0
321.36,59.0
321.43,62.0
321.49,67.0
321.55,67.0
321.61,69.0
321.68,94.0
321.74,90.0
321.8,86.0
321.87,85.0
321.93,96.0
321.99,95.0
322.06,94.0
322.12,131.0
322.18,113.0
322.24,117.0
322.31,105.0
322.37,88.0
322.43,102.0
322.5,94.0
322.56,114.0
322.62,100.0
322.69,83.0
322.75,96.0
322.81,114.0
322.87,101.0
322.94,88.0
323.0,85.0
323.06,112.0
323.13,120.0
323.19,99.0
323.25,124.0
323.32,120.0
323.38,125.0
323.44,112.0
323.5,98.0
323.57,113.0
323.63,85.0
323.69,107.0
323.76,94.0
323.82,109.0
323.88,100.0
323.95,103.0
324.01,110.0
324.07,119.0
324.13,108.0
324.2,109.0
324.26,100.0
324.32,110.0
324.39,122.0
324.45,110.0
324.51,118.0
324.58,115.0
324.64,111.0
324.7,135.0
324.76,136.0
324.83,117.0
324.89,122.0
324.95,138.0
325.02,136.0
325.08,133.0
325.14,142.0
325.21,147.0
325.27,154.0
325.33,146.0
325.39,154.0
325.46,135.0
325.52,148.0
325.58,132.0
325.65,122.0
325.71,133.0
325.77,129.0
325.84,151.0
325.9,155.0
325.96,139.0
326.02,142.0
326.09,154.0
326.15,139.0
326.21,147.0
326.28,132.0
326.34,141.0
326.4,134.0
326.47,136.0
326.53,139.0
326.59,123.0
326.65,141.0
326.72,139.0
326.78,137.0
326.84,135.0
326.91,141.0
326.97,133.0
327.03,126.0
327.1,128.0
327.16,128.0
327.22,141.0
327.28,144.0
327.35,143.0
327.41,124.0
327.47,128.0
327.54,128.0
327.6,125.0
327.66,126.0
327.73,149.0
327.79,132.0
327.85,118.0
327.91,126.0
327.98,121.0
328.04,114.0
328.1,122.0
328.17,103.0
328.23,117.0
328.29,145.0
328.36,138.0
328.42,125.0
328.48,120.0
328.54,131.0
328.61,131.0
328.67,129.0
328.73,127.0
328.8,125.0
328.86,122.0
328.92,131.0
328.99,112.0
329.05,121.0
329.11,122.0
329.17,121.0
329.24,93.0
329.3,85.0
329.36,100.0
329.43,102.0
329.49,98.0
329.55,82.0
329.62,93.0
329.68,91.0
329.74,81.0
329.8,85.0
329.87,71.0
329.93,74.0
329.99,53.0
330.06,72.0
330.12,57.0
330.18,65.0
330.25,84.0
330.31,63.0
330.37,82.0
330.43,64.0
330.5,60.0
330.56,45.0
330.62,53.0
330.69,62.0
330.75,47.0
330.81,38.0
330.88,47.0
330.94,48.0
331.0,43.0
331.06,22.0
331.13,13.0
331.19,30.0
331.25,16.0
331.32,26.0
331.38,14.0
331.44,27.0
331.51,21.0
331.57,4.0
331.63,22.0
331.69,4.0
331.76,11.0
331.82,-17.0
331.88,-4.0
331.95,-9.0
332.01,-16.0
332.07,-10.0
332.14,-5.0
332.2,-3.0
332.26,3.0
332.32,5.0
332.39,-10.0
332.45,-11.0
332.51,-15.0
332.58,-17.0
332.64,-18.0
332.7,-19.0
332.77,-13.0
332.83,-4.0
332.89,-11.0
332.95,11.0
333.02,17.0
333.08,21.0
333.14,8.0
333.21,9.0
333.27,0.0
333.33,-11.0
333.4,24.0
333.46,11.0
333.52,33.0
333.58,18.0
333.65,8.0
333.71,16.0
333.77,32.0
333.84,35.0
333.9,18.0
333.96,41.0
334.03,21.0
334.09,37.0
334.15,15.0
334.21,35.0
334.28,38.0
334.34,29.0
334.4,41.0
334.47,41.0
334.53,48.0
334.59,37.0
334.66,51.0
334.72,44.0
334.78,48.0
334.84,60.0
334.91,62.0
334.97,57.0
335.03,45.0
335.1,36.0
335.16,49.0
335.22,63.0
335.29,46.0
335.35,46.0
335.41,36.0
335.47,52.0
335.54,60.0
335.6,43.0
335.66,35.0
335.73,37.0
335.79,46.0
335.85,29.0
335.92,8.0
335.98,19.0
336.04,25.0
336.1,8.0
336.17,4.0
336.23,-1.0
336.29,5.0
336.36,-1.0
336.42,-7.0
336.48,-17.0
336.55,-28.0
336.61,-29.0
336.67,-40.0
336.73,-24.0
336.8,-25.0
336.86,-19.0
336.92,-12.0
336.99,-13.0
337.05,-4.0
337.11,13.0
337.18,2.0
337.24,0.0
337.3,-3.0
337.36,1.0
337.43,14.0
337.49,-3.0
337.55,7.0
337.62,16.0
337.68,16.0
337.74,7.0
337.81,19.0
337.87,36.0
337.93,27.0
337.99,29.0
338.06,29.0
338.12,15.0
338.18,13.0
338.25,12.0
338.31,19.0
338.37,9.0
338.44,31.0
338.5,42.0
338.56,20.0
338.62,31.0
338.69,19.0
338.75,41.0
338.81,32.0
338.88,16.0
338.94,30.0
339.0,21.0
339.07,34.0
339.13,29.0
339.19,43.0
339.25,43.0
339.32,63.0
339.38,68.0
339.44,61.0
339.51,72.0
339.57,63.0
339.63,70.0
339.7,66.0
339.76,66.0
339.82,62.0
339.88,59.0
339.95,74.0
340.01,60.0
340.07,69.0
340.14,65.0
340.2,67.0
340.26,71.0
340.33,72.0
340.39,99.0
340.45,94.0
340.51,99.0
340.58,77.0
340.64,84.0
340.7,102.0
340.77,113.0
340.83,110.0
340.89,107.0
340.96,111.0
341.02,116.0
341.08,110.0
341.14,105.0
341.21,127.0
341.27,114.0
341.33,107.0
341.4,108.0
341.46,124.0
341.52,131.0
341.59,134.0
341.65,144.0
341.71,143.0
341.77,143.0
341.84,158.0
341.9,142.0
341.96,148.0
342.03,136.0
342.09,145.0
342.15,154.0
342.22,163.0
342.28,188.0
342.34,163.0
342.4,170.0
342.47,188.0
342.53,188.0
342.59,191.0
342.66,186.0
342.72,186.0
342.78,178.0
342.85,196.0
342.91,182.0
342.97,186.0
343.03,204.0
343.1,205.0
343.16,202.0
343.22,216.0
343.29,215.0
343.35,213.0
343.41,220.0
343.48,217.0
343.54,220.0
343.6,226.0
343.66,232.0
343.73,233.0
343.79,234.0
343.85,236.0
343.92,227.0
343.98,223.0
344.04,226.0
344.11,234.0
344.17,241.0
344.23,215.0
344.29,220.0
344.36,228.0
344.42,214.0
344.48,221.0
344.55,204.0
344.61,219.0
344.67,206.0
344.74,234.0
344.8,239.0
344.86,225.0
344.92,235.0
344.99,222.0
345.05,221.0
345.11,228.0
345.18,222.0
345.24,226.0
345.3,219.0
345.37,232.0
345.43,211.0
345.49,208.0
345.55,207.0
345.62,213.0
345.68,197.0
345.74,172.0
345.81,189.0
345.87,183.0
345.93,164.0
346.0,173.0
346.06,185.0
346.12,198.0
346.18,198.0
346.25,168.0
346.31,176.0
346.37,184.0
346.44,164.0
346.5,151.0
346.56,157.0
346.63,141.0
346.69,135.0
346.75,137.0
346.81,129.0
346.88,115.0
346.94,139.0
347.0,144.0
347.07,127.0
347.13,118.0
347.19,132.0
347.26,140.0
347.32,161.0
347.38,157.0
347.44,158.0
347.51,141.0
347.57,128.0
347.63,140.0
347.7,121.0
347.76,125.0
347.82,97.0
347.89,112.0
347.95,121.0
348.01,106.0
348.07,103.0
348.14,104.0
348.2,112.0
348.26,129.0
348.33,133.0
348.39,121.0
348.45,105.0
348.52,107.0
348.58,111.0
348.64,94.0
348.7,110.0
348.77,98.0
348.83,114.0
348.89,119.0
348.96,98.0
349.02,97.0
349.08,110.0
349.15,125.0
349.21,126.0
349.27,115.0
349.33,110.0
349.4,108.0
349.46,93.0
349.52,103.0
349.59,108.0
349.65,108.0
349.71,90.0
349.78,106.0
349.84,105.0
349.9,105.0
349.96,100.0
350.03,97.0
350.09,113.0
350.15,96.0
350.22,103.0
350.28,97.0
350.34,96.0
350.41,82.0
350.47,78.0
350.53,100.0
350.59,102.0
350.66,95.0
350.72,77.0
350.78,87.0
350.85,88.0
350.91,95.0
350.97,89.0
351.04,75.0
351.1,63.0
351.16,72.0
351.22,88.0
351.29,94.0
351.35,101.0
351.41,96.0
351.48,94.0
351.54,82.0
351.6,70.0
351.67,73.0
351.73,68.0
351.79,83.0
351.85,89.0
351.92,82.0
351.98,84.0
352.04,97.0
352.11,126.0
352.17,122.0
352.23,119.0
352.3,110.0
352.36,134.0
352.42,126.0
352.48,114.0
352.55,118.0
352.61,100.0
352.67,115.0
352.74,98.0
352.8,97.0
352.86,95.0
352.93,112.0
352.99,98.0
353.05,99.0
353.11,96.0
353.18,89.0
353.24,81.0
353.3,73.0
353.37,85.0
353.43,66.0
353.49,73.0
353.56,85.0
353.62,68.0
353.68,59.0
353.74,63.0
353.81,68.0
353.87,67.0
353.93,73.0
354.0,42.0
354.06,56.0
354.12,78.0
354.19,56.0
354.25,70.0
354.31,69.0
354.37,75.0
354.44,70.0
354.5,63.0
354.56,75.0
354.63,38.0
354.69,53.0
354.75,65.0
354.82,57.0
354.88,71.0
354.94,72.0
355.0,71.0
355.07,56.0
355.13,54.0
355.19,57.0
355.26,65.0
355.32,44.0
355.38,28.0
355.45,29.0
355.51,44.0
355.57,29.0
355.63,25.0
355.7,44.0
355.76,36.0
355.82,29.0
355.89,4.0
355.95,9.0
356.01,46.0
356.08,42.0
356.14,51.0
356.2,64.0
356.26,61.0
356.33,56.0
356.39,56.0
356.45,50.0
356.52,64.0
356.58,35.0
356.64,40.0
356.71,56.0
356.77,70.0
356.83,70.0
356.89,66.0
356.96,87.0
357.02,66.0
357.08,70.0
357.15,61.0
357.21,81.0
357.27,82.0
357.34,76.0
357.4,81.0
357.46,86.0
357.52,94.0
357.59,101.0
357.65,91.0
357.71,92.0
357.78,86.0
357.84,98.0
357.9,91.0
357.97,93.0
358.03,97.0
358.09,111.0
358.15,124.0
358.22,132.0
358.28,131.0
358.34,135.0
358.41,117.0
358.47,122.0
358.53,116.0
358.6,98.0
358.66,106.0
358.72,105.0
358.78,88.0
358.85,97.0
358.91,111.0
358.97,98.0
359.04,91.0
359.1,92.0
359.16,88.0
359.23,101.0
359.29,110.0
359.35,103.0
359.41,98.0
359.48,93.0
359.54,98.0
359.6,91.0
359.67,102.0
359.73,115.0
359.79,102.0
359.86,112.0
359.92,99.0
359.98,100.0
360.04,111.0
360.11,110.0
360.17,101.0
360.23,83.0
360.3,97.0
360.36,96.0
360.42,108.0
360.49,104.0
360.55,113.0
360.61,117.0
360.67,120.0
360.74,116.0
360.8,103.0
360.86,108.0
360.93,100.0
360.99,91.0
361.05,102.0
361.12,126.0
361.18,89.0
361.24,100.0
361.3,93.0
361.37,72.0
361.43,67.0
361.49,78.0
361.56,87.0
361.62,98.0
361.68,106.0
361.75,103.0
361.81,85.0
361.87,104.0
361.93,99.0
362.0,98.0
362.06,91.0
362.12,73.0
362.19,69.0
362.25,92.0
362.31,75.0
362.38,62.0
362.44,77.0
362.5,55.0
362.56,57.0
362.63,65.0
362.69,63.0
362.75,74.0
362.82,70.0
362.88,83.0
362.94,67.0
363.01,78.0
363.07,69.0
363.13,74.0
363.19,82.0
363.26,62.0
363.32,94.0
363.38,91.0
363.45,80.0
363.51,71.0
363.57,76.0
363.64,93.0
363.7,84.0
363.76,88.0
363.82,88.0
363.89,89.0
363.95,47.0
364.01,66.0
364.08,67.0
364.14,69.0
364.2,65.0
364.27,81.0
364.33,98.0
364.39,66.0
364.45,84.0
364.52,75.0
364.58,81.0
364.64,76.0
364.71,72.0
364.77,98.0
364.83,104.0
364.9,101.0
364.96,84.0
365.02,75.0
365.08,85.0
365.15,91.0
365.21,82.0
365.27,105.0
365.34,93.0
365.4,67.0
365.46,80.0
365.53,71.0
365.59,77.0
365.65,100.0
365.71,102.0
365.78,100.0
365.84,101.0
365.9,95.0
365.97,119.0
366.03,101.0
366.09,82.0
366.16,69.0
366.22,78.0
366.28,82.0
366.34,95.0
366.41,93.0
366.47,111.0
366.53,115.0
366.6,119.0
366.66,106.0
366.72,101.0
366.79,91.0
366.85,105.0
366.91,112.0
366.97,115.0
367.04,126.0
367.1,103.0
367.16,97.0
367.23,113.0
367.29,135.0
367.35,137.0
367.42,134.0
367.48,138.0
367.54,132.0
367.6,133.0
367.67,152.0
367.73,144.0
367.79,160.0
367.86,118.0
367.92,132.0
367.98,137.0
368.05,130.0
368.11,143.0
368.17,110.0
368.23,126.0
368.3,119.0
368.36,118.0
368.42,126.0
368.49,140.0
368.55,132.0
368.61,118.0
368.68,119.0
368.74,136.0
368.8,120.0
368.86,97.0
368.93,104.0
368.99,126.0
369.05,133.0
369.12,132.0
369.18,151.0
369.24,147.0
369.31,141.0
369.37,139.0
369.43,129.0
369.49,125.0
369.56,134.0
369.62,135.0
369.68,131.0
369.75,132.0
369.81,122.0
369.87,107.0
369.94,107.0
370.0,109.0
370.06,129.0
370.12,119.0
370.19,120.0
370.25,128.0
370.31,103.0
370.38,101.0
370.44,97.0
370.5,104.0
370.57,119.0
370.63,83.0
370.69,94.0
370.75,86.0
370.82,82.0
370.88,77.0
370.94,78.0
371.01,97.0
371.07,74.0
371.13,74.0
371.2,63.0
371.26,86.0
371.32,102.0
371.38,83.0
371.45,75.0
371.51,92.0
371.57,91.0
371.64,107.0
371.7,91.0
371.76,93.0
371.83,88.0
371.89,83.0
371.95,87.0
372.01,91.0
372.08,74.0
372.14,86.0
372.2,87.0
372.27,83.0
372.33,83.0
372.39,63.0
372.46,55.0
372.52,67.0
372.58,60.0
372.64,65.0
372.71,28.0
372.77,48.0
372.83,59.0
372.9,56.0
372.96,60.0
373.02,67.0
373.09,69.0
373.15,56.0
373.21,74.0
373.27,63.0
373.34,72.0
373.4,61.0
373.46,47.0
373.53,61.0
373.59,58.0
373.65,58.0
373.72,64.0
373.78,74.0
373.84,74.0
373.9,88.0
373.97,75.0
374.03,84.0
374.09,79.0
374.16,83.0
374.22,94.0
374.28,81.0
374.35,100.0
374.41,110.0
374.47,111.0
374.53,104.0
374.6,105.0
374.66,128.0
374.72,107.0
374.79,100.0
374.85,99.0
374.91,100.0
374.98,98.0
375.04,122.0
375.1,110.0
375.16,114.0
375.23,100.0
375.29,117.0
375.35,114.0
375.42,110.0
375.48,109.0
375.54,100.0
375.61,121.0
375.67,124.0
375.73,102.0
375.79,118.0
375.86,123.0
375.92,97.0
375.98,115.0
376.05,107.0
376.11,106.0
376.17,114.0
376.24,115.0
376.3,115.0
376.36,119.0
376.42,130.0
376.49,114.0
376.55,112.0
376.61,123.0
376.68,123.0
376.74,115.0
376.8,111.0
376.87,113.0
376.93,80.0
376.99,109.0
377.05,86.0
377.12,93.0
377.18,104.0
377.24,109.0
377.31,110.0
377.37,96.0
377.43,99.0
377.5,108.0
377.56,99.0
377.62,90.0
377.68,89.0
377.75,88.0
377.81,118.0
377.87,112.0
377.94,123.0
378.0,117.0
378.06,115.0
378.13,108.0
378.19,111.0
378.25,119.0
378.31,108.0
378.38,107.0
378.44,112.0
378.5,120.0
378.57,126.0
378.63,115.0
378.69,108.0
378.76,103.0
378.82,107.0
378.88,115.0
378.94,118.0
379.01,108.0
379.07,104.0
379.13,114.0
379.2,107.0
379.26,99.0
379.32,93.0
379.39,107.0
379.45,118.0
379.51,107.0
379.57,91.0
379.64,83.0
379.7,99.0
379.76,82.0
379.83,92.0
379.89,95.0
379.95,78.0
380.02,70.0
380.08,75.0
380.14,92.0
380.2,67.0
380.27,64.0
380.33,43.0
380.39,72.0
380.46,62.0
380.52,56.0
380.58,53.0
380.65,22.0
380.71,44.0
380.77,45.0
380.83,26.0
380.9,26.0
380.96,26.0
381.02,22.0
381.09,26.0
381.15,74.0
381.21,50.0
381.28,33.0
381.34,39.0
381.4,31.0
381.46,45.0
381.53,39.0
381.59,75.0
381.65,53.0
381.72,50.0
381.78,31.0
381.84,43.0
381.91,36.0
381.97,39.0
382.03,46.0
382.09,30.0
382.16,51.0
382.22,62.0
382.28,43.0
382.35,14.0
382.41,16.0
382.47,22.0
382.54,9.0
382.6,20.0
382.66,28.0
382.72,31.0
382.79,32.0
382.85,13.0
382.91,22.0
382.98,23.0
383.04,30.0
383.1,18.0
383.17,26.0
383.23,25.0
383.29,39.0
383.35,12.0
383.42,-4.0
383.48,29.0
383.54,32.0
383.61,47.0
383.67,44.0
383.73,32.0
383.8,22.0
383.86,23.0
383.92,13.0
383.98,15.0
384.05,24.0
384.11,9.0
384.17,7.0
384.24,5.0
384.3,11.0
384.36,12.0
384.43,-9.0
384.49,6.0
384.55,8.0
384.61,19.0
384.68,20.0
384.74,15.0
384.8,15.0
384.87,17.0
384.93,15.0
384.99,-4.0
385.06,11.0
385.12,19.0
385.18,-9.0
385.24,-13.0
385.31,13.0
385.37,21.0
385.43,12.0
385.5,10.0
385.56,-11.0
385.62,-10.0
385.69,-5.0
385.75,-4.0
385.81,3.0
385.87,17.0
385.94,6.0
386.0,-5.0
386.06,-9.0
386.13,-12.0
386.19,17.0
386.25,19.0
386.32,9.0
386.38,26.0
386.44,36.0
386.5,36.0
386.57,14.0
386.63,-3.0
386.69,13.0
386.76,17.0
386.82,20.0
386.88,29.0
386.95,27.0
387.01,6.0
387.07,29.0
387.13,37.0
387.2,21.0
387.26,11.0
387.32,7.0
387.39,13.0
387.45,17.0
387.51,14.0
387.58,5.0
387.64,1.0
387.7,4.0
387.76,7.0
387.83,-8.0
387.89,-4.0
387.95,-13.0
388.02,-26.0
388.08,-18.0
388.14,-4.0
388.21,-9.0
388.27,-3.0
388.33,10.0
388.39,3.0
388.46,9.0
388.52,5.0
388.58,-4.0
388.65,15.0
388.71,34.0
388.77,4.0
388.84,13.0
388.9,20.0
388.96,12.0
389.02,16.0
389.09,22.0
389.15,30.0
389.21,41.0
389.28,4.0
389.34,35.0
389.4,27.0
389.47,20.0
389.53,30.0
389.59,38.0
389.65,46.0
389.72,49.0
389.78,45.0
389.84,39.0
389.91,66.0
389.97,46.0
390.03,56.0
390.1,67.0
390.16,64.0
390.22,74.0
390.28,90.0
390.35,91.0
390.41,63.0
390.47,82.0
390.54,71.0
390.6,80.0
390.66,88.0
390.73,83.0
390.79,100.0
390.85,88.0
390.91,85.0
390.98,90.0
391.04,82.0
391.1,77.0
391.17,93.0
391.23,103.0
391.29,86.0
391.36,91.0
391.42,103.0
391.48,102.0
391.54,106.0
391.61,119.0
391.67,132.0
391.73,143.0
391.8,134.0
391.86,119.0
391.92,127.0
391.99,130.0
392.05,131.0
392.11,141.0
392.17,131.0
392.24,139.0
392.3,155.0
392.36,164.0
392.43,168.0
392.49,171.0
392.55,149.0
392.62,149.0
392.68,161.0
392.74,187.0
392.8,178.0
392.87,191.0
392.93,187.0
392.99,166.0
393.06,156.0
393.12,146.0
393.18,181.0
393.25,185.0
393.31,184.0
393.37,212.0
393.43,202.0
393.5,193.0
393.56,206.0
393.62,207.0
393.69,198.0
393.75,198.0
393.81,212.0
393.88,239.0
393.94,237.0
394.0,221.0
394.06,233.0
394.13,237.0
394.19,229.0
394.25,240.0
394.32,235.0
394.38,219.0
394.44,236.0
394.51,252.0
394.57,246.0
394.63,256.0
394.69,248.0
394.76,242.0
394.82,237.0
394.88,256.0
394.95,265.0
395.01,273.0
395.07,256.0
395.14,256.0
395.2,223.0
395.26,227.0
395.32,217.0
395.39,211.0
395.45,233.0
395.51,226.0
395.58,217.0
395.64,230.0
395.7,232.0
395.77,215.0
395.83,215.0
395.89,210.0
395.95,213.0
396.02,228.0
396.08,206.0
396.14,206.0
396.21,195.0
396.27,198.0
396.33,200.0
396.4,213.0
396.46,223.0
396.52,217.0
396.58,223.0
396.65,214.0
396.71,222.0
396.77,203.0
396.84,171.0
396.9,196.0
396.96,188.0
397.03,184.0
397.09,192.0
397.15,195.0
397.21,182.0
397.28,180.0
397.34,180.0
397.4,193.0
397.47,212.0
397.53,225.0
397.59,193.0
397.66,202.0
397.72,214.0
397.78,182.0
397.84,183.0
397.91,186.0
397.97,188.0
398.03,172.0
398.1,179.0
398.16,171.0
398.22,149.0
398.29,170.0
398.35,176.0
398.41,174.0
398.47,163.0
398.54,161.0
398.6,173.0
398.66,171.0
398.73,163.0
398.79,164.0
398.85,158.0
398.92,161.0
398.98,166.0
399.04,156.0
399.1,151.0
399.17,159.0
399.23,164.0
399.29,165.0
399.36,162.0
399.42,133.0
399.48,131.0
399.55,142.0
399.61,124.0
399.67,144.0
399.73,160.0
399.8,125.0
399.86,157.0
399.92,142.0
399.99,135.0
400.05,140.0
400.11,118.0
400.18,124.0
400.24,139.0
400.3,133.0
400.36,153.0
400.43,134.0
400.49,122.0
400.55,105.0
400.62,107.0
400.68,129.0
400.74,119.0
400.81,80.0
400.87,94.0
400.93,100.0
400.99,76.0
401.06,93.0
401.12,96.0
401.18,119.0
401.25,111.0
401.31,98.0
401.37,123.0
401.44,129.0
401.5,118.0
401.56,83.0
401.62,70.0
401.69,96.0
401.75,99.0
401.81,110.0
401.88,103.0
401.94,96.0
402.0,96.0
402.07,125.0
402.13,97.0
402.19,104.0
402.25,107.0
402.32,109.0
402.38,99.0
402.44,121.0
402.51,118.0
402.57,113.0
402.63,109.0
402.7,78.0
402.76,87.0
402.82,78.0
402.88,95.0
402.95,112.0
403.01,96.0
403.07,106.0
403.14,93.0
403.2,78.0
403.26,89.0
403.33,94.0
403.39,76.0
403.45,86.0
403.51,86.0
403.58,77.0
403.64,62.0
403.7,50.0
403.77,80.0
403.83,90.0
403.89,87.0
403.96,95.0
404.02,74.0
404.08,89.0
404.14,84.0
404.21,72.0
404.27,32.0
404.33,56.0
404.4,51.0
404.46,51.0
404.52,41.0
404.59,45.0
404.65,71.0
404.71,50.0
404.77,54.0
404.84,51.0
404.9,76.0
404.96,56.0
405.03,44.0
405.09,63.0
405.15,67.0
405.22,61.0
405.28,57.0
405.34,47.0
405.4,33.0
405.47,42.0
405.53,57.0
405.59,38.0
405.66,33.0
405.72,82.0
405.78,50.0
405.85,39.0
405.91,40.0
405.97,67.0
406.03,56.0
406.1,71.0
406.16,50.0
406.22,37.0
406.29,41.0
406.35,32.0
406.41,29.0
406.48,18.0
406.54,13.0
406.6,7.0
406.66,39.0
406.73,55.0
406.79,35.0
406.85,51.0
406.92,36.0
406.98,34.0
407.04,52.0
407.11,33.0
407.17,49.0
407.23,37.0
407.29,38.0
407.36,36.0
407.42,37.0
407.48,42.0
407.55,54.0
407.61,76.0
407.67,82.0
407.74,78.0
407.8,64.0
407.86,66.0
407.92,61.0
407.99,80.0
408.05,58.0
408.11,52.0
408.18,64.0
408.24,61.0
408.3,80.0
408.37,72.0
408.43,71.0
408.49,41.0
408.55,58.0
408.62,65.0
408.68,27.0
408.74,29.0
408.81,58.0
408.87,42.0
408.93,35.0
409.0,51.0
409.06,47.0
409.12,38.0
409.18,52.0
409.25,42.0
409.31,66.0
409.37,71.0
409.44,45.0
409.5,66.0
409.56,71.0
409.63,70.0
409.69,68.0
409.75,77.0
409.81,76.0
409.88,59.0
409.94,62.0
410.0,88.0
410.07,92.0
410.13,83.0
410.19,87.0
410.26,82.0
410.32,99.0
410.38,108.0
410.44,94.0
410.51,87.0
410.57,107.0
410.63,100.0
410.7,109.0
410.76,114.0
410.82,101.0
410.89,96.0
410.95,96.0
411.01,116.0
411.07,96.0
411.14,114.0
411.2,91.0
411.26,96.0
411.33,95.0
411.39,109.0
411.45,84.0
411.52,101.0
411.58,113.0
411.64,115.0
411.7,125.0
411.77,129.0
411.83,122.0
411.89,103.0
411.96,126.0
412.02,137.0
412.08,141.0
412.15,170.0
412.21,165.0
412.27,146.0
412.33,135.0
412.4,138.0
412.46,118.0
412.52,121.0
412.59,154.0
412.65,146.0
412.71,126.0
412.78,111.0
412.84,107.0
412.9,131.0
412.96,116.0
413.03,116.0
413.09,131.0
413.15,111.0
413.22,105.0
413.28,108.0
413.34,89.0
413.41,81.0
413.47,109.0
413.53,88.0
413.59,70.0
413.66,101.0
413.72,110.0
413.78,109.0
413.85,95.0
413.91,103.0
413.97,94.0
414.04,89.0
414.1,91.0
414.16,72.0
414.22,85.0
414.29,117.0
414.35,113.0
414.41,131.0
414.48,125.0
414.54,102.0
414.6,112.0
414.67,77.0
414.73,100.0
414.79,108.0
414.85,91.0
414.92,89.0
414.98,76.0
415.04,101.0
415.11,122.0
415.17,106.0
415.23,119.0
415.3,109.0
415.36,101.0
415.42,100.0
415.48,115.0
415.55,102.0
415.61,93.0
415.67,94.0
415.74,86.0
415.8,100.0
415.86,105.0
415.93,100.0
415.99,82.0
416.05,89.0
416.11,114.0
416.18,99.0
416.24,120.0
416.3,102.0
416.37,97.0
416.43,113.0
416.49,105.0
416.56,110.0
416.62,101.0
416.68,99.0
416.74,102.0
416.81,113.0
416.87,89.0
416.93,92.0
417.0,93.0
417.06,113.0
417.12,101.0
417.19,113.0
417.25,105.0
417.31,118.0
417.37,132.0
417.44,94.0
417.5,99.0
417.56,122.0
417.63,136.0
417.69,102.0
417.75,107.0
417.82,92.0
417.88,122.0
417.94,129.0
418.0,121.0
418.07,143.0
418.13,137.0
418.19,134.0
418.26,123.0
418.32,120.0
418.38,133.0
418.45,138.0
418.51,158.0
418.57,133.0
418.63,147.0
418.7,148.0
418.76,148.0
418.82,153.0
418.89,161.0
418.95,163.0
419.01,148.0
419.08,165.0
419.14,160.0
419.2,160.0
419.26,137.0
419.33,143.0
419.39,129.0
419.45,138.0
419.52,129.0
419.58,134.0
419.64,140.0
419.71,127.0
419.77,149.0
419.83,146.0
419.89,137.0
419.96,148.0
420.02,143.0
420.08,146.0
420.15,131.0
420.21,133.0
420.27,134.0
420.34,130.0
420.4,125.0
420.46,124.0
420.52,147.0
420.59,134.0
420.65,97.0
420.71,151.0
420.78,153.0
420.84,171.0
420.9,166.0
420.97,173.0
421.03,174.0
421.09,135.0
421.15,143.0
421.22,157.0
421.28,141.0
421.34,166.0
421.41,147.0
421.47,120.0
421.53,115.0
421.6,132.0
421.66,122.0
421.72,118.0
421.78,133.0
421.85,114.0
421.91,141.0
421.97,140.0
422.04,135.0
422.1,146.0
422.16,136.0
422.23,139.0
422.29,147.0
422.35,160.0
422.41,146.0
422.48,148.0
422.54,163.0
422.6,144.0
422.67,152.0
422.73,131.0
422.79,138.0
422.86,133.0
422.92,143.0
422.98,144.0
423.04,146.0
423.11,134.0
423.17,140.0
423.23,149.0
423.3,166.0
423.36,153.0
423.42,132.0
423.49,158.0
423.55,149.0
423.61,127.0
423.67,114.0
423.74,125.0
423.8,133.0
423.86,141.0
423.93,147.0
423.99,141.0
424.05,147.0
424.12,136.0
424.18,141.0
424.24,122.0
424.3,127.0
424.37,147.0
424.43,150.0
424.49,154.0
424.56,152.0
424.62,143.0
424.68,151.0
424.75,122.0
424.81,137.0
424.87,125.0
424.93,125.0
425.0,127.0
425.06,119.0
425.12,111.0
425.19,87.0
425.25,100.0
425.31,106.0
425.38,118.0
425.44,137.0
425.5,98.0
425.56,97.0
425.63,102.0
425.69,87.0
425.75,72.0
425.82,71.0
425.88,80.0
425.94,74.0
426.01,98.0
426.07,91.0
426.13,105.0
426.19,91.0
426.26,100.0
426.32,104.0
426.38,102.0
426.45,96.0
426.51,101.0
426.57,89.0
426.64,85.0
426.7,105.0
426.76,103.0
426.82,111.0
426.89,108.0
426.95,93.0
427.01,80.0
427.08,94.0
427.14,110.0
427.2,106.0
427.27,103.0
427.33,100.0
427.39,96.0
427.45,103.0
427.52,116.0
427.58,109.0
427.64,85.0
427.71,103.0
427.77,141.0
427.83,121.0
427.9,100.0
427.96,105.0
428.02,118.0
428.08,98.0
428.15,112.0
428.21,139.0
428.27,138.0
428.34,127.0
428.4,116.0
428.46,114.0
428.53,115.0
428.59,118.0
428.65,123.0
428.71,111.0
428.78,119.0
428.84,115.0
428.9,132.0
428.97,111.0
429.03,119.0
429.09,115.0
429.16,107.0
429.22,98.0
429.28,93.0
429.34,77.0
429.41,75.0
429.47,85.0
429.53,93.0
429.6,82.0
429.66,86.0
429.72,93.0
429.79,78.0
429.85,71.0
429.91,62.0
429.97,64.0
430.04,70.0
430.1,36.0
430.16,50.0
430.23,74.0
430.29,60.0
430.35,75.0
430.42,50.0
430.48,58.0
430.54,56.0
430.6,48.0
430.67,50.0
430.73,64.0
430.79,84.0
430.86,56.0
430.92,78.0
430.98,87.0
431.05,58.0
431.11,74.0
431.17,83.0
431.23,40.0
431.3,60.0
431.36,60.0
431.42,54.0
431.49,62.0
431.55,64.0
431.61,73.0
431.68,46.0
431.74,52.0
431.8,66.0
431.86,77.0
431.93,78.0
431.99,57.0
432.05,54.0
432.12,44.0
432.18,43.0
432.24,15.0
432.31,13.0
432.37,42.0
432.43,26.0
432.49,25.0
432.56,39.0
432.62,21.0
432.68,8.0
432.75,14.0
432.81,3.0
432.87,41.0
432.94,57.0
433.0,36.0
433.06,28.0
433.12,55.0
433.19,30.0
433.25,31.0
433.31,49.0
433.38,38.0
433.44,39.0
433.5,34.0
433.57,28.0
433.63,27.0
433.69,13.0
433.75,-17.0
433.82,-11.0
433.88,-9.0
433.94,1.0
434.01,10.0
434.07,9.0
434.13,3.0
434.2,2.0
434.26,7.0
434.32,-1.0
434.38,14.0
434.45,10.0
434.51,14.0
434.57,12.0
434.64,2.0
434.7,10.0
434.76,16.0
434.83,17.0
434.89,2.0
434.95,11.0
435.01,-7.0
435.08,14.0
435.14,12.0
435.2,16.0
435.27,20.0
435.33,8.0
435.39,5.0
435.46,1.0
435.52,16.0
435.58,-3.0
435.64,39.0
435.71,32.0
435.77,23.0
435.83,33.0
435.9,-1.0
435.96,26.0
436.02,21.0
436.09,27.0
436.15,37.0
436.21,21.0
436.27,5.0
436.34,0.0
436.4,-12.0
436.46,0.0
436.53,-11.0
436.59,-7.0
436.65,-21.0
436.72,-26.0
436.78,11.0
436.84,8.0
436.9,8.0
436.97,1.0
437.03,11.0
437.09,9.0
437.16,7.0
437.22,15.0
437.28,23.0
437.35,16.0
437.41,22.0
437.47,47.0
437.53,28.0
437.6,7.0
437.66,4.0
437.72,15.0
437.79,9.0
437.85,6.0
437.91,0.0
437.98,29.0
438.04,33.0
438.1,21.0
438.16,9.0
438.23,30.0
438.29,31.0
438.35,29.0
438.42,40.0
438.48,27.0
438.54,26.0
438.61,27.0
438.67,18.0
438.73,47.0
438.79,41.0
438.86,36.0
438.92,34.0
438.98,40.0
439.05,31.0
439.11,30.0
439.17,38.0
439.24,27.0
439.3,13.0
439.36,27.0
439.42,28.0
439.49,43.0
439.55,23.0
439.61,31.0
439.68,48.0
439.74,44.0
439.8,46.0
439.87,37.0
439.93,38.0
439.99,50.0
440.05,58.0
440.12,48.0
440.18,44.0
440.24,61.0
440.31,27.0
440.37,29.0
440.43,51.0
440.5,59.0
440.56,61.0
440.62,39.0
440.68,41.0
440.75,25.0
440.81,26.0
440.87,28.0
440.94,21.0
441.0,59.0
441.06,55.0
441.13,41.0
441.19,66.0
441.25,66.0
441.31,53.0
441.38,58.0
441.44,58.0
441.5,58.0
441.57,43.0
441.63,58.0
441.69,66.0
441.76,82.0
441.82,72.0
441.88,53.0
441.94,72.0
442.01,48.0
442.07,55.0
442.13,85.0
442.2,59.0
442.26,94.0
442.32,76.0
442.39,74.0
442.45,86.0
442.51,87.0
442.57,88.0
442.64,74.0
442.7,74.0
442.76,91.0
442.83,88.0
442.89,74.0
442.95,79.0
443.02,79.0
443.08,81.0
443.14,93.0
443.2,97.0
443.27,63.0
443.33,88.0
443.39,120.0
443.46,105.0
443.52,101.0
443.58,108.0
443.65,106.0
443.71,124.0
443.77,125.0
443.83,120.0
443.9,123.0
443.96,147.0
444.02,140.0
444.09,128.0
444.15,122.0
444.21,131.0
444.28,145.0
444.34,135.0
444.4,139.0
444.46,149.0
444.53,139.0
444.59,142.0
444.65,148.0
444.72,175.0
444.78,170.0
444.84,145.0
444.91,155.0
444.97,153.0
445.03,165.0
445.09,152.0
445.16,159.0
445.22,159.0
445.28,154.0
445.35,153.0
445.41,170.0
445.47,182.0
445.54,183.0
445.6,187.0
445.66,176.0
445.72,173.0
445.79,183.0
445.85,187.0
445.91,190.0
445.98,191.0
446.04,185.0
446.1,171.0
446.17,175.0
446.23,188.0
446.29,182.0
446.35,188.0
446.42,205.0
446.48,202.0
446.54,215.0
446.61,225.0
446.67,236.0
446.73,227.0
446.8,234.0
446.86,222.0
446.92,214.0
446.98,232.0
447.05,227.0
447.11,242.0
447.17,225.0
447.24,221.0
447.3,243.0
447.36,213.0
447.43,224.0
447.49,228.0
447.55,209.0
447.61,208.0
447.68,201.0
447.74,216.0
447.8,214.0
447.87,210.0
447.93,220.0
447.99,223.0
448.06,229.0
448.12,229.0
448.18,209.0
448.24,207.0
448.31,204.0
448.37,203.0
448.43,206.0
448.5,208.0
448.56,195.0
448.62,208.0
448.69,196.0
448.75,166.0
448.81,196.0
448.87,199.0
448.94,191.0
449.0,192.0
449.06,190.0
449.13,174.0
449.19,204.0
449.25,215.0
449.32,194.0
449.38,196.0
449.44,194.0
449.5,187.0
449.57,191.0
449.63,220.0
449.69,202.0
449.76,210.0
449.82,211.0
449.88,184.0
449.95,199.0
450.01,201.0
450.07,193.0
450.13,183.0
450.2,185.0
450.26,199.0
450.32,186.0
450.39,192.0
450.45,200.0
450.51,204.0
450.58,207.0
450.64,196.0
450.7,204.0
450.76,176.0
450.83,150.0
450.89,144.0
450.95,141.0
451.02,154.0
451.08,158.0
451.14,159.0
451.21,151.0
451.27,140.0
451.33,144.0
451.39,124.0
451.46,152.0
451.52,153.0
451.58,116.0
451.65,136.0
451.71,135.0
451.77,132.0
451.84,129.0
451.9,147.0
451.96,144.0
452.02,151.0
452.09,150.0
452.15,136.0
452.21,143.0
452.28,141.0
452.34,153.0
452.4,180.0
452.47,158.0
452.53,140.0
452.59,157.0
452.65,132.0
452.72,133.0
452.78,133.0
452.84,148.0
452.91,149.0
452.97,131.0
453.03,146.0
453.1,141.0
453.16,143.0
453.22,123.0
453.28,147.0
453.35,159.0
453.41,127.0
453.47,133.0
453.54,123.0
453.6,112.0
453.66,112.0
453.73,100.0
453.79,88.0
453.85,111.0
453.91,105.0
453.98,99.0
454.04,95.0
454.1,101.0
454.17,101.0
454.23,80.0
454.29,76.0
454.36,95.0
454.42,89.0
454.48,90.0
454.54,86.0
454.61,97.0
454.67,92.0
454.73,85.0
454.8,103.0
454.86,92.0
454.92,114.0
454.99,94.0
455.05,85.0
455.11,55.0
455.17,62.0
455.24,69.0
455.3,66.0
455.36,85.0
455.43,61.0
455.49,58.0
455.55,60.0
455.62,65.0
455.68,52.0
455.74,77.0
455.8,79.0
455.87,70.0
455.93,70.0
455.99,66.0
456.06,84.0
456.12,92.0
456.18,75.0
456.25,70.0
456.31,87.0
456.37,90.0
456.43,63.0
456.5,61.0
456.56,57.0
456.62,83.0
456.69,74.0
456.75,68.0
456.81,67.0
456.88,63.0
456.94,60.0
457.0,51.0
457.06,58.0
457.13,68.0
457.19,50.0
457.25,67.0
457.32,63.0
457.38,43.0
457.44,79.0
457.51,67.0
457.57,67.0
457.63,35.0
457.69,62.0
457.76,52.0
457.82,39.0
457.88,39.0
457.95,34.0
458.01,49.0
458.07,57.0
458.14,64.0
458.2,71.0
458.26,66.0
458.32,46.0
458.39,46.0
458.45,52.0
458.51,56.0
458.58,69.0
458.64,52.0
458.7,65.0
458.77,69.0
458.83,82.0
458.89,78.0
458.95,52.0
459.02,78.0
459.08,70.0
459.14,53.0
459.21,42.0
459.27,41.0
459.33,44.0
459.4,45.0
459.46,44.0
459.52,60.0
459.58,51.0
459.65,40.0
459.71,40.0
459.77,44.0
459.84,58.0
459.9,65.0
459.96,67.0
460.03,51.0
460.09,55.0
460.15,33.0
460.21,26.0
460.28,69.0
460.34,73.0
460.4,60.0
460.47,77.0
460.53,83.0
460.59,90.0
460.66,64.0
460.72,77.0
460.78,91.0
460.84,103.0
460.91,117.0
460.97,100.0
461.03,118.0
461.1,107.0
461.16,80.0
461.22,83.0
461.29,72.0
461.35,68.0
461.41,83.0
461.47,106.0
461.54,116.0
461.6,101.0
461.66,110.0
461.73,96.0
461.79,92.0
461.85,91.0
461.92,92.0
461.98,103.0
462.04,115.0
462.1,116.0
462.17,105.0
462.23,102.0
462.29,87.0
462.36,113.0
462.42,143.0
462.48,129.0
462.55,128.0
462.61,126.0
462.67,118.0
462.73,136.0
462.8,140.0
462.86,130.0
462.92,120.0
462.99,119.0
463.05,140.0
463.11,152.0
463.18,158.0
463.24,154.0
463.3,158.0
463.36,154.0
463.43,158.0
463.49,145.0
463.55,141.0
463.62,143.0
463.68,146.0
463.74,144.0
463.81,155.0
463.87,154.0
463.93,148.0
463.99,155.0
464.06,151.0
464.12,144.0
464.18,167.0
464.25,166.0
464.31,154.0
464.37,152.0
464.44,135.0
464.5,134.0
464.56,131.0
464.62,136.0
464.69,152.0
464.75,138.0
464.81,110.0
464.88,97.0
464.94,121.0
465.0,130.0
465.07,123.0
465.13,123.0
465.19,112.0
465.25,111.0
465.32,116.0
465.38,110.0
465.44,103.0
465.51,110.0
465.57,114.0
465.63,129.0
465.7,121.0
465.76,111.0
465.82,115.0
465.88,131.0
465.95,108.0
466.01,104.0
466.07,97.0
466.14,92.0
466.2,119.0
466.26,112.0
466.33,92.0
466.39,101.0
466.45,114.0
466.51,118.0
466.58,121.0
466.64,127.0
466.7,126.0
466.77,117.0
466.83,126.0
466.89,110.0
466.96,95.0
467.02,98.0
467.08,121.0
467.14,119.0
467.21,100.0
467.27,119.0
467.33,129.0
467.4,113.0
467.46,116.0
467.52,97.0
467.59,97.0
467.65,99.0
467.71,110.0
467.77,122.0
467.84,92.0
467.9,96.0
467.96,122.0
468.03,108.0
468.09,141.0
468.15,128.0
468.22,98.0
468.28,103.0
468.34,101.0
468.4,93.0
468.47,99.0
468.53,106.0
468.59,84.0
468.66,82.0
468.72,81.0
468.78,88.0
468.85,96.0
468.91,107.0
468.97,118.0
469.03,103.0
469.1,102.0
469.16,99.0
469.22,94.0
469.29,106.0
469.35,98.0
469.41,94.0
469.48,94.0
469.54,78.0
469.6,95.0
469.66,88.0
469.73,94.0
469.79,106.0
469.85,98.0
469.92,118.0
469.98,109.0
470.04,116.0
470.11,116.0
470.17,106.0
470.23,88.0
470.29,110.0
470.36,113.0
470.42,103.0
470.48,95.0
470.55,113.0
470.61,111.0
470.67,90.0
470.74,114.0
470.8,115.0
470.86,116.0
470.92,124.0
470.99,96.0
471.05,103.0
471.11,105.0
471.18,105.0
471.24,112.0
471.3,119.0
471.37,118.0
471.43,101.0
471.49,111.0
471.55,87.0
471.62,103.0
471.68,119.0
471.74,118.0
471.81,94.0
471.87,110.0
471.93,110.0
472.0,117.0
472.06,103.0
472.12,102.0
472.18,99.0
472.25,119.0
472.31,132.0
472.37,98.0
472.44,115.0
472.5,114.0
472.56,91.0
472.63,96.0
472.69,85.0
472.75,81.0
472.81,99.0
472.88,88.0
472.94,85.0
473.0,84.0
473.07,74.0
473.13,89.0
473.19,99.0
473.26,103.0
473.32,112.0
473.38,100.0
473.44,114.0
473.51,88.0
473.57,81.0
473.63,99.0
473.7,103.0
473.76,89.0
473.82,100.0
473.89,97.0
473.95,97.0
474.01,86.0
474.07,78.0
474.14,87.0
474.2,114.0
474.26,97.0
474.33,110.0
474.39,96.0
474.45,85.0
474.52,108.0
474.58,94.0
474.64,73.0
474.7,70.0
474.77,75.0
474.83,77.0
474.89,89.0
474.96,100.0
475.02,79.0
475.08,78.0
475.15,88.0
475.21,56.0
475.27,61.0
475.33,92.0
475.4,105.0
475.46,77.0
475.52,87.0
475.59,65.0
475.65,81.0
475.71,65.0
475.78,92.0
475.84,99.0
475.9,97.0
475.96,106.0
476.03,97.0
476.09,84.0
476.15,86.0
476.22,81.0
476.28,78.0
476.34,88.0
476.41,65.0
476.47,75.0
476.53,88.0
476.59,83.0
476.66,103.0
476.72,96.0
476.78,106.0
476.85,107.0
476.91,92.0
476.97,89.0
477.04,66.0
477.1,58.0
477.16,89.0
477.22,98.0
477.29,80.0
477.35,86.0
477.41,78.0
477.48,91.0
477.54,95.0
477.6,110.0
477.67,88.0
477.73,97.0
477.79,115.0
477.85,100.0
477.92,97.0
477.98,88.0
478.04,119.0
478.11,118.0
478.17,116.0
478.23,115.0
478.3,85.0
478.36,102.0
478.42,136.0
478.48,138.0
478.55,136.0
478.61,132.0
478.67,136.0
478.74,143.0
478.8,157.0
478.86,165.0
478.93,150.0
478.99,159.0
479.05,164.0
479.11,141.0
479.18,144.0
479.24,149.0
479.3,138.0
479.37,141.0
479.43,147.0
479.49,141.0
479.56,125.0
479.62,111.0
479.68,112.0
479.74,94.0
479.81,92.0
479.87,111.0
479.93,104.0
480.0,91.0
480.06,99.0
480.12,112.0
480.19,97.0
480.25,99.0
480.31,112.0
480.37,108.0
480.44,118.0
480.5,107.0
480.56,115.0
480.63,124.0
480.69,95.0
480.75,105.0
480.82,95.0
480.88,94.0
480.94,87.0
481.0,103.0
481.07,102.0
481.13,96.0
481.19,87.0
481.26,105.0
481.32,89.0
481.38,107.0
481.45,97.0
481.51,91.0
481.57,121.0
481.63,114.0
481.7,118.0
481.76,122.0
481.82,104.0
481.89,88.0
481.95,102.0
482.01,106.0
482.08,108.0
482.14,125.0
482.2,112.0
482.26,125.0
482.33,107.0
482.39,86.0
482.45,111.0
482.52,133.0
482.58,139.0
482.64,144.0
482.71,125.0
482.77,122.0
482.83,135.0
482.89,127.0
482.96,140.0
483.02,126.0
483.08,122.0
483.15,118.0
483.21,121.0
483.27,117.0
483.34,119.0
483.4,118.0
483.46,110.0
483.52,116.0
483.59,113.0
483.65,124.0
483.71,110.0
483.78,114.0
483.84,84.0
483.9,98.0
483.97,121.0
484.03,97.0
484.09,96.0
484.15,103.0
484.22,97.0
484.28,60.0
484.34,93.0
484.41,86.0
484.47,99.0
484.53,89.0
484.6,85.0
484.66,95.0
484.72,81.0
484.78,85.0
484.85,82.0
484.91,83.0
484.97,81.0
485.04,74.0
485.1,55.0
485.16,76.0
485.23,85.0
485.29,54.0
485.35,61.0
485.41,65.0
485.48,104.0
485.54,97.0
485.6,80.0
485.67,77.0
485.73,70.0
485.79,79.0
485.86,50.0
485.92,70.0
485.98,42.0
486.04,71.0
486.11,74.0
486.17,83.0
486.23,70.0
486.3,62.0
486.36,81.0
486.42,55.0
486.49,81.0
486.55,81.0
486.61,88.0
486.67,81.0
486.74,81.0
486.8,66.0
486.86,66.0
486.93,81.0
486.99,80.0
487.05,83.0
487.12,64.0
487.18,65.0
487.24,69.0
487.3,80.0
487.37,64.0
487.43,46.0
487.49,66.0
487.56,58.0
487.62,61.0
487.68,62.0
487.75,70.0
487.81,73.0
487.87,85.0
487.93,69.0
488.0,87.0
488.06,81.0
488.12,76.0
488.19,59.0
488.25,57.0
488.31,76.0
488.38,59.0
488.44,50.0
488.5,69.0
488.56,50.0
488.63,34.0
488.69,47.0
488.75,47.0
488.82,45.0
488.88,64.0
488.94,51.0
489.01,63.0
489.07,63.0
489.13,57.0
489.19,66.0
489.26,61.0
489.32,82.0
489.38,62.0
489.45,63.0
489.51,52.0
489.57,51.0
489.64,48.0
489.7,61.0
489.76,72.0
489.82,52.0
489.89,72.0
489.95,63.0
490.01,55.0
490.08,57.0
490.14,67.0
490.2,58.0
490.27,55.0
490.33,64.0
490.39,84.0
490.45,89.0
490.52,99.0
490.58,93.0
490.64,110.0
490.71,99.0
490.77,81.0
490.83,100.0
490.9,110.0
490.96,122.0
491.02,119.0
491.08,99.0
491.15,82.0
491.21,72.0
491.27,88.0
491.34,95.0
491.4,77.0
491.46,66.0
491.53,70.0
491.59,61.0
491.65,71.0
491.71,53.0
491.78,54.0
491.84,54.0
491.9,69.0
491.97,64.0
492.03,56.0
492.09,59.0
492.16,59.0
492.22,59.0
492.28,63.0
492.34,70.0
492.41,72.0
492.47,77.0
492.53,60.0
492.6,69.0
492.66,64.0
492.72,52.0
492.79,65.0
492.85,46.0
492.91,58.0
492.97,89.0
493.04,85.0
493.1,62.0
493.16,59.0
493.23,84.0
493.29,88.0
493.35,68.0
493.42,72.0
493.48,84.0
493.54,69.0
493.6,68.0
493.67,65.0
493.73,66.0
493.79,69.0
493.86,80.0
493.92,58.0
493.98,64.0
494.05,73.0
494.11,77.0
494.17,96.0
494.23,84.0
494.3,92.0
494.36,91.0
494.42,87.0
494.49,89.0
494.55,81.0
494.61,81.0
494.68,79.0
494.74,104.0
494.8,93.0
494.86,80.0
494.93,84.0
494.99,92.0
495.05,102.0
495.12,81.0
495.18,70.0
495.24,85.0
495.31,73.0
495.37,75.0
495.43,70.0
495.49,68.0
495.56,74.0
495.62,83.0
495.68,99.0
495.75,91.0
495.81,103.0
495.87,100.0
495.94,75.0
496.0,82.0
496.06,107.0
496.12,125.0
496.19,103.0
496.25,110.0
496.31,114.0
496.38,117.0
496.44,113.0
496.5,106.0
496.57,103.0
496.63,92.0
496.69,96.0
496.75,89.0
496.82,88.0
496.88,101.0
496.94,110.0
497.01,113.0
497.07,100.0
497.13,107.0
497.2,107.0
497.26,95.0
497.32,96.0
497.38,100.0
497.45,96.0
497.51,81.0
497.57,99.0
497.64,99.0
497.7,100.0
497.76,112.0
497.83,116.0
497.89,116.0
497.95,96.0
498.01,103.0
498.08,84.0
498.14,102.0
498.2,89.0
498.27,110.0
498.33,101.0
498.39,83.0
498.46,99.0
498.52,106.0
498.58,103.0
498.64,86.0
498.71,110.0
498.77,91.0
498.83,113.0
498.9,113.0
498.96,92.0
499.02,94.0
499.09,98.0
499.15,123.0
499.21,97.0
499.27,89.0
499.34,102.0
499.4,93.0
499.46,86.0
499.53,81.0
499.59,91.0
499.65,91.0
499.72,105.0
499.78,99.0
499.84,72.0
499.9,94.0
499.97,99.0
500.03,99.0
500.09,87.0
500.16,95.0
500.22,106.0
500.28,104.0
500.35,107.0
500.41,107.0
500.47,114.0
500.53,119.0
500.6,110.0
500.66,119.0
500.72,103.0
500.79,118.0
500.85,126.0
500.91,110.0
500.98,99.0
501.04,95.0
501.1,103.0
501.16,95.0
501.23,105.0
501.29,105.0
501.35,94.0
501.42,114.0
501.48,115.0
501.54,129.0
501.61,106.0
501.67,108.0
501.73,127.0
501.79,110.0
501.86,104.0
501.92,86.0
501.98,100.0
502.05,105.0
502.11,103.0
502.17,94.0
502.24,89.0
502.3,97.0
502.36,73.0
502.42,89.0
502.49,92.0
502.55,85.0
502.61,77.0
502.68,95.0
502.74,80.0
502.8,90.0
502.87,75.0
502.93,92.0
502.99,78.0
503.05,62.0
503.12,56.0
503.18,65.0
503.24,72.0
503.31,81.0
503.37,77.0
503.43,80.0
503.5,90.0
503.56,83.0
503.62,75.0
503.68,92.0
503.75,94.0
503.81,105.0
503.87,94.0
503.94,103.0
504.0,110.0
504.06,104.0
504.13,124.0
504.19,93.0
504.25,92.0
504.31,129.0
504.38,97.0
504.44,103.0
504.5,125.0
504.57,93.0
504.63,78.0
504.69,73.0
504.76,101.0
504.82,122.0
504.88,98.0
504.94,103.0
505.01,66.0
505.07,72.0
505.13,76.0
505.2,96.0
505.26,104.0
505.32,105.0
505.39,118.0
505.45,89.0
505.51,89.0
505.57,77.0
505.64,69.0
505.7,76.0
505.76,67.0
505.83,66.0
505.89,74.0
505.95,59.0
506.02,51.0
506.08,77.0
506.14,76.0
506.2,79.0
506.27,55.0
506.33,76.0
506.39,81.0
506.46,69.0
506.52,69.0
506.58,74.0
506.65,75.0
506.71,39.0
506.77,58.0
506.83,65.0
506.9,60.0
506.96,56.0
507.02,74.0
507.09,65.0
507.15,85.0
507.21,96.0
507.28,99.0
507.34,86.0
507.4,67.0
507.46,77.0
507.53,83.0
507.59,98.0
507.65,86.0
507.72,88.0
507.78,99.0
507.84,113.0
507.91,109.0
507.97,105.0
508.03,104.0
508.09,109.0
508.16,110.0
508.22,91.0
508.28,94.0
508.35,105.0
508.41,105.0
508.47,105.0
508.54,99.0
508.6,103.0
508.66,113.0
508.72,121.0
508.79,115.0
508.85,111.0
508.91,102.0
508.98,99.0
509.04,70.0
509.1,100.0
509.17,105.0
509.23,79.0
509.29,109.0
509.35,96.0
509.42,98.0
509.48,94.0
509.54,81.0
509.61,68.0
509.67,77.0
509.73,87.0
509.8,81.0
509.86,55.0
509.92,44.0
509.98,65.0
510.05,74.0
510.11,65.0
510.17,68.0
510.24,69.0
510.3,81.0
510.36,63.0
510.43,83.0
510.49,77.0
510.55,77.0
510.61,81.0
510.68,77.0
510.74,96.0
510.8,101.0
510.87,108.0
510.93,100.0
510.99,80.0
511.06,117.0
511.12,101.0
511.18,121.0
511.24,107.0
511.31,113.0
511.37,129.0
511.43,113.0
511.5,101.0
511.56,89.0
511.62,110.0
511.69,107.0
511.75,95.0
511.81,99.0
511.87,119.0
511.94,110.0
512.0,110.0
512.06,118.0
512.13,109.0
512.19,112.0
512.25,119.0
512.32,94.0
512.38,108.0
512.44,104.0
512.5,105.0
512.57,103.0
512.63,109.0
512.69,108.0
512.76,96.0
512.82,82.0
512.88,102.0
512.95,97.0
513.01,108.0
513.07,111.0
513.13,121.0
513.2,116.0
513.26,103.0
513.32,113.0
513.39,128.0
513.45,138.0
513.51,131.0
513.58,137.0
513.64,132.0
513.7,122.0
513.76,130.0
513.83,128.0
513.89,130.0
513.95,139.0
514.02,143.0
514.08,149.0
514.14,162.0
514.21,145.0
514.27,135.0
514.33,148.0
514.39,161.0
514.46,138.0
514.52,154.0
514.58,137.0
514.65,136.0
514.71,140.0
514.77,135.0
514.84,138.0
514.9,146.0
514.96,150.0
515.02,138.0
515.09,132.0
515.15,153.0
515.21,169.0
515.28,137.0
515.34,141.0
515.4,164.0
515.47,135.0
515.53,143.0
515.59,150.0
515.65,146.0
515.72,133.0
515.78,127.0
515.84,148.0
515.91,168.0
515.97,153.0
516.03,159.0
516.1,160.0
516.16,140.0
516.22,154.0
516.28,140.0
516.35,146.0
516.41,154.0
516.47,141.0
516.54,131.0
516.6,135.0
516.66,138.0
516.73,154.0
516.79,133.0
516.85,152.0
516.91,147.0
516.98,128.0
517.04,124.0
517.1,129.0
517.17,131.0
517.23,144.0
517.29,136.0
517.36,125.0
517.42,135.0
517.48,131.0
517.54,156.0
517.61,136.0
517.67,136.0
517.73,129.0
517.8,103.0
517.86,103.0
517.92,120.0
517.99,122.0
518.05,114.0
518.11,82.0
518.17,85.0
518.24,58.0
518.3,68.0
518.36,97.0
518.43,101.0
518.49,80.0
518.55,77.0
518.62,86.0
518.68,67.0
518.74,82.0
518.8,84.0
518.87,84.0
518.93,96.0
518.99,92.0
519.06,114.0
519.12,82.0
519.18,102.0
519.25,91.0
519.31,77.0
519.37,106.0
519.43,96.0
519.5,79.0
519.56,76.0
519.62,88.0
519.69,92.0
519.75,79.0
519.81,86.0
519.88,67.0
519.94,74.0
520.0,80.0
520.06,77.0
520.13,71.0
520.19,57.0
520.25,44.0
520.32,50.0
520.38,22.0
520.44,24.0
520.51,45.0
520.57,43.0
520.63,48.0
520.69,54.0
520.76,18.0
520.82,23.0
520.88,24.0
520.95,15.0
521.01,-20.0
521.07,2.0
521.14,6.0
521.2,6.0
521.26,15.0
521.32,6.0
521.39,17.0
521.45,11.0
521.51,24.0
521.58,29.0
521.64,13.0
521.7,18.0
521.77,25.0
521.83,29.0
521.89,2.0
521.95,19.0
522.02,6.0
522.08,0.0
522.14,9.0
522.21,16.0
522.27,15.0
522.33,-5.0
522.4,-21.0
522.46,-5.0
522.52,-4.0
522.58,13.0
522.65,23.0
522.71,13.0
522.77,-1.0
522.84,-14.0
522.9,2.0
522.96,-12.0
523.03,-11.0
523.09,-9.0
523.15,4.0
523.21,29.0
523.28,7.0
523.34,31.0
523.4,36.0
523.47,24.0
523.53,45.0
523.59,30.0
523.66,33.0
523.72,30.0
523.78,45.0
523.84,49.0
523.91,40.0
523.97,26.0
524.03,48.0
524.1,82.0
524.16,69.0
524.22,69.0
524.29,66.0
524.35,85.0
524.41,80.0
524.47,71.0
524.54,66.0
524.6,58.0
524.66,49.0
524.73,40.0
524.79,56.0
524.85,52.0
524.92,61.0
524.98,58.0
525.04,61.0
525.1,53.0
525.17,51.0
525.23,47.0
525.29,28.0
525.36,30.0
525.42,52.0
525.48,28.0
525.55,20.0
525.61,37.0
525.67,34.0
525.73,31.0
525.8,55.0
525.86,53.0
525.92,32.0
525.99,56.0
526.05,48.0
526.11,55.0
526.18,56.0
526.24,74.0
526.3,78.0
526.36,75.0
526.43,77.0
526.49,80.0
526.55,81.0
526.62,70.0
526.68,72.0
526.74,58.0
526.81,47.0
526.87,38.0
526.93,36.0
526.99,64.0
527.06,58.0
527.12,54.0
527.18,55.0
527.25,65.0
527.31,52.0
527.37,39.0
527.44,73.0
527.5,94.0
527.56,74.0
527.62,82.0
527.69,88.0
527.75,60.0
527.81,72.0
527.88,51.0
527.94,58.0
528.0,56.0
528.07,55.0
528.13,63.0
528.19,54.0
528.25,54.0
528.32,71.0
528.38,55.0
528.44,46.0
528.51,57.0
528.57,46.0
528.63,67.0
528.7,65.0
528.76,64.0
528.82,65.0
528.88,56.0
528.95,63.0
529.01,92.0
529.07,103.0
529.14,74.0
529.2,72.0
529.26,86.0
529.33,111.0
529.39,109.0
529.45,108.0
529.51,96.0
529.58,97.0
529.64,128.0
529.7,108.0
529.77,85.0
529.83,96.0
529.89,94.0
529.96,122.0
530.02,126.0
530.08,113.0
530.14,109.0
530.21,130.0
530.27,132.0
530.33,117.0
530.4,115.0
530.46,111.0
530.52,121.0
530.59,119.0
530.65,112.0
530.71,121.0
530.77,100.0
530.84,109.0
530.9,107.0
530.96,105.0
531.03,113.0
531.09,130.0
531.15,100.0
531.22,113.0
531.28,135.0
531.34,145.0
531.4,139.0
531.47,129.0
531.53,117.0
531.59,124.0
531.66,142.0
531.72,125.0
531.78,111.0
531.85,115.0
531.91,117.0
531.97,116.0
532.03,96.0
532.1,115.0
532.16,123.0
532.22,134.0
532.29,110.0
532.35,124.0
532.41,144.0
532.48,143.0
532.54,145.0
532.6,160.0
532.66,152.0
532.73,157.0
532.79,160.0
532.85,177.0
532.92,182.0
532.98,179.0
533.04,163.0
533.11,163.0
533.17,166.0
533.23,177.0
533.29,195.0
533.36,193.0
533.42,155.0
533.48,151.0
533.55,165.0
533.61,160.0
533.67,165.0
533.74,161.0
533.8,183.0
533.86,185.0
533.92,171.0
533.99,170.0
534.05,160.0
534.11,167.0
534.18,174.0
534.24,173.0
534.3,190.0
534.37,197.0
534.43,188.0
534.49,187.0
534.55,184.0
534.62,177.0
534.68,193.0
534.74,186.0
534.81,190.0
534.87,205.0
534.93,202.0
535.0,206.0
535.06,187.0
535.12,189.0
535.18,180.0
535.25,185.0
535.31,198.0
535.37,191.0
535.44,178.0
535.5,158.0
535.56,155.0
535.63,164.0
535.69,157.0
535.75,146.0
535.81,162.0
535.88,151.0
535.94,126.0
536.0,138.0
536.07,130.0
536.13,116.0
536.19,125.0
536.26,133.0
536.32,144.0
536.38,128.0
536.44,130.0
536.51,122.0
536.57,98.0
536.63,96.0
536.7,98.0
536.76,100.0
536.82,107.0
536.89,79.0
536.95,80.0
537.01,88.0
537.07,83.0
537.14,76.0
537.2,62.0
537.26,66.0
537.33,60.0
537.39,59.0
537.45,55.0
537.52,40.0
537.58,48.0
537.64,41.0
537.7,37.0
537.77,29.0
537.83,30.0
537.89,26.0
537.96,35.0
538.02,17.0
538.08,20.0
538.15,25.0
538.21,43.0
538.27,37.0
538.33,50.0
538.4,63.0
538.46,59.0
538.52,61.0
538.59,50.0
538.65,59.0
538.71,63.0
538.78,50.0
538.84,58.0
538.9,52.0
538.96,67.0
539.03,69.0
539.09,71.0
539.15,84.0
539.22,93.0
539.28,81.0
539.34,90.0
539.41,77.0
539.47,60.0
539.53,78.0
539.59,77.0
539.66,78.0
539.72,68.0
539.78,70.0
539.85,67.0
539.91,97.0
539.97,87.0
540.04,82.0
540.1,70.0
540.16,60.0
540.22,74.0
540.29,71.0
540.35,81.0
540.41,102.0
540.48,114.0
540.54,110.0
540.6,104.0
540.67,106.0
540.73,115.0
540.79,104.0
540.85,101.0
540.92,102.0
540.98,109.0
541.04,121.0
541.11,105.0
541.17,113.0
541.23,115.0
541.3,116.0
541.36,112.0
541.42,113.0
541.48,122.0
541.55,108.0
541.61,113.0
541.67,102.0
541.74,84.0
541.8,70.0
541.86,94.0
541.93,99.0
541.99,106.0
542.05,110.0
542.11,81.0
542.18,66.0
542.24,80.0
542.3,70.0
542.37,42.0
542.43,52.0
542.49,63.0
542.56,60.0
542.62,58.0
542.68,69.0
542.74,63.0
542.81,51.0
542.87,57.0
542.93,53.0
543.0,73.0
543.06,66.0
543.12,57.0
543.19,43.0
543.25,64.0
543.31,74.0
543.37,58.0
543.44,74.0
543.5,60.0
543.56,71.0
543.63,78.0
543.69,68.0
543.75,58.0
543.82,59.0
543.88,67.0
543.94,75.0
544.0,56.0
544.07,72.0
544.13,77.0
544.19,67.0
544.26,74.0
544.32,67.0
544.38,73.0
544.45,73.0
544.51,68.0
544.57,94.0
544.63,95.0
544.7,87.0
544.76,90.0
544.82,92.0
544.89,82.0
544.95,89.0
545.01,96.0
545.08,82.0
545.14,89.0
545.2,103.0
545.26,102.0
545.33,110.0
545.39,88.0
545.45,75.0
545.52,104.0
545.58,94.0
545.64,88.0
545.71,78.0
545.77,92.0
545.83,89.0
545.89,79.0
545.96,83.0
546.02,72.0
546.08,83.0
546.15,68.0
546.21,51.0
546.27,60.0
546.34,66.0
546.4,74.0
546.46,74.0
546.52,76.0
546.59,73.0
546.65,61.0
546.71,74.0
546.78,66.0
546.84,78.0
546.9,90.0
546.97,61.0
547.03,83.0
547.09,86.0
547.15,91.0
547.22,107.0
547.28,96.0
547.34,90.0
547.41,105.0
547.47,88.0
547.53,79.0
547.6,75.0
547.66,72.0
547.72,74.0
547.78,67.0
547.85,73.0
547.91,71.0
547.97,75.0
548.04,75.0
548.1,66.0
548.16,62.0
548.23,72.0
548.29,75.0
548.35,83.0
548.41,89.0
548.48,83.0
548.54,100.0
548.6,104.0
548.67,92.0
548.73,85.0
548.79,79.0
548.86,82.0
548.92,94.0
548.98,112.0
549.04,108.0
549.11,95.0
549.17,117.0
549.23,105.0
549.3,80.0
549.36,91.0
549.42,111.0
549.49,110.0
549.55,100.0
549.61,103.0
549.67,115.0
549.74,116.0
549.8,136.0
549.86,147.0
549.93,137.0
549.99,133.0
550.05,135.0
550.12,140.0
550.18,142.0
550.24,122.0
550.3,126.0
550.37,143.0
550.43,114.0
550.49,112.0
550.56,130.0
550.62,133.0
550.68,107.0
550.75,111.0
550.81,114.0
550.87,122.0
550.93,98.0
551.0,82.0
551.06,101.0
551.12,113.0
551.19,108.0
551.25,98.0
551.31,117.0
551.38,120.0
551.44,114.0
551.5,125.0
551.56,126.0
551.63,122.0
551.69,113.0
551.75,144.0
551.82,141.0
551.88,130.0
551.94,134.0
552.01,129.0
552.07,141.0
552.13,136.0
552.19,135.0
552.26,121.0
552.32,135.0
552.38,139.0
552.45,138.0
552.51,156.0
552.57,139.0
552.64,140.0
552.7,138.0
552.76,132.0
552.82,144.0
552.89,125.0
552.95,110.0
553.01,133.0
553.08,114.0
553.14,122.0
553.2,127.0
553.27,132.0
553.33,133.0
553.39,115.0
553.45,126.0
553.52,100.0
553.58,114.0
553.64,119.0
553.71,138.0
553.77,131.0
553.83,123.0
553.9,125.0
553.96,112.0
554.02,120.0
554.08,127.0
554.15,122.0
554.21,137.0
554.27,102.0
554.34,128.0
554.4,135.0
554.46,126.0
554.53,155.0
554.59,148.0
554.65,148.0
554.71,151.0
554.78,126.0
554.84,134.0
554.9,117.0
554.97,137.0
555.03,118.0
555.09,98.0
555.16,100.0
555.22,116.0
555.28,113.0
555.34,82.0
555.41,103.0
555.47,103.0
555.53,116.0
555.6,122.0
555.66,102.0
555.72,124.0
555.79,99.0
555.85,100.0
555.91,135.0
555.97,144.0
556.04,141.0
556.1,125.0
556.16,117.0
556.23,105.0
556.29,117.0
556.35,130.0
556.42,137.0
556.48,129.0
556.54,128.0
556.6,140.0
556.67,145.0
556.73,140.0
556.79,124.0
556.86,91.0
556.92,104.0
556.98,129.0
557.05,127.0
557.11,126.0
557.17,121.0
557.23,118.0
557.3,122.0
557.36,129.0
557.42,124.0
557.49,111.0
557.55,122.0
557.61,126.0
557.68,123.0
557.74,122.0
557.8,111.0
557.86,124.0
557.93,108.0
557.99,133.0
558.05,127.0
558.12,118.0
558.18,138.0
558.24,130.0
558.31,125.0
558.37,136.0
558.43,144.0
558.49,137.0
558.56,148.0
558.62,141.0
558.68,126.0
558.75,129.0
558.81,124.0
558.87,139.0
558.94,129.0
559.0,149.0
559.06,157.0
559.12,150.0
559.19,157.0
559.25,168.0
559.31,159.0
559.38,168.0
559.44,160.0
559.5,146.0
559.57,153.0
559.63,148.0
559.69,172.0
559.75,176.0
559.82,187.0
559.88,171.0
559.94,196.0
560.01,183.0
560.07,179.0
560.13,167.0
560.2,168.0
560.26,171.0
560.32,151.0
560.38,152.0
560.45,173.0
560.51,166.0
560.57,159.0
560.64,147.0
560.7,148.0
560.76,154.0
560.83,165.0
560.89,174.0
560.95,172.0
561.01,180.0
561.08,181.0
561.14,182.0
561.2,177.0
561.27,184.0
561.33,185.0
561.39,179.0
561.46,183.0
561.52,188.0
561.58,177.0
561.64,183.0
561.71,174.0
561.77,169.0
561.83,156.0
561.9,165.0
561.96,147.0
562.02,132.0
562.09,162.0
562.15,153.0
562.21,143.0
562.27,124.0
562.34,139.0
562.4,137.0
562.46,146.0
562.53,147.0
562.59,139.0
562.65,127.0
562.72,159.0
562.78,158.0
562.84,156.0
562.9,152.0
562.97,142.0
563.03,132.0
563.09,121.0
563.16,104.0
563.22,109.0
563.28,115.0
563.35,122.0
563.41,123.0
563.47,102.0
563.53,114.0
563.6,122.0
563.66,129.0
563.72,138.0
563.79,130.0
563.85,147.0
563.91,124.0
563.98,122.0
564.04,155.0
564.1,155.0
564.16,141.0
564.23,124.0
564.29,136.0
564.35,134.0
564.42,119.0
564.48,126.0
564.54,126.0
564.61,122.0
564.67,113.0
564.73,133.0
564.79,121.0
564.86,125.0
564.92,129.0
564.98,107.0
565.05,122.0
565.11,122.0
565.17,129.0
565.24,111.0
565.3,116.0
565.36,121.0
565.42,133.0
565.49,137.0
565.55,126.0
565.61,115.0
565.68,125.0
565.74,115.0
565.8,114.0
565.87,128.0
565.93,116.0
565.99,112.0
566.05,125.0
566.12,110.0
566.18,101.0
566.24,106.0
566.31,109.0
566.37,108.0
566.43,71.0
566.5,94.0
566.56,91.0
566.62,81.0
566.68,91.0
566.75,106.0
566.81,96.0
566.87,105.0
566.94,123.0
567.0,106.0
567.06,112.0
567.13,108.0
567.19,102.0
567.25,114.0
567.31,100.0
567.38,114.0
567.44,124.0
567.5,98.0
567.57,117.0
567.63,114.0
567.69,115.0
567.76,125.0
567.82,132.0
567.88,133.0
567.94,104.0
568.01,111.0
568.07,108.0
568.13,103.0
568.2,113.0
568.26,121.0
568.32,121.0
568.39,105.0
568.45,111.0
568.51,129.0
568.57,86.0
568.64,109.0
568.7,106.0
568.76,108.0
568.83,107.0
568.89,107.0
568.95,104.0
569.02,94.0
569.08,136.0
569.14,136.0
569.2,119.0
569.27,119.0
569.33,104.0
569.39,102.0
569.46,96.0
569.52,107.0
569.58,125.0
569.65,110.0
569.71,113.0
569.77,121.0
569.83,110.0
569.9,88.0
569.96,74.0
570.02,95.0
570.09,107.0
570.15,99.0
570.21,94.0
570.28,96.0
570.34,102.0
570.4,103.0
570.46,94.0
570.53,78.0
570.59,91.0
570.65,65.0
570.72,56.0
570.78,58.0
570.84,48.0
570.91,52.0
570.97,68.0
571.03,75.0
571.09,63.0
571.16,66.0
571.22,53.0
571.28,62.0
571.35,56.0
571.41,46.0
571.47,39.0
571.54,61.0
571.6,43.0
571.66,46.0
571.72,58.0
571.79,37.0
571.85,63.0
571.91,60.0
571.98,56.0
572.04,26.0
572.1,30.0
572.17,31.0
572.23,32.0
572.29,21.0
572.35,29.0
572.42,26.0
572.48,33.0
572.54,17.0
572.61,34.0
572.67,12.0
572.73,9.0
572.8,3.0
572.86,-18.0
572.92,14.0
572.98,1.0
573.05,15.0
573.11,4.0
573.17,-2.0
573.24,8.0
573.3,17.0
573.36,2.0
573.43,7.0
573.49,20.0
573.55,0.0
573.61,0.0
573.68,4.0
573.74,-4.0
573.8,-2.0
573.87,-2.0
573.93,-3.0
573.99,8.0
574.06,-1.0
574.12,13.0
574.18,-7.0
574.24,14.0
574.31,-11.0
574.37,-14.0
574.43,-21.0
574.5,-12.0
574.56,11.0
574.62,-2.0
574.69,-3.0
574.75,-6.0
574.81,13.0
574.87,19.0
574.94,19.0
575.0,4.0
575.06,34.0
575.13,18.0
575.19,21.0
575.25,28.0
575.32,19.0
575.38,27.0
575.44,28.0
575.5,20.0
575.57,53.0
575.63,53.0
575.69,49.0
575.76,49.0
575.82,24.0
575.88,22.0
575.95,15.0
576.01,24.0
576.07,29.0
576.13,14.0
576.2,31.0
576.26,49.0
576.32,25.0
576.39,33.0
576.45,54.0
576.51,29.0
576.58,42.0
576.64,51.0
576.7,72.0
576.76,74.0
576.83,56.0
576.89,65.0
576.95,68.0
577.02,64.0
577.08,71.0
577.14,70.0
577.21,74.0
577.27,75.0
577.33,78.0
577.39,63.0
577.46,68.0
577.52,64.0
577.58,57.0
577.65,56.0
577.71,59.0
577.77,75.0
577.84,77.0
577.9,80.0
577.96,72.0
578.02,70.0
578.09,77.0
578.15,76.0
578.21,92.0
578.28,81.0
578.34,92.0
578.4,115.0
578.47,105.0
578.53,84.0
578.59,79.0
578.65,65.0
578.72,72.0
578.78,93.0
578.84,92.0
578.91,95.0
578.97,79.0
579.03,94.0
579.1,86.0
579.16,92.0
579.22,92.0
579.28,93.0
579.35,81.0
579.41,89.0
579.47,87.0
579.54,110.0
579.6,125.0
579.66,106.0
579.73,100.0
579.79,112.0
579.85,127.0
579.91,110.0
579.98,100.0
580.04,112.0
580.1,119.0
580.17,108.0
580.23,108.0
580.29,128.0
580.36,123.0
580.42,117.0
580.48,102.0
580.54,94.0
580.61,112.0
580.67,114.0
580.73,130.0
580.8,116.0
580.86,106.0
580.92,127.0
580.99,101.0
581.05,114.0
581.11,109.0
581.17,117.0
581.24,113.0
581.3,93.0
581.36,109.0
581.43,119.0
581.49,128.0
581.55,126.0
581.62,113.0
581.68,141.0
581.74,139.0
581.8,138.0
581.87,155.0
581.93,152.0
581.99,167.0
582.06,160.0
582.12,145.0
582.18,156.0
582.25,142.0
582.31,138.0
582.37,153.0
582.43,150.0
582.5,149.0
582.56,142.0
582.62,141.0
582.69,160.0
582.75,171.0
582.81,167.0
582.88,176.0
582.94,153.0
583.0,164.0
583.06,191.0
583.13,170.0
583.19,189.0
583.25,183.0
583.32,175.0
583.38,158.0
583.44,159.0
583.51,178.0
583.57,169.0
583.63,166.0
583.69,159.0
583.76,158.0
583.82,164.0
583.88,173.0
583.95,158.0
584.01,146.0
584.07,163.0
584.14,175.0
584.2,189.0
584.26,194.0
584.32,190.0
584.39,175.0
584.45,166.0
584.51,190.0
584.58,172.0
584.64,160.0
584.7,161.0
584.77,163.0
584.83,169.0
584.89,152.0
584.95,172.0
585.02,175.0
585.08,187.0
585.14,187.0
585.21,164.0
585.27,178.0
585.33,165.0
585.4,176.0
585.46,195.0
585.52,199.0
585.58,209.0
585.65,205.0
585.71,189.0
585.77,181.0
585.84,181.0
585.9,185.0
585.96,197.0
586.03,188.0
586.09,180.0
586.15,178.0
586.21,172.0
586.28,180.0
586.34,187.0
586.4,181.0
586.47,174.0
586.53,167.0
586.59,159.0
586.66,147.0
586.72,140.0
586.78,139.0
586.84,126.0
586.91,145.0
586.97,146.0
587.03,143.0
587.1,137.0
587.16,117.0
587.22,121.0
587.29,120.0
587.35,113.0
587.41,125.0
587.47,103.0
587.54,107.0
587.6,97.0
587.66,111.0
587.73,118.0
587.79,105.0
587.85,108.0
587.92,105.0
587.98,111.0
588.04,90.0
588.1,86.0
588.17,88.0
588.23,93.0
588.29,69.0
588.36,69.0
588.42,60.0
588.48,54.0
588.55,70.0
588.61,76.0
588.67,61.0
588.73,51.0
588.8,61.0
588.86,52.0
588.92,54.0
588.99,77.0
589.05,68.0
589.11,62.0
589.18,57.0
589.24,59.0
589.3,81.0
589.36,69.0
589.43,59.0
589.49,79.0
589.55,56.0
589.62,48.0
589.68,46.0
589.74,57.0
589.81,53.0
589.87,54.0
589.93,58.0
589.99,48.0
590.06,49.0
590.12,57.0
590.18,53.0
590.25,42.0
590.31,32.0
590.37,61.0
590.44,69.0
590.5,45.0
590.56,45.0
590.62,34.0
590.69,36.0
590.75,37.0
590.81,32.0
590.88,34.0
590.94,32.0
591.0,32.0
591.07,25.0
591.13,24.0
591.19,43.0
591.25,43.0
591.32,26.0
591.38,45.0
591.44,39.0
591.51,27.0
591.57,28.0
591.63,33.0
591.7,26.0
591.76,21.0
591.82,42.0
591.88,18.0
591.95,26.0
592.01,46.0
592.07,47.0
592.14,36.0
592.2,44.0
592.26,49.0
592.33,41.0
592.39,55.0
592.45,52.0
592.51,57.0
592.58,56.0
592.64,58.0
592.7,68.0
592.77,41.0
592.83,50.0
592.89,68.0
592.96,76.0
593.02,70.0
593.08,82.0
593.14,66.0
593.21,73.0
593.27,73.0
593.33,67.0
593.4,73.0
593.46,78.0
593.52,68.0
593.59,78.0
593.65,75.0
593.71,78.0
593.77,74.0
593.84,64.0
593.9,75.0
593.96,73.0
594.03,78.0
594.09,84.0
594.15,105.0
594.22,93.0
594.28,88.0
594.34,104.0
594.4,83.0
594.47,119.0
594.53,88.0
594.59,80.0
594.66,81.0
594.72,93.0
594.78,96.0
594.85,80.0
594.91,83.0
594.97,81.0
595.03,80.0
595.1,82.0
595.16,86.0
595.22,82.0
595.29,82.0
595.35,90.0
595.41,71.0
595.48,88.0
595.54,89.0
595.6,87.0
595.66,81.0
595.73,53.0
595.79,78.0
595.85,65.0
595.92,73.0
595.98,57.0
596.04,64.0
596.11,78.0
596.17,66.0
596.23,86.0
596.29,80.0
596.36,79.0
596.42,71.0
596.48,82.0
596.55,88.0
596.61,86.0
596.67,102.0
596.74,73.0
596.8,82.0
596.86,90.0
596.92,84.0
596.99,103.0
597.05,79.0
597.11,73.0
597.18,81.0
597.24,95.0
597.3,95.0
597.37,92.0
597.43,97.0
597.49,86.0
597.55,71.0
597.62,75.0
597.68,95.0
597.74,107.0
597.81,75.0
597.87,78.0
597.93,79.0
598.0,81.0
598.06,75.0
598.12,78.0
598.18,66.0
598.25,64.0
598.31,51.0
598.37,60.0
598.44,69.0
598.5,71.0
598.56,72.0
598.63,64.0
598.69,82.0
598.75,77.0
598.81,82.0
598.88,89.0
598.94,85.0
599.0,90.0
599.07,99.0
599.13,98.0
599.19,107.0
599.26,98.0
599.32,89.0
599.38,97.0
599.44,90.0
599.51,95.0
599.57,99.0
599.63,105.0
599.7,98.0
599.76,107.0
599.82,111.0
599.89,87.0
599.95,104.0
600.01,113.0
600.07,104.0
600.14,107.0
600.2,100.0
600.26,120.0
600.33,128.0
600.39,123.0
600.45,136.0
600.52,141.0
600.58,157.0
600.64,152.0
600.7,154.0
600.77,160.0
600.83,170.0
600.89,158.0
600.96,175.0
601.02,156.0
601.08,153.0
601.15,141.0
601.21,145.0
601.27,149.0
601.33,155.0
601.4,181.0
601.46,178.0
601.52,180.0
601.59,160.0
601.65,159.0
601.71,161.0
601.78,170.0
601.84,190.0
601.9,191.0
601.96,186.0
602.03,165.0
602.09,171.0
602.15,181.0
602.22,191.0
602.28,182.0
602.34,188.0
602.41,175.0
602.47,149.0
602.53,177.0
602.59,184.0
602.66,165.0
602.72,168.0
602.78,182.0
602.85,186.0
602.91,180.0
602.97,178.0
603.04,174.0
603.1,149.0
603.16,153.0
603.22,152.0
603.29,164.0
603.35,153.0
603.41,165.0
603.48,142.0
603.54,155.0
603.6,165.0
603.67,148.0
603.73,172.0
603.79,169.0
603.85,165.0
603.92,169.0
603.98,161.0
604.04,149.0
604.11,162.0
604.17,150.0
604.23,157.0
604.3,162.0
604.36,152.0
604.42,129.0
604.48,138.0
604.55,127.0
604.61,143.0
604.67,150.0
604.74,152.0
604.8,155.0
604.86,140.0
604.93,145.0
604.99,154.0
605.05,153.0
605.11,149.0
605.18,149.0
605.24,145.0
605.3,145.0
605.37,141.0
605.43,146.0
605.49,154.0
605.56,145.0
605.62,134.0
605.68,146.0
605.74,141.0
605.81,151.0
605.87,145.0
605.93,139.0
606.0,143.0
606.06,128.0
606.12,114.0
606.19,105.0
606.25,106.0
606.31,99.0
606.37,119.0
606.44,123.0
606.5,104.0
606.56,96.0
606.63,107.0
606.69,111.0
606.75,136.0
606.82,134.0
606.88,144.0
606.94,135.0
607.0,117.0
607.07,144.0
607.13,139.0
607.19,131.0
607.26,113.0
607.32,119.0
607.38,128.0
607.45,132.0
607.51,128.0
607.57,127.0
607.63,124.0
607.7,115.0
607.76,122.0
607.82,122.0
607.89,123.0
607.95,129.0
608.01,94.0
608.08,112.0
608.14,121.0
608.2,117.0
608.26,126.0
608.33,147.0
608.39,157.0
608.45,138.0
608.52,153.0
608.58,145.0
608.64,128.0
608.71,140.0
608.77,154.0
608.83,151.0
608.89,159.0
608.96,150.0
609.02,133.0
609.08,133.0
609.15,155.0
609.21,143.0
609.27,153.0
609.34,153.0
609.4,131.0
609.46,134.0
609.52,134.0
609.59,155.0
609.65,141.0
609.71,137.0
609.78,160.0
609.84,139.0
609.9,155.0
609.97,142.0
610.03,140.0
610.09,153.0
610.15,139.0
610.22,171.0
610.28,136.0
610.34,152.0
610.41,154.0
610.47,139.0
610.53,120.0
610.6,131.0
610.66,136.0
610.72,120.0
610.78,124.0
610.85,135.0
610.91,125.0
610.97,98.0
611.04,122.0
611.1,123.0
611.16,103.0
611.23,116.0
611.29,119.0
611.35,123.0
611.41,133.0
611.48,126.0
611.54,117.0
611.6,120.0
611.67,134.0
611.73,144.0
611.79,134.0
611.86,153.0
611.92,155.0
611.98,174.0
612.04,172.0
612.11,164.0
612.17,191.0
612.23,170.0
612.3,175.0
612.36,174.0
612.42,180.0
612.49,160.0
612.55,163.0
612.61,153.0
612.67,153.0
612.74,174.0
612.8,160.0
612.86,168.0
612.93,171.0
612.99,154.0
613.05,136.0
613.12,131.0
613.18,145.0
613.24,131.0
613.3,127.0
613.37,118.0
613.43,110.0
613.49,122.0
613.56,131.0
613.62,134.0
613.68,132.0
613.75,124.0
613.81,111.0
613.87,108.0
613.93,130.0
614.0,107.0
614.06,114.0
614.12,123.0
614.19,112.0
614.25,108.0
614.31,100.0
614.38,79.0
614.44,95.0
614.5,99.0
614.56,101.0
614.63,104.0
614.69,108.0
614.75,106.0
614.82,89.0
614.88,93.0
614.94,95.0
615.01,83.0
615.07,75.0
615.13,61.0
615.19,77.0
615.26,62.0
615.32,60.0
615.38,59.0
615.45,50.0
615.51,50.0
615.57,66.0
615.64,68.0
615.7,76.0
615.76,77.0
615.82,79.0
615.89,79.0
615.95,89.0
616.01,68.0
616.08,67.0
616.14,92.0
616.2,96.0
616.27,90.0
616.33,93.0
616.39,98.0
616.45,101.0
616.52,92.0
616.58,114.0
616.64,100.0
616.71,92.0
616.77,123.0
616.83,99.0
616.9,104.0
616.96,91.0
617.02,90.0
617.08,84.0
617.15,68.0
617.21,88.0
617.27,69.0
617.34,106.0
617.4,86.0
617.46,78.0
617.53,102.0
617.59,88.0
617.65,80.0
617.71,88.0
617.78,79.0
617.84,110.0
617.9,99.0
617.97,101.0
618.03,135.0
618.09,119.0
618.16,111.0
618.22,106.0
618.28,112.0
618.34,111.0
618.41,114.0
618.47,110.0
618.53,127.0
618.6,117.0
618.66,100.0
618.72,112.0
618.79,98.0
618.85,107.0
618.91,118.0
618.97,116.0
619.04,130.0
619.1,115.0
619.16,118.0
619.23,135.0
619.29,108.0
619.35,108.0
619.42,119.0
619.48,101.0
619.54,84.0
619.6,78.0
619.67,86.0
619.73,111.0
619.79,108.0
619.86,71.0
619.92,54.0
619.98,70.0
620.05,75.0
620.11,66.0
620.17,71.0
620.23,62.0
620.3,84.0
620.36,87.0
620.42,82.0
620.49,82.0
620.55,48.0
620.61,62.0
620.68,68.0
620.74,57.0
620.8,60.0
620.86,45.0
620.93,49.0
620.99,51.0
621.05,42.0
621.12,40.0
621.18,24.0
621.24,45.0
621.31,50.0
621.37,28.0
621.43,58.0
621.49,56.0
621.56,64.0
621.62,73.0
621.68,79.0
621.75,39.0
621.81,46.0
621.87,53.0
621.94,54.0
622.0,64.0
622.06,42.0
622.12,46.0
622.19,32.0
622.25,39.0
622.31,41.0
622.38,32.0
622.44,56.0
622.5,10.0
622.57,20.0
622.63,7.0
622.69,12.0
622.75,12.0
622.82,17.0
622.88,41.0
622.94,40.0
623.01,31.0
623.07,29.0
623.13,29.0
623.2,30.0
623.26,33.0
623.32,43.0
623.38,37.0
623.45,35.0
623.51,15.0
623.57,22.0
623.64,6.0
623.7,15.0
623.76,23.0
623.83,5.0
623.89,2.0
623.95,22.0
624.01,12.0
624.08,-7.0
624.14,20.0
624.2,22.0
624.27,8.0
624.33,12.0
624.39,26.0
624.46,29.0
624.52,13.0
624.58,27.0
624.64,39.0
624.71,48.0
624.77,45.0
624.83,39.0
624.9,34.0
624.96,25.0
625.02,39.0
625.09,35.0
625.15,40.0
625.21,35.0
625.27,41.0
625.34,64.0
625.4,42.0
625.46,50.0
625.53,45.0
625.59,24.0
625.65,8.0
625.72,19.0
625.78,44.0
625.84,52.0
625.9,45.0
625.97,45.0
626.03,21.0
626.09,37.0
626.16,34.0
626.22,29.0
626.28,59.0
626.35,56.0
626.41,50.0
626.47,53.0
626.53,50.0
626.6,57.0
626.66,84.0
626.72,71.0
626.79,67.0
626.85,86.0
626.91,87.0
626.98,88.0
627.04,92.0
627.1,86.0
627.16,89.0
627.23,78.0
627.29,82.0
627.35,95.0
627.42,98.0
627.48,93.0
627.54,99.0
627.61,104.0
627.67,90.0
627.73,100.0
627.79,72.0
627.86,75.0
627.92,60.0
627.98,88.0
628.05,90.0
628.11,88.0
628.17,108.0
628.24,85.0
628.3,88.0
628.36,84.0
628.42,78.0
628.49,76.0
628.55,67.0
628.61,90.0
628.68,89.0
628.74,86.0
628.8,72.0
628.87,72.0
628.93,90.0
628.99,74.0
629.05,67.0
629.12,86.0
629.18,98.0
629.24,81.0
629.31,83.0
629.37,73.0
629.43,92.0
629.5,108.0
629.56,97.0
629.62,80.0
629.68,84.0
629.75,99.0
629.81,92.0
629.87,81.0
629.94,53.0
630.0,77.0
630.06,99.0
630.13,90.0
630.19,103.0
630.25,86.0
630.31,108.0
630.38,108.0
630.44,111.0
630.5,111.0
630.57,86.0
630.63,107.0
630.69,120.0
630.76,94.0
630.82,92.0
630.88,82.0
630.94,86.0
631.01,111.0
631.07,104.0
631.13,108.0
631.2,98.0
631.26,78.0
631.32,75.0
631.39,83.0
631.45,102.0
631.51,91.0
631.57,85.0
631.64,77.0
631.7,90.0
631.76,105.0
631.83,86.0
631.89,96.0
631.95,74.0
632.02,92.0
632.08,98.0
632.14,91.0
632.2,81.0
632.27,107.0
632.33,87.0
632.39,94.0
632.46,95.0
632.52,91.0
632.58,102.0
632.65,93.0
632.71,94.0
632.77,93.0
632.83,106.0
632.9,103.0
632.96,76.0
633.02,81.0
633.09,89.0
633.15,92.0
633.21,95.0
633.28,109.0
633.34,106.0
633.4,90.0
633.46,95.0
633.53,121.0
633.59,112.0
633.65,99.0
633.72,103.0
633.78,112.0
633.84,107.0
633.91,103.0
633.97,124.0
634.03,137.0
634.09,158.0
634.16,153.0
634.22,152.0
634.28,155.0
634.35,167.0
634.41,151.0
634.47,166.0
634.54,162.0
634.6,173.0
634.66,155.0
634.72,163.0
634.79,172.0
634.85,176.0
634.91,174.0
634.98,155.0
635.04,174.0
635.1,175.0
635.17,182.0
635.23,152.0
635.29,154.0
635.35,129.0
635.42,147.0
635.48,172.0
635.54,162.0
635.61,176.0
635.67,164.0
635.73,161.0
635.8,171.0
635.86,170.0
635.92,164.0
635.98,177.0
636.05,157.0
636.11,160.0
636.17,166.0
636.24,174.0
636.3,178.0
636.36,165.0
636.43,161.0
636.49,141.0
636.55,155.0
636.61,165.0
636.68,157.0
636.74,144.0
636.8,125.0
636.87,162.0
636.93,151.0
636.99,131.0
637.06,142.0
637.12,141.0
637.18,137.0
637.24,141.0
637.31,145.0
637.37,155.0
637.43,142.0
637.5,137.0
637.56,137.0
637.62,134.0
637.69,136.0
637.75,115.0
637.81,124.0
637.87,112.0
637.94,107.0
638.0,119.0
638.06,113.0
638.13,89.0
638.19,87.0
638.25,73.0
638.32,89.0
638.38,97.0
638.44,100.0
638.5,92.0
638.57,87.0
638.63,97.0
638.69,104.0
638.76,81.0
638.82,76.0
638.88,92.0
638.95,104.0
639.01,75.0
639.07,65.0
639.13,65.0
639.2,56.0
639.26,55.0
639.32,61.0
639.39,78.0
639.45,72.0
639.51,61.0
639.58,59.0
639.64,60.0
639.7,67.0
639.76,53.0
639.83,62.0
639.89,80.0
639.95,63.0
640.02,60.0
640.08,57.0
640.14,60.0
640.21,59.0
640.27,41.0
640.33,41.0
640.39,36.0
640.46,45.0
640.52,56.0
640.58,53.0
640.65,38.0
640.71,62.0
640.77,51.0
640.84,56.0
640.9,39.0
640.96,30.0
641.02,46.0
641.09,53.0
641.15,68.0
641.21,54.0
641.28,82.0
641.34,84.0
641.4,85.0
641.47,68.0
641.53,60.0
641.59,85.0
641.65,60.0
641.72,38.0
641.78,46.0
641.84,49.0
641.91,50.0
641.97,54.0
642.03,46.0
642.1,74.0
642.16,61.0
642.22,69.0
642.28,83.0
642.35,69.0
642.41,65.0
642.47,64.0
642.54,65.0
642.6,84.0
642.66,105.0
642.73,84.0
642.79,97.0
642.85,95.0
642.91,91.0
642.98,98.0
643.04,104.0
643.1,96.0
643.17,110.0
643.23,124.0
643.29,110.0
643.36,112.0
643.42,104.0
643.48,118.0
643.54,123.0
643.61,142.0
643.67,137.0
643.73,144.0
643.8,154.0
643.86,145.0
643.92,138.0
643.99,138.0
644.05,148.0
644.11,134.0
644.17,140.0
644.24,128.0
644.3,126.0
644.36,156.0
644.43,149.0
644.49,142.0
644.55,137.0
644.62,142.0
644.68,155.0
644.74,166.0
644.8,183.0
644.87,172.0
644.93,162.0
644.99,152.0
645.06,154.0
645.12,154.0
645.18,122.0
645.25,130.0
645.31,136.0
645.37,126.0
645.43,110.0
645.5,132.0
645.56,105.0
645.62,104.0
645.69,121.0
645.75,122.0
645.81,118.0
645.88,102.0
645.94,103.0
646.0,138.0
646.06,137.0
646.13,113.0
646.19,109.0
646.25,122.0
646.32,134.0
646.38,150.0
646.44,118.0
646.51,119.0
646.57,109.0
646.63,118.0
646.69,137.0
646.76,130.0
646.82,128.0
646.88,130.0
646.95,137.0
647.01,138.0
647.07,139.0
647.14,142.0
647.2,145.0
647.26,122.0
647.32,122.0
647.39,129.0
647.45,111.0
647.51,106.0
647.58,114.0
647.64,140.0
647.7,120.0
647.77,117.0
647.83,96.0
647.89,95.0
647.95,108.0
648.02,103.0
648.08,94.0
648.14,98.0
648.21,100.0
648.27,96.0
648.33,76.0
648.4,92.0
648.46,106.0
648.52,119.0
648.58,98.0
648.65,90.0
648.71,108.0
648.77,106.0
648.84,100.0
648.9,104.0
648.96,98.0
649.03,111.0
649.09,105.0
649.15,119.0
649.21,125.0
649.28,92.0
649.34,89.0
649.4,104.0
649.47,119.0
649.53,116.0
649.59,96.0
649.66,106.0
649.72,139.0
649.78,139.0
649.84,139.0
649.91,118.0
649.97,120.0
650.03,146.0
650.1,137.0
650.16,143.0
650.22,133.0
650.29,109.0
650.35,117.0
650.41,138.0
650.47,137.0
650.54,149.0
650.6,161.0
650.66,171.0
650.73,150.0
650.79,150.0
650.85,140.0
650.92,142.0
650.98,146.0
651.04,144.0
651.1,151.0
651.17,148.0
651.23,152.0
651.29,159.0
651.36,160.0
651.42,176.0
651.48,151.0
651.55,157.0
651.61,153.0
651.67,166.0
651.73,161.0
651.8,153.0
651.86,150.0
651.92,174.0
651.99,178.0
652.05,160.0
652.11,148.0
652.18,157.0
652.24,169.0
652.3,165.0
652.36,152.0
652.43,147.0
652.49,153.0
652.55,159.0
652.62,154.0
652.68,137.0
652.74,135.0
652.81,138.0
652.87,129.0
652.93,142.0
652.99,164.0
653.06,171.0
653.12,147.0
653.18,137.0
653.25,132.0
653.31,139.0
653.37,137.0
653.44,131.0
653.5,134.0
653.56,148.0
653.62,168.0
653.69,168.0
653.75,175.0
653.81,177.0
653.88,166.0
653.94,150.0
654.0,158.0
654.07,167.0
654.13,159.0
654.19,137.0
654.25,126.0
654.32,142.0
654.38,130.0
654.44,134.0
654.51,113.0
654.57,130.0
654.63,114.0
654.7,121.0
654.76,111.0
654.82,94.0
654.88,101.0
654.95,105.0
655.01,117.0
655.07,108.0
655.14,103.0
655.2,109.0
655.26,116.0
655.33,111.0
655.39,85.0
655.45,90.0
655.51,104.0
655.58,91.0
655.64,106.0
655.7,98.0
655.77,73.0
655.83,81.0
655.89,70.0
655.96,82.0
656.02,82.0
656.08,89.0
656.14,71.0
656.21,78.0
656.27,82.0
656.33,69.0
656.4,84.0
656.46,59.0
656.52,59.0
656.59,64.0
656.65,60.0
656.71,67.0
656.77,63.0
656.84,64.0
656.9,92.0
656.96,81.0
657.03,42.0
657.09,49.0
657.15,45.0
657.22,46.0
657.28,33.0
657.34,23.0
657.4,15.0
657.47,35.0
657.53,30.0
657.59,10.0
657.66,13.0
657.72,31.0
657.78,28.0
657.85,29.0
657.91,27.0
657.97,36.0
658.03,37.0
658.1,16.0
658.16,27.0
658.22,7.0
658.29,-1.0
658.35,22.0
658.41,8.0
658.48,6.0
658.54,26.0
658.6,55.0
658.66,45.0
658.73,61.0
658.79,58.0
658.85,46.0
658.92,60.0
658.98,45.0
659.04,64.0
659.11,67.0
659.17,71.0
659.23,47.0
659.29,49.0
659.36,53.0
659.42,65.0
659.48,61.0
659.55,56.0
659.61,57.0
659.67,59.0
659.74,68.0
659.8,51.0
659.86,60.0
659.92,74.0
659.99,73.0
660.05,71.0
660.11,70.0
660.18,93.0
660.24,87.0
660.3,88.0
660.37,77.0
660.43,84.0
660.49,70.0
660.55,66.0
660.62,78.0
660.68,84.0
660.74,70.0
660.81,85.0
660.87,81.0
660.93,82.0
661.0,90.0
661.06,74.0
661.12,87.0
661.18,86.0
661.25,90.0
661.31,98.0
661.37,132.0
661.44,131.0
661.5,125.0
661.56,149.0
661.63,132.0
661.69,105.0
661.75,92.0
661.81,96.0
661.88,74.0
661.94,92.0
662.0,104.0
662.07,99.0
662.13,114.0
662.19,100.0
662.26,96.0
662.32,114.0
662.38,111.0
662.44,120.0
662.51,125.0
662.57,126.0
662.63,114.0
662.7,136.0
662.76,118.0
662.82,111.0
662.89,131.0
662.95,130.0
663.01,155.0
663.07,161.0
663.14,145.0
663.2,155.0
663.26,152.0
663.33,151.0
663.39,145.0
663.45,138.0
663.52,151.0
663.58,151.0
663.64,144.0
663.7,159.0
663.77,156.0
663.83,153.0
663.89,146.0
663.96,141.0
664.02,158.0
664.08,153.0
664.15,138.0
664.21,156.0
664.27,134.0
664.33,131.0
664.4,130.0
664.46,123.0
664.52,116.0
664.59,127.0
664.65,126.0
664.71,112.0
664.78,127.0
664.84,121.0
664.9,107.0
664.96,117.0
665.03,130.0
665.09,127.0
665.15,107.0
665.22,88.0
665.28,90.0
665.34,99.0
665.41,118.0
665.47,127.0
665.53,109.0
665.59,81.0
665.66,91.0
665.72,87.0
665.78,86.0
665.85,98.0
665.91,107.0
665.97,110.0
666.04,102.0
666.1,92.0
666.16,84.0
666.22,81.0
666.29,91.0
666.35,98.0
666.41,126.0
666.48,134.0
666.54,149.0
666.6,132.0
666.67,134.0
666.73,142.0
666.79,117.0
666.85,123.0
666.92,129.0
666.98,120.0
667.04,114.0
667.11,97.0
667.17,116.0
667.23,136.0
667.3,139.0
667.36,141.0
667.42,148.0
667.48,143.0
667.55,149.0
667.61,165.0
667.67,161.0
667.74,185.0
667.8,170.0
667.86,167.0
667.93,189.0
667.99,182.0
668.05,183.0
668.11,186.0
668.18,198.0
668.24,185.0
668.3,190.0
668.37,208.0
668.43,211.0
668.49,213.0
668.56,209.0
668.62,186.0
668.68,203.0
668.74,191.0
668.81,173.0
668.87,194.0
668.93,191.0
669.0,203.0
669.06,205.0
669.12,197.0
669.19,168.0
669.25,179.0
669.31,180.0
669.37,179.0
669.44,175.0
669.5,195.0
669.56,211.0
669.63,206.0
669.69,200.0
669.75,208.0
669.82,196.0
669.88,202.0
669.94,206.0
670.0,200.0
670.07,210.0
670.13,206.0
670.19,208.0
670.26,210.0
670.32,206.0
670.38,205.0
670.45,191.0
670.51,192.0
670.57,192.0
670.63,202.0
670.7,178.0
670.76,179.0
670.82,164.0
670.89,162.0
670.95,175.0
671.01,178.0
671.08,177.0
671.14,148.0
671.2,139.0
671.26,141.0
671.33,153.0
671.39,146.0
671.45,176.0
671.52,159.0
671.58,158.0
671.64,160.0
671.71,165.0
671.77,174.0
671.83,148.0
671.89,144.0
671.96,167.0
672.02,167.0
672.08,153.0
672.15,154.0
672.21,134.0
672.27,137.0
672.34,131.0
672.4,112.0
672.46,123.0
672.52,128.0
672.59,122.0
672.65,137.0
672.71,108.0
672.78,114.0
672.84,119.0
672.9,133.0
672.97,140.0
673.03,114.0
673.09,120.0
673.15,99.0
673.22,95.0
673.28,110.0
673.34,100.0
673.41,96.0
673.47,89.0
673.53,82.0
673.6,89.0
673.66,95.0
673.72,95.0
673.78,65.0
673.85,61.0
673.91,82.0
673.97,92.0
674.04,63.0
674.1,58.0
674.16,62.0
674.23,68.0
674.29,83.0
674.35,54.0
674.41,53.0
674.48,59.0
674.54,65.0
674.6,75.0
674.67,70.0
674.73,60.0
674.79,81.0
674.86,62.0
674.92,65.0
674.98,57.0
675.04,65.0
675.11,55.0
675.17,42.0
675.23,66.0
675.3,55.0
675.36,59.0
675.42,54.0
675.49,46.0
675.55,59.0
675.61,60.0
675.67,51.0
675.74,38.0
675.8,57.0
675.86,47.0
675.93,37.0
675.99,44.0
676.05,32.0
676.12,37.0
676.18,38.0
676.24,40.0
676.3,38.0
676.37,33.0
676.43,55.0
676.49,66.0
676.56,67.0
676.62,52.0
676.68,55.0
676.75,70.0
676.81,79.0
676.87,62.0
676.93,54.0
677.0,58.0
677.06,62.0
677.12,59.0
677.19,43.0
677.25,47.0
677.31,63.0
677.38,67.0
677.44,68.0
677.5,49.0
677.56,64.0
677.63,55.0
677.69,50.0
677.75,63.0
677.82,54.0
677.88,71.0
677.94,78.0
678.01,73.0
678.07,67.0
678.13,76.0
678.19,56.0
678.26,75.0
678.32,77.0
678.38,84.0
678.45,95.0
678.51,70.0
678.57,83.0
678.64,85.0
678.7,78.0
678.76,89.0
678.82,90.0
678.89,63.0
678.95,63.0
679.01,66.0
679.08,65.0
679.14,82.0
679.2,73.0
679.27,71.0
679.33,103.0
679.39,89.0
679.45,84.0
679.52,94.0
679.58,87.0
679.64,102.0
679.71,90.0
679.77,56.0
679.83,59.0
679.9,84.0
679.96,63.0
680.02,82.0
680.08,58.0
680.15,48.0
680.21,83.0
680.27,66.0
680.34,46.0
680.4,43.0
680.46,46.0
680.53,62.0
680.59,45.0
680.65,20.0
680.71,72.0
680.78,67.0
680.84,61.0
680.9,45.0
680.97,37.0
681.03,51.0
681.09,52.0
681.16,44.0
681.22,41.0
681.28,35.0
681.34,17.0
681.41,37.0
681.47,35.0
681.53,31.0
681.6,30.0
681.66,27.0
681.72,23.0
681.79,29.0
681.85,37.0
681.91,37.0
681.97,23.0
682.04,18.0
682.1,26.0
682.16,7.0
682.23,23.0
682.29,20.0
682.35,12.0
682.42,14.0
682.48,29.0
682.54,5.0
682.6,16.0
682.67,27.0
682.73,26.0
682.79,13.0
682.86,15.0
682.92,4.0
682.98,5.0
683.05,10.0
683.11,16.0
683.17,30.0
683.23,43.0
683.3,27.0
683.36,59.0
683.42,48.0
683.49,43.0
683.55,48.0
683.61,62.0
683.68,49.0
683.74,40.0
683.8,65.0
683.86,71.0
683.93,71.0
683.99,68.0
684.05,72.0
684.12,92.0
684.18,109.0
684.24,95.0
684.31,86.0
684.37,99.0
684.43,114.0
684.49,129.0
684.56,107.0
684.62,109.0
684.68,104.0
684.75,112.0
684.81,135.0
684.87,116.0
684.94,118.0
685.0,125.0
685.06,131.0
685.12,139.0
685.19,139.0
685.25,143.0
685.31,133.0
685.38,129.0
685.44,155.0
685.5,158.0
685.57,151.0
685.63,145.0
685.69,154.0
685.75,137.0
685.82,150.0
685.88,140.0
685.94,130.0
686.01,128.0
686.07,136.0
686.13,151.0
686.2,144.0
686.26,141.0
686.32,139.0
686.38,144.0
686.45,137.0
686.51,151.0
686.57,144.0
686.64,143.0
686.7,149.0
686.76,137.0
686.83,141.0
686.89,147.0
686.95,146.0
687.01,147.0
687.08,142.0
687.14,134.0
687.2,148.0
687.27,143.0
687.33,143.0
687.39,131.0
687.46,138.0
687.52,140.0
687.58,137.0
687.64,120.0
687.71,140.0
687.77,112.0
687.83,100.0
687.9,117.0
687.96,114.0
688.02,125.0
688.09,129.0
688.15,138.0
688.21,137.0
688.27,98.0
688.34,112.0
688.4,116.0
688.46,137.0
688.53,126.0
688.59,113.0
688.65,108.0
688.72,106.0
688.78,93.0
688.84,119.0
688.9,122.0
688.97,106.0
689.03,115.0
689.09,92.0
689.16,92.0
689.22,81.0
689.28,94.0
689.35,100.0
689.41,100.0
689.47,104.0
689.53,106.0
689.6,123.0
689.66,128.0
689.72,144.0
689.79,132.0
689.85,139.0
689.91,135.0
689.98,136.0
690.04,127.0
690.1,113.0
690.16,108.0
690.23,133.0
690.29,121.0
690.35,116.0
690.42,120.0
690.48,114.0
690.54,105.0
690.61,107.0
690.67,106.0
690.73,101.0
690.79,98.0
690.86,107.0
690.92,115.0
690.98,110.0
691.05,79.0
691.11,79.0
691.17,89.0
691.24,90.0
691.3,88.0
691.36,84.0
691.42,93.0
691.49,75.0
691.55,89.0
691.61,74.0
691.68,79.0
691.74,90.0
691.8,95.0
691.87,81.0
691.93,70.0
691.99,79.0
692.05,81.0
692.12,94.0
692.18,89.0
692.24,89.0
692.31,66.0
692.37,77.0
692.43,115.0
692.5,89.0
692.56,84.0
692.62,77.0
692.68,97.0
692.75,76.0
692.81,65.0
692.87,64.0
692.94,71.0
693.0,73.0
693.06,68.0
693.13,70.0
693.19,97.0
693.25,103.0
693.31,120.0
693.38,111.0
693.44,109.0
693.5,100.0
693.57,107.0
693.63,109.0
693.69,97.0
693.76,110.0
693.82,126.0
693.88,112.0
693.94,126.0
694.01,142.0
694.07,153.0
694.13,137.0
694.2,150.0
694.26,122.0
694.32,134.0
694.39,131.0
694.45,121.0
694.51,141.0
694.57,145.0
694.64,135.0
694.7,151.0
694.76,137.0
694.83,132.0
694.89,152.0
694.95,135.0
695.02,151.0
695.08,143.0
695.14,153.0
695.2,151.0
695.27,137.0
695.33,128.0
695.39,158.0
695.46,156.0
695.52,168.0
695.58,183.0
695.65,159.0
695.71,162.0
695.77,147.0
695.83,158.0
695.9,151.0
695.96,159.0
696.02,160.0
696.09,150.0
696.15,151.0
696.21,145.0
696.28,149.0
696.34,139.0
696.4,143.0
696.46,140.0
696.53,125.0
696.59,141.0
696.65,134.0
696.72,136.0
696.78,126.0
696.84,131.0
696.91,126.0
696.97,129.0
697.03,123.0
697.09,118.0
697.16,123.0
697.22,117.0
697.28,111.0
697.35,98.0
697.41,122.0
697.47,111.0
697.54,101.0
697.6,93.0
697.66,93.0
697.72,85.0
697.79,106.0
697.85,117.0
697.91,107.0
697.98,110.0
698.04,111.0
698.1,99.0
698.17,96.0
698.23,103.0
698.29,93.0
698.35,87.0
698.42,78.0
698.48,97.0
698.54,92.0
698.61,84.0
698.67,85.0
698.73,84.0
698.8,65.0
698.86,63.0
698.92,52.0
698.98,71.0
699.05,71.0
699.11,73.0
699.17,80.0
699.24,71.0
699.3,62.0
699.36,71.0
699.43,65.0
699.49,43.0
699.55,35.0
699.61,30.0
699.68,55.0
699.74,62.0
699.8,63.0
699.87,65.0
699.93,60.0
699.99,76.0
700.06,87.0
700.12,76.0
700.18,77.0
700.24,90.0
700.31,73.0
700.37,81.0
700.43,74.0
700.5,74.0
700.56,78.0
700.62,71.0
700.69,71.0
700.75,66.0
700.81,77.0
700.87,93.0
700.94,86.0
701.0,89.0
701.06,103.0
701.13,98.0
701.19,97.0
701.25,104.0
701.32,126.0
701.38,113.0
701.44,122.0
701.5,128.0
701.57,133.0
701.63,141.0
701.69,120.0
701.76,136.0
701.82,140.0
701.88,140.0
701.95,140.0
702.01,140.0
702.07,153.0
702.13,159.0
702.2,156.0
702.26,139.0
702.32,163.0
702.39,177.0
702.45,168.0
702.51,166.0
702.58,156.0
702.64,160.0
702.7,163.0
702.76,176.0
702.83,173.0
702.89,160.0
702.95,173.0
703.02,162.0
703.08,169.0
703.14,167.0
703.21,164.0
703.27,166.0
703.33,166.0
703.39,173.0
703.46,180.0
703.52,173.0
703.58,170.0
703.65,167.0
703.71,150.0
703.77,183.0
703.84,169.0
703.9,195.0
703.96,200.0
704.02,183.0
704.09,188.0
704.15,182.0
704.21,158.0
704.28,183.0
704.34,168.0
704.4,196.0
704.47,187.0
704.53,182.0
704.59,197.0
704.65,184.0
704.72,191.0
704.78,178.0
704.84,181.0
704.91,191.0
704.97,194.0
705.03,173.0
705.1,189.0
705.16,165.0
705.22,176.0
705.28,183.0
705.35,165.0
705.41,168.0
705.47,184.0
705.54,175.0
705.6,184.0
705.66,159.0
705.73,191.0
705.79,181.0
705.85,147.0
705.91,147.0
705.98,162.0
706.04,178.0
706.1,155.0
706.17,146.0
706.23,144.0
706.29,171.0
706.36,148.0
706.42,106.0
706.48,120.0
706.54,120.0
706.61,112.0
706.67,119.0
706.73,114.0
706.8,129.0
706.86,106.0
706.92,127.0
706.99,118.0
707.05,101.0
707.11,112.0
707.17,101.0
707.24,93.0
707.3,115.0
707.36,101.0
707.43,99.0
707.49,111.0
707.55,114.0
707.62,111.0
707.68,115.0
707.74,110.0
707.8,92.0
707.87,86.0
707.93,92.0
707.99,82.0
708.06,80.0
708.12,79.0
708.18,77.0
708.25,68.0
708.31,57.0
708.37,101.0
708.43,89.0
708.5,88.0
708.56,75.0
708.62,69.0
708.69,92.0
708.75,99.0
708.81,75.0
708.88,73.0
708.94,63.0
709.0,52.0
709.06,56.0
709.13,76.0
709.19,53.0
709.25,72.0
709.32,73.0
709.38,67.0
709.44,88.0
709.51,74.0
709.57,51.0
709.63,74.0
709.69,71.0
709.76,72.0
709.82,69.0
709.88,71.0
709.95,78.0
710.01,88.0
710.07,89.0
710.14,98.0
710.2,90.0
710.26,103.0
710.32,89.0
710.39,87.0
710.45,96.0
710.51,78.0
710.58,90.0
710.64,93.0
710.7,91.0
710.77,79.0
710.83,82.0
710.89,68.0
710.95,78.0
711.02,82.0
711.08,90.0
711.14,111.0
711.21,88.0
711.27,91.0
711.33,112.0
711.4,113.0
711.46,121.0
711.52,110.0
711.58,105.0
711.65,122.0
711.71,121.0
711.77,117.0
711.84,114.0
711.9,117.0
711.96,105.0
712.03,123.0
712.09,114.0
712.15,112.0
712.21,122.0
712.28,111.0
712.34,115.0
712.4,106.0
712.47,90.0
712.53,108.0
712.59,109.0
712.66,119.0
712.72,118.0
712.78,112.0
712.84,100.0
712.91,103.0
712.97,101.0
713.03,111.0
713.1,109.0
713.16,113.0
713.22,129.0
713.29,133.0
713.35,148.0
713.41,140.0
713.47,130.0
713.54,134.0
713.6,126.0
713.66,118.0
713.73,135.0
713.79,136.0
713.85,141.0
713.92,119.0
713.98,116.0
714.04,113.0
714.1,122.0
714.17,125.0
714.23,127.0
714.29,134.0
714.36,118.0
714.42,116.0
714.48,123.0
714.55,137.0
714.61,126.0
714.67,133.0
714.73,129.0
714.8,118.0
714.86,100.0
714.92,95.0
714.99,107.0
715.05,100.0
715.11,92.0
715.18,115.0
715.24,93.0
715.3,78.0
715.36,65.0
715.43,67.0
715.49,76.0
715.55,56.0
715.62,42.0
715.68,48.0
715.74,61.0
715.81,49.0
715.87,37.0
715.93,40.0
715.99,66.0
716.06,57.0
716.12,57.0
716.18,49.0
716.25,47.0
716.31,52.0
716.37,55.0
716.44,74.0
716.5,90.0
716.56,56.0
716.62,52.0
716.69,79.0
716.75,80.0
716.81,83.0
716.88,91.0
716.94,100.0
717.0,96.0
717.07,101.0
717.13,103.0
717.19,86.0
717.25,107.0
717.32,112.0
717.38,127.0
717.44,123.0
717.51,111.0
717.57,122.0
717.63,138.0
717.7,129.0
717.76,146.0
717.82,132.0
717.88,110.0
717.95,126.0
718.01,138.0
718.07,125.0
718.14,124.0
718.2,140.0
718.26,118.0
718.33,129.0
718.39,145.0
718.45,140.0
718.51,131.0
718.58,145.0
718.64,148.0
718.7,131.0
718.77,147.0
718.83,169.0
718.89,167.0
718.96,173.0
719.02,164.0
719.08,168.0
719.14,154.0
719.21,164.0
719.27,178.0
719.33,183.0
719.4,191.0
719.46,201.0
719.52,201.0
719.59,218.0
719.65,217.0
719.71,230.0
719.77,236.0
719.84,230.0
719.9,240.0
719.96,234.0
720.03,224.0
720.09,226.0
720.15,215.0
720.22,211.0
720.28,210.0
720.34,227.0
720.4,219.0
720.47,216.0
720.53,203.0
720.59,180.0
720.66,190.0
720.72,189.0
720.78,188.0
720.85,195.0
720.91,202.0
720.97,188.0
721.03,195.0
721.1,177.0
721.16,173.0
721.22,189.0
721.29,180.0
721.35,176.0
721.41,186.0
721.48,186.0
721.54,192.0
721.6,175.0
721.66,188.0
721.73,187.0
721.79,194.0
721.85,221.0
721.92,215.0
721.98,200.0
722.04,199.0
722.11,193.0
722.17,192.0
722.23,194.0
722.29,191.0
722.36,196.0
722.42,178.0
722.48,177.0
722.55,173.0
722.61,168.0
722.67,173.0
722.74,159.0
722.8,154.0
722.86,164.0
722.92,158.0
722.99,153.0
723.05,137.0
723.11,138.0
723.18,140.0
723.24,130.0
723.3,146.0
723.37,111.0
723.43,101.0
723.49,103.0
723.55,103.0
723.62,109.0
723.68,107.0
723.74,122.0
723.81,107.0
723.87,99.0
723.93,85.0
724.0,100.0
724.06,94.0
724.12,81.0
724.18,90.0
724.25,74.0
724.31,73.0
724.37,84.0
724.44,94.0
724.5,83.0
724.56,83.0
724.63,73.0
724.69,74.0
724.75,73.0
724.81,59.0
724.88,85.0
724.94,85.0
725.0,71.0
725.07,78.0
725.13,72.0
725.19,70.0
725.26,62.0
725.32,56.0
725.38,61.0
725.44,47.0
725.51,41.0
725.57,40.0
725.63,37.0
725.7,47.0
725.76,36.0
725.82,26.0
725.89,27.0
725.95,38.0
726.01,44.0
726.07,46.0
726.14,52.0
726.2,41.0
726.26,54.0
726.33,37.0
726.39,39.0
726.45,44.0
726.52,36.0
726.58,37.0
726.64,37.0
726.7,46.0
726.77,33.0
726.83,23.0
726.89,70.0
726.96,70.0
727.02,70.0
727.08,73.0
727.15,36.0
727.21,32.0
727.27,35.0
727.33,26.0
727.4,29.0
727.46,18.0
727.52,24.0
727.59,18.0
727.65,22.0
727.71,21.0
727.78,25.0
727.84,32.0
727.9,34.0
727.96,21.0
728.03,24.0
728.09,6.0
728.15,14.0
728.22,36.0
728.28,20.0
728.34,37.0
728.41,26.0
728.47,16.0
728.53,13.0
728.59,25.0
728.66,27.0
728.72,31.0
728.78,52.0
728.85,30.0
728.91,34.0
728.97,53.0
729.04,52.0
729.1,62.0
729.16,52.0
729.22,48.0
729.29,36.0
729.35,71.0
729.41,67.0
729.48,58.0
729.54,61.0
729.6,55.0
729.67,52.0
729.73,57.0
729.79,49.0
729.85,57.0
729.92,46.0
729.98,30.0
730.04,37.0
730.11,56.0
730.17,56.0
730.23,58.0
730.3,76.0
730.36,92.0
730.42,56.0
730.48,59.0
730.55,78.0
730.61,94.0
730.67,78.0
730.74,67.0
730.8,68.0
730.86,76.0
730.93,69.0
730.99,76.0
731.05,77.0
731.11,68.0
731.18,51.0
731.24,59.0
731.3,58.0
731.37,42.0
731.43,48.0
731.49,60.0
731.56,63.0
731.62,66.0
731.68,36.0
731.74,51.0
731.81,44.0
731.87,39.0
731.93,47.0
732.0,45.0
732.06,44.0
732.12,29.0
732.19,34.0
732.25,44.0
732.31,23.0
732.37,29.0
732.44,27.0
732.5,10.0
732.56,32.0
732.63,15.0
732.69,33.0
732.75,43.0
732.82,26.0
732.88,48.0
732.94,38.0
733.0,16.0
733.07,15.0
733.13,15.0
733.19,24.0
733.26,4.0
733.32,23.0
733.38,21.0
733.45,-6.0
733.51,18.0
733.57,12.0
733.63,32.0
733.7,43.0
733.76,26.0
733.82,9.0
733.89,36.0
733.95,51.0
734.01,60.0
734.08,44.0
734.14,60.0
734.2,41.0
734.26,45.0
734.33,61.0
734.39,56.0
734.45,82.0
734.52,84.0
734.58,64.0
734.64,65.0
734.71,66.0
734.77,92.0
734.83,108.0
734.89,93.0
734.96,109.0
735.02,107.0
735.08,100.0
735.15,111.0
735.21,114.0
735.27,110.0
735.34,128.0
735.4,143.0
735.46,142.0
735.52,148.0
735.59,125.0
735.65,135.0
735.71,113.0
735.78,136.0
735.84,150.0
735.9,139.0
735.97,141.0
736.03,140.0
736.09,133.0
736.15,146.0
736.22,147.0
736.28,150.0
736.34,169.0
736.41,156.0
736.47,177.0
736.53,171.0
736.6,157.0
736.66,164.0
736.72,170.0
736.78,160.0
736.85,166.0
736.91,162.0
736.97,159.0
737.04,161.0
737.1,166.0
737.16,172.0
737.23,145.0
737.29,158.0
737.35,176.0
737.41,163.0
737.48,162.0
737.54,174.0
737.6,186.0
737.67,206.0
737.73,164.0
737.79,178.0
737.86,155.0
737.92,180.0
737.98,170.0
738.04,148.0
738.11,168.0
738.17,163.0
738.23,165.0
738.3,176.0
738.36,165.0
738.42,150.0
738.49,155.0
738.55,160.0
738.61,151.0
738.67,159.0
738.74,155.0
738.8,153.0
738.86,151.0
738.93,135.0
738.99,137.0
739.05,147.0
739.12,132.0
739.18,132.0
739.24,138.0
739.3,128.0
739.37,150.0
739.43,145.0
739.49,151.0
739.56,159.0
739.62,164.0
739.68,158.0
739.75,153.0
739.81,149.0
739.87,146.0
739.93,140.0
740.0,139.0
740.06,121.0
740.12,126.0
740.19,135.0
740.25,122.0
740.31,117.0
740.38,132.0
740.44,139.0
740.5,136.0
740.56,138.0
740.63,112.0
740.69,116.0
740.75,122.0
740.82,124.0
740.88,114.0
740.94,96.0
741.01,104.0
741.07,107.0
741.13,124.0
741.19,122.0
741.26,102.0
741.32,90.0
741.38,106.0
741.45,93.0
741.51,93.0
741.57,110.0
741.64,114.0
741.7,128.0
741.76,96.0
741.82,94.0
741.89,117.0
741.95,105.0
742.01,84.0
742.08,60.0
742.14,51.0
742.2,79.0
742.27,80.0
742.33,71.0
742.39,91.0
742.45,79.0
742.52,80.0
742.58,60.0
742.64,49.0
742.71,29.0
742.77,45.0
742.83,53.0
742.9,57.0
742.96,52.0
743.02,66.0
743.08,52.0
743.15,33.0
743.21,29.0
743.27,22.0
743.34,33.0
743.4,38.0
743.46,44.0
743.53,55.0
743.59,41.0
743.65,36.0
743.71,47.0
743.78,60.0
743.84,44.0
743.9,33.0
743.97,40.0
744.03,60.0
744.09,44.0
744.16,38.0
744.22,39.0
744.28,47.0
744.34,77.0
744.41,63.0
744.47,55.0
744.53,69.0
744.6,77.0
744.66,64.0
744.72,39.0
744.79,19.0
744.85,42.0
744.91,48.0
744.97,49.0
745.04,59.0
745.1,65.0
745.16,66.0
745.23,84.0
745.29,84.0
745.35,45.0
745.42,77.0
745.48,78.0
745.54,61.0
745.6,84.0
745.67,77.0
745.73,94.0
745.79,98.0
745.86,83.0
745.92,101.0
745.98,85.0
746.05,95.0
746.11,105.0
746.17,101.0
746.23,114.0
746.3,120.0
746.36,125.0
746.42,136.0
746.49,136.0
746.55,122.0
746.61,116.0
746.68,104.0
746.74,110.0
746.8,97.0
746.86,93.0
746.93,103.0
746.99,92.0
747.05,95.0
747.12,111.0
747.18,107.0
747.24,114.0
747.31,125.0
747.37,132.0
747.43,131.0
747.49,113.0
747.56,96.0
747.62,82.0
747.68,103.0
747.75,120.0
747.81,115.0
747.87,97.0
747.94,104.0
748.0,88.0
748.06,90.0
748.12,71.0
748.19,59.0
748.25,80.0
748.31,63.0
748.38,74.0
748.44,50.0
748.5,44.0
748.57,73.0
748.63,43.0
748.69,43.0
748.75,44.0
748.82,35.0
748.88,55.0
748.94,50.0
749.01,67.0
749.07,46.0
749.13,41.0
749.2,56.0
749.26,34.0
749.32,34.0
749.38,44.0
749.45,48.0
749.51,54.0
749.57,48.0
749.64,54.0
749.7,66.0
749.76,59.0
749.83,57.0
749.89,62.0
749.95,51.0
750.01,56.0
750.08,54.0
750.14,63.0
750.2,62.0
750.27,60.0
750.33,72.0
750.39,68.0
750.46,72.0
750.52,70.0
750.58,82.0
750.64,91.0
750.71,69.0
750.77,57.0
750.83,92.0
750.9,77.0
750.96,78.0
751.02,88.0
751.09,84.0
751.15,84.0
751.21,86.0
751.27,96.0
751.34,105.0
751.4,94.0
751.46,91.0
751.53,88.0
751.59,99.0
751.65,121.0
751.72,116.0
751.78,109.0
751.84,97.0
751.9,120.0
751.97,115.0
752.03,102.0
752.09,89.0
752.16,104.0
752.22,110.0
752.28,110.0
752.35,132.0
752.41,114.0
752.47,114.0
752.53,150.0
752.6,150.0
752.66,157.0
752.72,141.0
752.79,140.0
752.85,149.0
752.91,153.0
752.98,162.0
753.04,161.0
753.1,159.0
753.16,165.0
753.23,158.0
753.29,179.0
753.35,187.0
753.42,181.0
753.48,205.0
753.54,174.0
753.61,192.0
753.67,195.0
753.73,171.0
753.79,183.0
753.86,172.0
753.92,181.0
753.98,172.0
754.05,179.0
754.11,185.0
754.17,168.0
754.24,165.0
754.3,174.0
754.36,187.0
754.42,175.0
754.49,161.0
754.55,189.0
754.61,181.0
754.68,194.0
754.74,172.0
754.8,170.0
754.87,182.0
754.93,180.0
754.99,161.0
755.05,172.0
755.12,163.0
755.18,166.0
755.24,176.0
755.31,147.0
755.37,180.0
755.43,172.0
755.5,183.0
755.56,184.0
755.62,167.0
755.68,170.0
755.75,162.0
755.81,152.0
755.87,168.0
755.94,164.0
756.0,166.0
756.06,185.0
756.13,182.0
756.19,186.0
756.25,164.0
756.31,166.0
756.38,172.0
756.44,174.0
756.5,170.0
756.57,175.0
756.63,177.0
756.69,176.0
756.76,174.0
756.82,179.0
756.88,180.0
756.94,166.0
757.01,173.0
757.07,171.0
757.13,154.0
757.2,147.0
757.26,136.0
757.32,121.0
757.39,117.0
757.45,106.0
757.51,112.0
757.57,109.0
757.64,102.0
757.7,84.0
757.76,87.0
757.83,84.0
757.89,77.0
757.95,79.0
758.02,81.0
758.08,77.0
758.14,85.0
758.2,92.0
758.27,92.0
758.33,82.0
758.39,98.0
758.46,81.0
758.52,85.0
758.58,89.0
758.65,71.0
758.71,99.0
758.77,96.0
758.83,95.0
758.9,80.0
758.96,92.0
759.02,96.0
759.09,95.0
759.15,93.0
759.21,110.0
759.28,105.0
759.34,96.0
759.4,128.0
759.46,97.0
759.53,90.0
759.59,109.0
759.65,98.0
759.72,77.0
759.78,85.0
759.84,96.0
759.91,85.0
759.97,105.0
760.03,88.0
760.09,84.0
760.16,84.0
760.22,100.0
760.28,100.0
760.35,104.0
760.41,99.0
760.47,93.0
760.54,107.0
760.6,113.0
760.66,106.0
760.72,110.0
760.79,103.0
760.85,101.0
760.91,97.0
760.98,124.0
761.04,96.0
761.1,95.0
761.17,111.0
761.23,107.0
761.29,113.0
761.35,102.0
761.42,92.0
761.48,97.0
761.54,118.0
761.61,116.0
761.67,121.0
761.73,123.0
761.8,118.0
761.86,119.0
761.92,125.0
761.98,145.0
762.05,168.0
762.11,137.0
762.17,139.0
762.24,132.0
762.3,140.0
762.36,141.0
762.43,150.0
762.49,175.0
762.55,152.0
762.61,154.0
762.68,169.0
762.74,151.0
762.8,152.0
762.87,136.0
762.93,141.0
762.99,142.0
763.06,154.0
763.12,170.0
763.18,151.0
763.24,143.0
763.31,157.0
763.37,168.0
763.43,162.0
763.5,148.0
763.56,151.0
763.62,165.0
763.69,174.0
763.75,171.0
763.81,178.0
763.87,161.0
763.94,151.0
764.0,157.0
764.06,154.0
764.13,180.0
764.19,157.0
764.25,181.0
764.32,165.0
764.38,146.0
764.44,159.0
764.5,165.0
764.57,157.0
764.63,131.0
764.69,119.0
764.76,110.0
764.82,107.0
764.88,109.0
764.95,112.0
765.01,114.0
765.07,109.0
765.13,120.0
765.2,110.0
765.26,88.0
765.32,97.0
765.39,84.0
765.45,100.0
765.51,99.0
765.58,74.0
765.64,80.0
765.7,82.0
765.76,84.0
765.83,62.0
765.89,54.0
765.95,72.0
766.02,82.0
766.08,71.0
766.14,59.0
766.21,47.0
766.27,66.0
766.33,73.0
766.39,53.0
766.46,66.0
766.52,89.0
766.58,83.0
766.65,73.0
766.71,74.0
766.77,56.0
766.84,63.0
766.9,53.0
766.96,57.0
767.02,55.0
767.09,56.0
767.15,50.0
767.21,47.0
767.28,59.0
767.34,69.0
767.4,58.0
767.47,40.0
767.53,32.0
767.59,43.0
767.65,47.0
767.72,33.0
767.78,62.0
767.84,41.0
767.91,35.0
767.97,51.0
768.03,67.0
768.1,73.0
768.16,67.0
768.22,75.0
768.28,94.0
768.35,93.0
768.41,90.0
768.47,82.0
768.54,89.0
768.6,87.0
768.66,88.0
768.73,85.0
768.79,80.0
768.85,92.0
768.91,85.0
768.98,96.0
769.04,106.0
769.1,100.0
769.17,119.0
769.23,99.0
769.29,102.0
769.36,99.0
769.42,114.0
769.48,123.0
769.54,112.0
769.61,131.0
769.67,136.0
769.73,125.0
769.8,123.0
769.86,125.0
769.92,113.0
769.99,120.0
770.05,122.0
770.11,144.0
770.17,153.0
770.24,146.0
770.3,143.0
770.36,156.0
770.43,140.0
770.49,124.0
770.55,128.0
770.62,119.0
770.68,120.0
770.74,128.0
770.8,159.0
770.87,145.0
770.93,137.0
770.99,113.0
771.06,130.0
771.12,138.0
771.18,132.0
771.25,141.0
771.31,146.0
771.37,140.0
771.43,132.0
771.5,167.0
771.56,153.0
771.62,162.0
771.69,138.0
771.75,157.0
771.81,165.0
771.88,172.0
771.94,166.0
772.0,167.0
772.06,159.0
772.13,157.0
772.19,163.0
772.25,157.0
772.32,161.0
772.38,151.0
772.44,135.0
772.51,128.0
772.57,147.0
772.63,139.0
772.69,147.0
772.76,161.0
772.82,147.0
772.88,143.0
772.95,148.0
773.01,137.0
773.07,139.0
773.14,136.0
773.2,131.0
773.26,146.0
773.32,141.0
773.39,161.0
773.45,147.0
773.51,139.0
773.58,150.0
773.64,132.0
773.7,139.0
773.77,137.0
773.83,123.0
773.89,121.0
773.95,102.0
774.02,73.0
774.08,96.0
774.14,84.0
774.21,107.0
774.27,95.0
774.33,73.0
774.4,85.0
774.46,66.0
774.52,67.0
774.58,69.0
774.65,68.0
774.71,69.0
774.77,103.0
774.84,83.0
774.9,71.0
774.96,74.0
775.03,70.0
775.09,59.0
775.15,46.0
775.21,63.0
775.28,50.0
775.34,39.0
775.4,46.0
775.47,63.0
775.53,37.0
775.59,56.0
775.66,73.0
775.72,54.0
775.78,32.0
775.84,48.0
775.91,46.0
775.97,52.0
776.03,77.0
776.1,71.0
776.16,51.0
776.22,70.0
776.29,55.0
776.35,79.0
776.41,75.0
776.47,66.0
776.54,74.0
776.6,73.0
776.66,64.0
776.73,66.0
776.79,57.0
776.85,57.0
776.92,53.0
776.98,54.0
777.04,53.0
777.1,69.0
777.17,54.0
777.23,52.0
777.29,76.0
777.36,77.0
777.42,65.0
777.48,71.0
777.55,62.0
777.61,69.0
777.67,62.0
777.73,63.0
777.8,77.0
777.86,59.0
777.92,71.0
777.99,54.0
778.05,55.0
778.11,73.0
778.18,81.0
778.24,69.0
778.3,80.0
778.36,89.0
778.43,55.0
778.49,82.0
778.55,89.0
778.62,76.0
778.68,65.0
778.74,87.0
778.81,65.0
778.87,81.0
778.93,67.0
778.99,84.0
779.06,90.0
779.12,95.0
779.18,76.0
779.25,68.0
779.31,65.0
779.37,46.0
779.44,60.0
779.5,66.0
779.56,64.0
779.62,60.0
779.69,56.0
779.75,63.0
779.81,61.0
779.88,51.0
779.94,62.0
780.0,65.0
780.07,54.0
780.13,58.0
780.19,49.0
780.25,79.0
780.32,62.0
780.38,63.0
780.44,85.0
780.51,88.0
780.57,87.0
780.63,77.0
780.7,95.0
780.76,85.0
780.82,87.0
780.88,102.0
780.95,98.0
781.01,92.0
781.07,100.0
781.14,125.0
781.2,118.0
781.26,96.0
781.33,130.0
781.39,129.0
781.45,128.0
781.51,115.0
781.58,112.0
781.64,120.0
781.7,117.0
781.77,118.0
781.83,91.0
781.89,99.0
781.96,93.0
782.02,88.0
782.08,95.0
782.14,82.0
782.21,59.0
782.27,69.0
782.33,77.0
782.4,84.0
782.46,73.0
782.52,75.0
782.59,90.0
782.65,71.0
782.71,69.0
782.77,82.0
782.84,66.0
782.9,71.0
782.96,52.0
783.03,37.0
783.09,58.0
783.15,60.0
783.22,54.0
783.28,54.0
783.34,68.0
783.4,89.0
783.47,71.0
783.53,60.0
783.59,75.0
783.66,70.0
783.72,69.0
783.78,68.0
783.85,62.0
783.91,81.0
783.97,76.0
784.03,66.0
784.1,64.0
784.16,73.0
784.22,90.0
784.29,90.0
784.35,79.0
784.41,90.0
784.48,73.0
784.54,55.0
784.6,55.0
784.66,65.0
784.73,77.0
784.79,67.0
784.85,90.0
784.92,99.0
784.98,73.0
785.04,71.0
785.11,70.0
785.17,92.0
785.23,94.0
785.29,90.0
785.36,79.0
785.42,88.0
785.48,121.0
785.55,116.0
785.61,92.0
785.67,81.0
785.74,95.0
785.8,105.0
785.86,117.0
785.92,102.0
785.99,95.0
786.05,98.0
786.11,81.0
786.18,106.0
786.24,110.0
786.3,91.0
786.37,81.0
786.43,110.0
786.49,120.0
786.55,121.0
786.62,94.0
786.68,97.0
786.74,111.0
786.81,110.0
786.87,104.0
786.93,110.0
787.0,112.0
787.06,117.0
787.12,103.0
787.18,100.0
787.25,100.0
787.31,113.0
787.37,105.0
787.44,109.0
787.5,126.0
787.56,134.0
787.63,156.0
787.69,156.0
787.75,153.0
787.81,144.0
787.88,131.0
787.94,142.0
788.0,150.0
788.07,137.0
788.13,126.0
788.19,128.0
788.26,125.0
788.32,128.0
788.38,137.0
788.44,125.0
788.51,126.0
788.57,121.0
788.63,114.0
788.7,123.0
788.76,130.0
788.82,131.0
788.89,109.0
788.95,120.0
789.01,110.0
789.07,126.0
789.14,113.0
789.2,114.0
789.26,135.0
789.33,127.0
789.39,108.0
789.45,123.0
789.52,123.0
789.58,104.0
789.64,117.0
789.7,118.0
789.77,131.0
789.83,132.0
789.89,120.0
789.96,120.0
790.02,121.0
790.08,117.0
790.15,101.0
790.21,117.0
790.27,112.0
790.33,118.0
790.4,107.0
790.46,91.0
790.52,102.0
790.59,92.0
790.65,81.0
790.71,86.0
790.78,88.0
790.84,57.0
790.9,66.0
790.96,67.0
791.03,62.0
791.09,70.0
791.15,74.0
791.22,58.0
791.28,55.0
791.34,63.0
791.41,64.0
791.47,57.0
791.53,51.0
791.59,62.0
791.66,69.0
791.72,61.0
791.78,55.0
791.85,87.0
791.91,81.0
791.97,86.0
792.04,90.0
792.1,78.0
792.16,81.0
792.22,78.0
792.29,90.0
792.35,65.0
792.41,76.0
792.48,64.0
792.54,42.0
792.6,41.0
792.67,48.0
792.73,44.0
792.79,45.0
792.85,56.0
792.92,48.0
792.98,54.0
793.04,32.0
793.11,52.0
793.17,48.0
793.23,48.0
793.3,55.0
793.36,49.0
793.42,60.0
793.48,72.0
793.55,55.0
793.61,65.0
793.67,65.0
793.74,54.0
793.8,61.0
793.86,57.0
793.93,63.0
793.99,55.0
794.05,29.0
794.11,36.0
794.18,67.0
794.24,65.0
794.3,44.0
794.37,53.0
794.43,68.0
794.49,55.0
794.56,64.0
794.62,63.0
794.68,62.0
794.74,63.0
794.81,81.0
794.87,59.0
794.93,61.0
795.0,77.0
795.06,54.0
795.12,62.0
795.19,66.0
795.25,71.0
795.31,73.0
795.37,63.0
795.44,68.0
795.5,50.0
795.56,63.0
795.63,54.0
795.69,53.0
795.75,55.0
795.82,57.0
795.88,60.0
795.94,45.0
796.0,70.0
796.07,60.0
796.13,67.0
796.19,79.0
796.26,77.0
796.32,78.0
796.38,76.0
796.45,75.0
796.51,88.0
796.57,91.0
796.63,100.0
796.7,97.0
796.76,93.0
796.82,90.0
796.89,70.0
796.95,84.0
797.01,89.0
797.08,95.0
797.14,100.0
797.2,85.0
797.26,103.0
797.33,99.0
797.39,94.0
797.45,107.0
797.52,92.0
797.58,101.0
797.64,114.0
797.71,102.0
797.77,106.0
797.83,104.0
797.89,112.0
797.96,116.0
798.02,125.0
798.08,131.0
798.15,120.0
798.21,125.0
798.27,115.0
798.34,101.0
798.4,98.0
798.46,96.0
798.52,99.0
798.59,110.0
798.65,125.0
798.71,115.0
798.78,122.0
798.84,117.0
798.9,118.0
798.97,129.0
799.03,99.0
799.09,110.0
799.15,115.0
799.22,114.0
799.28,101.0
799.34,93.0
799.41,84.0
799.47,59.0
799.53,94.0
799.6,98.0
799.66,75.0
799.72,68.0
799.78,68.0
799.85,59.0
799.91,77.0
799.97,66.0
800.04,68.0
800.1,86.0
800.16,83.0
800.23,77.0
800.29,91.0
800.35,85.0
800.41,89.0
800.48,104.0
800.54,77.0
800.6,74.0
800.67,78.0
800.73,94.0
800.79,99.0
800.86,103.0
800.92,115.0
800.98,109.0
801.04,99.0
801.11,92.0
801.17,99.0
801.23,93.0
801.3,104.0
801.36,101.0
801.42,111.0
801.49,117.0
801.55,121.0
801.61,139.0
801.67,129.0
801.74,151.0
801.8,151.0
801.86,143.0
801.93,126.0
801.99,139.0
802.05,131.0
802.12,145.0
802.18,147.0
802.24,134.0
802.3,147.0
802.37,148.0
802.43,134.0
802.49,139.0
802.56,132.0
802.62,152.0
802.68,142.0
802.75,147.0
802.81,162.0
802.87,166.0
802.93,173.0
803.0,164.0
803.06,175.0
803.12,166.0
803.19,173.0
803.25,161.0
803.31,183.0
803.38,173.0
803.44,187.0
803.5,180.0
803.56,172.0
803.63,160.0
803.69,176.0
803.75,163.0
803.82,151.0
803.88,162.0
803.94,157.0
804.01,162.0
804.07,164.0
804.13,169.0
804.19,165.0
804.26,165.0
804.32,176.0
804.38,170.0
804.45,165.0
804.51,164.0
804.57,169.0
804.64,153.0
804.7,146.0
804.76,177.0
804.82,172.0
804.89,159.0
804.95,165.0
805.01,180.0
805.08,161.0
805.14,167.0
805.2,171.0
805.27,191.0
805.33,194.0
805.39,201.0
805.45,216.0
805.52,209.0
805.58,206.0
805.64,198.0
805.71,199.0
805.77,194.0
805.83,201.0
805.9,223.0
805.96,206.0
806.02,202.0
806.08,187.0
806.15,209.0
806.21,206.0
806.27,189.0
806.34,180.0
806.4,189.0
806.46,186.0
806.53,191.0
806.59,218.0
806.65,204.0
806.71,206.0
806.78,217.0
806.84,223.0
806.9,203.0
806.97,227.0
807.03,221.0
807.09,192.0
807.16,178.0
807.22,181.0
807.28,200.0
807.34,182.0
807.41,212.0
807.47,199.0
807.53,213.0
807.6,199.0
807.66,195.0
807.72,189.0
807.79,184.0
807.85,186.0
807.91,183.0
807.97,187.0
808.04,178.0
808.1,191.0
808.16,198.0
808.23,193.0
808.29,170.0
808.35,165.0
808.42,163.0
808.48,153.0
808.54,157.0
808.6,154.0
808.67,169.0
808.73,155.0
808.79,150.0
808.86,167.0
808.92,150.0
808.98,157.0
809.05,147.0
809.11,151.0
809.17,144.0
809.23,137.0
809.3,129.0
809.36,132.0
809.42,135.0
809.49,117.0
809.55,110.0
809.61,120.0
809.68,123.0
809.74,129.0
809.8,112.0
809.86,88.0
809.93,92.0
809.99,99.0
810.05,88.0
810.12,96.0
810.18,107.0
810.24,109.0
810.31,109.0
810.37,116.0
810.43,96.0
810.49,95.0
810.56,103.0
810.62,99.0
810.68,96.0
810.75,100.0
810.81,107.0
810.87,94.0
810.94,73.0
811.0,75.0
811.06,75.0
811.12,66.0
811.19,71.0
811.25,79.0
811.31,84.0
811.38,65.0
811.44,61.0
811.5,76.0
811.57,77.0
811.63,95.0
811.69,92.0
811.75,68.0
811.82,76.0
811.88,94.0
811.94,90.0
812.01,80.0
812.07,74.0
812.13,86.0
812.2,84.0
812.26,99.0
812.32,84.0
812.38,99.0
812.45,92.0
812.51,113.0
812.57,102.0
812.64,98.0
812.7,90.0
812.76,96.0
812.83,105.0
812.89,106.0
812.95,97.0
813.01,115.0
813.08,123.0
813.14,117.0
813.2,107.0
813.27,120.0
813.33,107.0
813.39,105.0
813.46,107.0
813.52,115.0
813.58,95.0
813.64,106.0
813.71,106.0
813.77,107.0
813.83,100.0
813.9,117.0
813.96,104.0
814.02,92.0
814.09,99.0
814.15,106.0
814.21,112.0
814.27,101.0
814.34,118.0
814.4,97.0
814.46,81.0
814.53,85.0
814.59,106.0
814.65,91.0
814.72,91.0
814.78,113.0
814.84,99.0
814.9,107.0
814.97,84.0
815.03,62.0
815.09,88.0
815.16,93.0
815.22,110.0
815.28,87.0
815.35,96.0
815.41,71.0
815.47,80.0
815.53,46.0
815.6,54.0
815.66,55.0
815.72,52.0
815.79,82.0
815.85,58.0
815.91,60.0
815.98,61.0
816.04,54.0
816.1,73.0
816.16,59.0
816.23,62.0
816.29,48.0
816.35,26.0
816.42,38.0
816.48,49.0
816.54,56.0
816.61,39.0
816.67,60.0
816.73,64.0
816.79,83.0
816.86,58.0
816.92,52.0
816.98,70.0
817.05,81.0
817.11,86.0
817.17,59.0
817.24,54.0
817.3,40.0
817.36,39.0
817.42,44.0
817.49,41.0
817.55,44.0
817.61,48.0
817.68,47.0
817.74,42.0
817.8,44.0
817.87,52.0
817.93,35.0
817.99,49.0
818.05,35.0
818.12,39.0
818.18,40.0
818.24,37.0
818.31,33.0
818.37,39.0
818.43,34.0
818.5,58.0
818.56,50.0
818.62,41.0
818.68,45.0
818.75,56.0
818.81,63.0
818.87,60.0
818.94,66.0
819.0,70.0
819.06,52.0
819.13,54.0
819.19,82.0
819.25,80.0
819.31,88.0
819.38,83.0
819.44,63.0
819.5,99.0
819.57,92.0
819.63,92.0
819.69,77.0
819.76,81.0
819.82,123.0
819.88,108.0
819.94,84.0
820.01,107.0
820.07,122.0
820.13,121.0
820.2,108.0
820.26,127.0
820.32,120.0
820.39,112.0
820.45,116.0
820.51,115.0
820.57,115.0
820.64,118.0
820.7,124.0
820.76,124.0
820.83,138.0
820.89,136.0
820.95,132.0
821.02,117.0
821.08,141.0
821.14,157.0
821.2,142.0
821.27,137.0
821.33,114.0
821.39,133.0
821.46,176.0
821.52,146.0
821.58,158.0
821.65,162.0
821.71,167.0
821.77,168.0
821.83,170.0
821.9,161.0
821.96,158.0
822.02,169.0
822.09,157.0
822.15,154.0
822.21,164.0
822.28,162.0
822.34,169.0
822.4,175.0
822.46,185.0
822.53,183.0
822.59,190.0
822.65,191.0
822.72,176.0
822.78,162.0
822.84,166.0
822.91,187.0
822.97,198.0
823.03,177.0
823.09,176.0
823.16,176.0
823.22,180.0
823.28,179.0
823.35,172.0
823.41,192.0
823.47,171.0
823.54,162.0
823.6,176.0
823.66,190.0
823.72,178.0
823.79,175.0
823.85,185.0
823.91,183.0
823.98,190.0
824.04,189.0
824.1,196.0
824.17,191.0
824.23,186.0
824.29,183.0
824.35,179.0
824.42,176.0
824.48,167.0
824.54,199.0
824.61,189.0
824.67,175.0
824.73,172.0
824.8,162.0
824.86,157.0
824.92,164.0
824.98,161.0
825.05,142.0
825.11,127.0
825.17,144.0
825.24,146.0
825.3,158.0
825.36,171.0
825.43,153.0
825.49,144.0
825.55,142.0
825.61,147.0
825.68,141.0
825.74,115.0
825.8,121.0
825.87,132.0
825.93,147.0
825.99,148.0
826.06,154.0
826.12,140.0
826.18,154.0
826.24,140.0
826.31,154.0
826.37,139.0
826.43,125.0
826.5,153.0
826.56,131.0
826.62,123.0
826.69,160.0
826.75,159.0
826.81,150.0
826.87,132.0
826.94,135.0
827.0,142.0
827.06,118.0
827.13,130.0
827.19,132.0
827.25,129.0
827.32,137.0
827.38,125.0
827.44,136.0
827.5,130.0
827.57,119.0
827.63,131.0
827.69,132.0
827.76,101.0
827.82,114.0
827.88,139.0
827.95,144.0
828.01,145.0
828.07,148.0
828.13,154.0
828.2,148.0
828.26,153.0
828.32,144.0
828.39,153.0
828.45,127.0
828.51,136.0
828.58,125.0
828.64,121.0
828.7,114.0
828.76,129.0
828.83,114.0
828.89,122.0
828.95,143.0
829.02,132.0
829.08,127.0
829.14,126.0
829.21,120.0
829.27,123.0
829.33,106.0
829.39,121.0
829.46,110.0
829.52,123.0
829.58,127.0
829.65,110.0
829.71,114.0
829.77,106.0
829.84,97.0
829.9,104.0
829.96,101.0
830.02,96.0
830.09,95.0
830.15,103.0
830.21,102.0
830.28,96.0
830.34,82.0
830.4,113.0
830.47,114.0
830.53,140.0
830.59,151.0
830.65,124.0
830.72,147.0
830.78,154.0
830.84,153.0
830.91,141.0
830.97,158.0
831.03,141.0
831.1,164.0
831.16,166.0
831.22,151.0
831.28,165.0
831.35,166.0
831.41,165.0
831.47,159.0
831.54,150.0
831.6,155.0
831.66,152.0
831.73,165.0
831.79,166.0
831.85,164.0
831.91,165.0
831.98,157.0
832.04,152.0
832.1,130.0
832.17,149.0
832.23,142.0
832.29,113.0
832.36,145.0
832.42,146.0
832.48,140.0
832.54,143.0
832.61,139.0
832.67,124.0
832.73,128.0
832.8,103.0
832.86,112.0
832.92,135.0
832.99,103.0
833.05,98.0
833.11,106.0
833.17,101.0
833.24,104.0
833.3,86.0
833.36,79.0
833.43,96.0
833.49,101.0
833.55,117.0
833.62,82.0
833.68,91.0
833.74,88.0
833.8,69.0
833.87,93.0
833.93,94.0
833.99,71.0
834.06,85.0
834.12,63.0
834.18,66.0
834.25,68.0
834.31,74.0
834.37,69.0
834.43,61.0
834.5,54.0
834.56,55.0
834.62,55.0
834.69,51.0
834.75,55.0
834.81,47.0
834.88,46.0
834.94,58.0
835.0,54.0
835.06,41.0
835.13,44.0
835.19,57.0
835.25,68.0
835.32,59.0
835.38,71.0
835.44,58.0
835.51,69.0
835.57,75.0
835.63,69.0
835.69,79.0
835.76,46.0
835.82,42.0
835.88,46.0
835.95,55.0
836.01,50.0
836.07,67.0
836.14,72.0
836.2,52.0
836.26,55.0
836.32,55.0
836.39,62.0
836.45,56.0
836.51,71.0
836.58,59.0
836.64,53.0
836.7,54.0
836.77,46.0
836.83,49.0
836.89,38.0
836.95,63.0
837.02,59.0
837.08,38.0
837.14,55.0
837.21,44.0
837.27,39.0
837.33,43.0
837.4,50.0
837.46,40.0
837.52,63.0
837.58,57.0
837.65,59.0
837.71,66.0
837.77,53.0
837.84,65.0
837.9,54.0
837.96,55.0
838.03,59.0
838.09,55.0
838.15,73.0
838.21,68.0
838.28,70.0
838.34,62.0
838.4,70.0
838.47,74.0
838.53,75.0
838.59,93.0
838.66,84.0
838.72,85.0
838.78,70.0
838.84,60.0
838.91,88.0
838.97,96.0
839.03,75.0
839.1,85.0
839.16,95.0
839.22,78.0
839.29,93.0
839.35,85.0
839.41,89.0
839.47,90.0
839.54,106.0
839.6,100.0
839.66,92.0
839.73,102.0
839.79,93.0
839.85,85.0
839.92,99.0
839.98,95.0
840.04,93.0
840.1,104.0
840.17,92.0
840.23,101.0
840.29,77.0
840.36,86.0
840.42,88.0
840.48,86.0
840.55,80.0
840.61,68.0
840.67,63.0
840.73,66.0
840.8,60.0
840.86,43.0
840.92,46.0
840.99,48.0
841.05,48.0
841.11,68.0
841.18,57.0
841.24,74.0
841.3,53.0
841.36,46.0
841.43,38.0
841.49,40.0
841.55,44.0
841.62,43.0
841.68,38.0
841.74,39.0
841.81,47.0
841.87,49.0
841.93,49.0
841.99,41.0
842.06,42.0
842.12,58.0
842.18,55.0
842.25,43.0
842.31,48.0
842.37,46.0
842.44,36.0
842.5,52.0
842.56,63.0
842.62,45.0
842.69,51.0
842.75,44.0
842.81,19.0
842.88,30.0
842.94,44.0
843.0,38.0
843.07,30.0
843.13,26.0
843.19,21.0
843.25,11.0
843.32,15.0
843.38,22.0
843.44,37.0
843.51,54.0
843.57,62.0
843.63,38.0
843.7,40.0
843.76,48.0
843.82,49.0
843.88,44.0
843.95,20.0
844.01,31.0
844.07,41.0
844.14,31.0
844.2,26.0
844.26,11.0
844.33,16.0
844.39,54.0
844.45,49.0
844.51,45.0
844.58,44.0
844.64,43.0
844.7,40.0
844.77,32.0
844.83,42.0
844.89,40.0
844.96,41.0
845.02,40.0
845.08,47.0
845.14,46.0
845.21,11.0
845.27,13.0
845.33,22.0
845.4,40.0
845.46,13.0
845.52,16.0
845.59,27.0
845.65,33.0
845.71,40.0
845.77,39.0
845.84,42.0
845.9,55.0
845.96,64.0
846.03,47.0
846.09,62.0
846.15,44.0
846.22,52.0
846.28,44.0
846.34,55.0
846.4,62.0
846.47,44.0
846.53,65.0
846.59,72.0
846.66,48.0
846.72,39.0
846.78,52.0
846.85,56.0
846.91,59.0
846.97,81.0
847.03,83.0
847.1,88.0
847.16,89.0
847.22,86.0
847.29,93.0
847.35,94.0
847.41,64.0
847.48,77.0
847.54,91.0
847.6,87.0
847.66,96.0
847.73,87.0
847.79,103.0
847.85,88.0
847.92,65.0
847.98,91.0
848.04,73.0
848.11,92.0
848.17,130.0
848.23,93.0
848.29,89.0
848.36,106.0
848.42,112.0
848.48,91.0
848.55,74.0
848.61,84.0
848.67,98.0
848.74,92.0
848.8,96.0
848.86,111.0
848.92,99.0
848.99,94.0
849.05,106.0
849.11,102.0
849.18,114.0
849.24,121.0
849.3,100.0
849.37,125.0
849.43,114.0
849.49,92.0
849.55,91.0
849.62,76.0
849.68,99.0
849.74,98.0
849.81,103.0
849.87,98.0
849.93,70.0
850.0,63.0
850.06,69.0
850.12,71.0
850.18,73.0
850.25,80.0
850.31,82.0
850.37,80.0
850.44,73.0
850.5,77.0
850.56,76.0
850.63,70.0
850.69,68.0
850.75,77.0
850.81,87.0
850.88,78.0
850.94,82.0
851.0,66.0
851.07,73.0
851.13,67.0
851.19,59.0
851.26,60.0
851.32,58.0
851.38,57.0
851.44,79.0
851.51,67.0
851.57,68.0
851.63,73.0
851.7,73.0
851.76,58.0
851.82,75.0
851.89,66.0
851.95,70.0
852.01,71.0
852.07,72.0
852.14,91.0
852.2,88.0
852.26,113.0
852.33,117.0
852.39,100.0
852.45,112.0
852.52,109.0
852.58,114.0
852.64,118.0
852.7,115.0
852.77,101.0
852.83,112.0
852.89,123.0
852.96,107.0
853.02,122.0
853.08,143.0
853.15,128.0
853.21,125.0
853.27,124.0
853.33,143.0
853.4,138.0
853.46,142.0
853.52,166.0
853.59,153.0
853.65,146.0
853.71,149.0
853.78,164.0
853.84,164.0
853.9,154.0
853.96,146.0
854.03,157.0
854.09,143.0
854.15,144.0
854.22,149.0
854.28,148.0
854.34,145.0
854.41,143.0
854.47,169.0
854.53,158.0
854.59,161.0
854.66,150.0
854.72,170.0
854.78,179.0
854.85,159.0
854.91,150.0
854.97,160.0
855.04,149.0
855.1,167.0
855.16,168.0
855.22,172.0
855.29,154.0
855.35,153.0
855.41,178.0
855.48,176.0
855.54,181.0
855.6,186.0
855.67,214.0
855.73,199.0
855.79,208.0
855.85,178.0
855.92,203.0
855.98,186.0
856.04,202.0
856.11,213.0
856.17,203.0
856.23,198.0
856.3,190.0
856.36,213.0
856.42,198.0
856.48,188.0
856.55,222.0
856.61,224.0
856.67,203.0
856.74,173.0
856.8,208.0
856.86,216.0
856.93,190.0
856.99,190.0
857.05,181.0
857.11,188.0
857.18,207.0
857.24,195.0
857.3,192.0
857.37,204.0
857.43,199.0
857.49,195.0
857.56,200.0
857.62,186.0
857.68,198.0
857.74,201.0
857.81,208.0
857.87,199.0
857.93,198.0
858.0,195.0
858.06,202.0
858.12,194.0
858.19,212.0
858.25,203.0
858.31,209.0
858.37,190.0
858.44,181.0
858.5,183.0
858.56,180.0
858.63,189.0
858.69,175.0
858.75,179.0
858.82,192.0
858.88,170.0
858.94,172.0
859.0,178.0
859.07,172.0
859.13,168.0
859.19,171.0
859.26,166.0
859.32,160.0
859.38,152.0
859.45,151.0
859.51,142.0
859.57,142.0
859.63,126.0
859.7,135.0
859.76,149.0
859.82,143.0
859.89,157.0
859.95,148.0
860.01,126.0
860.08,134.0
860.14,117.0
860.2,131.0
860.26,110.0
860.33,104.0
860.39,93.0
860.45,99.0
860.52,100.0
860.58,96.0
860.64,103.0
860.71,109.0
860.77,111.0
860.83,123.0
860.89,109.0
860.96,114.0
861.02,103.0
861.08,115.0
861.15,120.0
861.21,106.0
861.27,109.0
861.34,104.0
861.4,118.0
861.46,109.0
861.52,92.0
861.59,99.0
861.65,84.0
861.71,103.0
861.78,89.0
861.84,94.0
861.9,84.0
861.97,84.0
862.03,84.0
862.09,80.0
862.15,80.0
862.22,81.0
862.28,82.0
862.34,84.0
862.41,95.0
862.47,90.0
862.53,87.0
862.6,79.0
862.66,91.0
862.72,106.0
862.78,99.0
862.85,79.0
862.91,88.0
862.97,96.0
863.04,79.0
863.1,80.0
863.16,77.0
863.23,71.0
863.29,82.0
863.35,91.0
863.41,86.0
863.48,99.0
863.54,90.0
863.6,88.0
863.67,74.0
863.73,89.0
863.79,88.0
863.86,80.0
863.92,109.0
863.98,107.0
864.04,91.0
864.11,110.0
864.17,87.0
864.23,83.0
864.3,83.0
864.36,82.0
864.42,69.0
864.49,74.0
864.55,56.0
864.61,46.0
864.67,62.0
864.74,55.0
864.8,65.0
864.86,70.0
864.93,78.0
864.99,66.0
865.05,82.0
865.12,62.0
865.18,63.0
865.24,77.0
865.3,66.0
865.37,59.0
865.43,70.0
865.49,73.0
865.56,83.0
865.62,82.0
865.68,74.0
865.75,76.0
865.81,77.0
865.87,58.0
865.93,69.0
866.0,65.0
866.06,60.0
866.12,80.0
866.19,84.0
866.25,77.0
866.31,73.0
866.38,67.0
866.44,61.0
866.5,59.0
866.56,55.0
866.63,47.0
866.69,56.0
866.75,58.0
866.82,40.0
866.88,38.0
866.94,27.0
867.01,29.0
867.07,37.0
867.13,30.0
867.19,48.0
867.26,51.0
867.32,61.0
867.38,68.0
867.45,82.0
867.51,72.0
867.57,74.0
867.64,70.0
867.7,53.0
867.76,66.0
867.82,86.0
867.89,75.0
867.95,76.0
868.01,63.0
868.08,73.0
868.14,49.0
868.2,64.0
868.27,79.0
868.33,75.0
868.39,68.0
868.45,72.0
868.52,75.0
868.58,54.0
868.64,54.0
868.71,73.0
868.77,80.0
868.83,62.0
868.9,74.0
868.96,99.0
869.02,102.0
869.08,81.0
869.15,105.0
869.21,110.0
869.27,105.0
869.34,90.0
869.4,78.0
869.46,99.0
869.53,105.0
869.59,112.0
869.65,117.0
869.71,118.0
869.78,136.0
869.84,115.0
869.9,107.0
869.97,113.0
870.03,128.0
870.09,144.0
870.16,132.0
870.22,128.0
870.28,143.0
870.34,125.0
870.41,124.0
870.47,109.0
870.53,120.0
870.6,123.0
870.66,112.0
870.72,117.0
870.79,126.0
870.85,126.0
870.91,124.0
870.97,122.0
871.04,126.0
871.1,153.0
871.16,146.0
871.23,150.0
871.29,115.0
871.35,141.0
871.42,153.0
871.48,134.0
871.54,130.0
871.6,117.0
871.67,125.0
871.73,138.0
871.79,135.0
871.86,151.0
871.92,138.0
871.98,122.0
872.05,136.0
872.11,117.0
872.17,127.0
872.23,142.0
872.3,132.0
872.36,130.0
872.42,131.0
872.49,145.0
872.55,133.0
872.61,132.0
872.68,121.0
872.74,112.0
872.8,118.0
872.86,133.0
872.93,140.0
872.99,134.0
873.05,128.0
873.12,151.0
873.18,174.0
873.24,150.0
873.31,142.0
873.37,161.0
873.43,192.0
873.49,192.0
873.56,192.0
873.62,179.0
873.68,177.0
873.75,177.0
873.81,180.0
873.87,183.0
873.94,181.0
874.0,180.0
874.06,159.0
874.12,150.0
874.19,130.0
874.25,142.0
874.31,152.0
874.38,148.0
874.44,159.0
874.5,160.0
874.57,139.0
874.63,146.0
874.69,143.0
874.75,151.0
874.82,136.0
874.88,150.0
874.94,153.0
875.01,159.0
875.07,174.0
875.13,159.0
875.2,181.0
875.26,164.0
875.32,160.0
875.38,158.0
875.45,156.0
875.51,139.0
875.57,136.0
875.64,136.0
875.7,150.0
875.76,161.0
875.83,176.0
875.89,153.0
875.95,139.0
876.01,130.0
876.08,140.0
876.14,145.0
876.2,137.0
876.27,137.0
876.33,139.0
876.39,134.0
876.46,139.0
876.52,143.0
876.58,137.0
876.64,127.0
876.71,139.0
876.77,139.0
876.83,126.0
876.9,124.0
876.96,104.0
877.02,115.0
877.09,116.0
877.15,126.0
877.21,122.0
877.27,112.0
877.34,123.0
877.4,113.0
877.46,116.0
877.53,96.0
877.59,107.0
877.65,111.0
877.72,116.0
877.78,117.0
877.84,86.0
877.9,105.0
877.97,111.0
878.03,115.0
878.09,107.0
878.16,97.0
878.22,104.0
878.28,95.0
878.35,109.0
878.41,88.0
878.47,95.0
878.53,106.0
878.6,98.0
878.66,100.0
878.72,92.0
878.79,93.0
878.85,85.0
878.91,89.0
878.98,112.0
879.04,114.0
879.1,110.0
879.16,124.0
879.23,124.0
879.29,118.0
879.35,127.0
879.42,121.0
879.48,121.0
879.54,110.0
879.61,113.0
879.67,126.0
879.73,106.0
879.79,109.0
879.86,106.0
879.92,96.0
879.98,111.0
880.05,108.0
880.11,100.0
880.17,107.0
880.24,137.0
880.3,135.0
880.36,133.0
880.42,106.0
880.49,95.0
880.55,109.0
880.61,95.0
880.68,107.0
880.74,139.0
880.8,135.0
880.87,145.0
880.93,151.0
880.99,124.0
881.05,129.0
881.12,130.0
881.18,128.0
881.24,121.0
881.31,126.0
881.37,146.0
881.43,132.0
881.5,134.0
881.56,131.0
881.62,142.0
881.68,139.0
881.75,124.0
881.81,152.0
881.87,147.0
881.94,132.0
882.0,131.0
882.06,128.0
882.13,135.0
882.19,138.0
882.25,117.0
882.31,128.0
882.38,136.0
882.44,128.0
882.5,132.0
882.57,104.0
882.63,117.0
882.69,120.0
882.76,102.0
882.82,118.0
882.88,113.0
882.94,120.0
883.01,106.0
883.07,97.0
883.13,109.0
883.2,110.0
883.26,104.0
883.32,97.0
883.39,121.0
883.45,100.0
883.51,84.0
883.57,105.0
883.64,102.0
883.7,88.0
883.76,93.0
883.83,100.0
883.89,106.0
883.95,92.0
884.02,102.0
884.08,109.0
884.14,97.0
884.2,90.0
884.27,104.0
884.33,95.0
884.39,73.0
884.46,84.0
884.52,98.0
884.58,81.0
884.65,88.0
884.71,110.0
884.77,112.0
884.83,91.0
884.9,98.0
884.96,110.0
885.02,99.0
885.09,110.0
885.15,101.0
885.21,98.0
885.28,107.0
885.34,96.0
885.4,93.0
885.46,84.0
885.53,100.0
885.59,92.0
885.65,90.0
885.72,104.0
885.78,93.0
885.84,91.0
885.91,83.0
885.97,84.0
886.03,73.0
886.09,87.0
886.16,98.0
886.22,80.0
886.28,88.0
886.35,88.0
886.41,87.0
886.47,99.0
886.54,86.0
886.6,100.0
886.66,115.0
886.72,119.0
886.79,127.0
886.85,106.0
886.91,96.0
886.98,94.0
887.04,92.0
887.1,90.0
887.17,104.0
887.23,101.0
887.29,97.0
887.35,99.0
887.42,89.0
887.48,77.0
887.54,82.0
887.61,99.0
887.67,88.0
887.73,86.0
887.8,70.0
887.86,69.0
887.92,66.0
887.98,83.0
888.05,95.0
888.11,82.0
888.17,91.0
888.24,79.0
888.3,79.0
888.36,79.0
888.43,69.0
888.49,63.0
888.55,74.0
888.61,63.0
888.68,68.0
888.74,72.0
888.8,59.0
888.87,73.0
888.93,66.0
888.99,61.0
889.06,55.0
889.12,76.0
889.18,79.0
889.24,69.0
889.31,65.0
889.37,68.0
889.43,80.0
889.5,77.0
889.56,70.0
889.62,81.0
889.69,73.0
889.75,63.0
889.81,62.0
889.87,92.0
889.94,79.0
890.0,62.0
890.06,69.0
890.13,76.0
890.19,84.0
890.25,82.0
890.32,87.0
890.38,92.0
890.44,91.0
890.5,72.0
890.57,76.0
890.63,84.0
890.69,84.0
890.76,99.0
890.82,94.0
890.88,90.0
890.95,80.0
891.01,87.0
891.07,82.0
891.13,90.0
891.2,123.0
891.26,93.0
891.32,88.0
891.39,83.0
891.45,87.0
891.51,89.0
891.58,76.0
891.64,80.0
891.7,71.0
891.76,66.0
891.83,71.0
891.89,68.0
891.95,73.0
892.02,85.0
892.08,71.0
892.14,57.0
892.21,70.0
892.27,71.0
892.33,73.0
892.39,69.0
892.46,80.0
892.52,85.0
892.58,88.0
892.65,81.0
892.71,74.0
892.77,85.0
892.84,73.0
892.9,76.0
892.96,62.0
893.02,75.0
893.09,67.0
893.15,50.0
893.21,57.0
893.28,81.0
893.34,80.0
893.4,69.0
893.47,70.0
893.53,65.0
893.59,50.0
893.65,73.0
893.72,70.0
893.78,57.0
893.84,52.0
893.91,85.0
893.97,73.0
894.03,53.0
894.1,56.0
894.16,74.0
894.22,49.0
894.28,41.0
894.35,47.0
894.41,38.0
894.47,54.0
894.54,48.0
894.6,61.0
894.66,56.0
894.73,46.0
894.79,62.0
894.85,72.0
894.91,62.0
894.98,58.0
895.04,67.0
895.1,76.0
895.17,74.0
895.23,70.0
895.29,56.0
895.36,50.0
895.42,61.0
895.48,63.0
895.54,69.0
895.61,81.0
895.67,69.0
895.73,90.0
895.8,79.0
895.86,85.0
895.92,81.0
895.99,88.0
896.05,85.0
896.11,77.0
896.17,68.0
896.24,73.0
896.3,77.0
896.36,61.0
896.43,62.0
896.49,70.0
896.55,61.0
896.62,76.0
896.68,60.0
896.74,55.0
896.8,72.0
896.87,87.0
896.93,95.0
896.99,77.0
897.06,94.0
897.12,85.0
897.18,75.0
897.25,85.0
897.31,95.0
897.37,101.0
897.43,102.0
897.5,95.0
897.56,105.0
897.62,102.0
897.69,116.0
897.75,96.0
897.81,100.0
897.88,106.0
897.94,98.0
898.0,99.0
898.06,97.0
898.13,103.0
898.19,119.0
898.25,99.0
898.32,88.0
898.38,90.0
898.44,71.0
898.51,76.0
898.57,65.0
898.63,84.0
898.69,59.0
898.76,54.0
898.82,71.0
898.88,77.0
898.95,75.0
899.01,63.0
899.07,55.0
899.14,66.0
899.2,80.0
899.26,84.0
899.32,76.0
899.39,77.0
899.45,95.0
899.51,94.0
899.58,105.0
899.64,88.0
899.7,80.0
899.77,96.0
899.83,96.0
899.89,96.0
899.95,106.0
900.02,86.0
900.08,82.0
900.14,74.0
900.21,74.0
900.27,87.0
900.33,88.0
900.4,91.0
900.46,94.0
900.52,84.0
900.58,79.0
900.65,74.0
900.71,66.0
900.77,60.0
900.84,48.0
900.9,49.0
900.96,71.0
901.03,62.0
901.09,68.0
901.15,57.0
901.21,58.0
901.28,69.0
901.34,71.0
901.4,67.0
901.47,78.0
901.53,82.0
901.59,68.0
901.66,61.0
901.72,60.0
901.78,70.0
901.84,61.0
901.91,78.0
901.97,75.0
902.03,72.0
902.1,71.0
902.16,79.0
902.22,82.0
902.29,96.0
902.35,89.0
902.41,98.0
902.47,98.0
902.54,100.0
902.6,94.0
902.66,83.0
902.73,91.0
902.79,85.0
902.85,87.0
902.92,77.0
902.98,91.0
903.04,73.0
903.1,73.0
903.17,85.0
903.23,78.0
903.29,80.0
903.36,97.0
903.42,93.0
903.48,88.0
903.55,103.0
903.61,101.0
903.67,102.0
903.73,110.0
903.8,92.0
903.86,90.0
903.92,103.0
903.99,128.0
904.05,132.0
904.11,127.0
904.18,110.0
904.24,114.0
904.3,118.0
904.36,102.0
904.43,99.0
904.49,116.0
904.55,116.0
904.62,103.0
904.68,117.0
904.74,95.0
904.81,104.0
904.87,118.0
904.93,98.0
904.99,107.0
905.06,111.0
905.12,110.0
905.18,108.0
905.25,102.0
905.31,109.0
905.37,98.0
905.44,92.0
905.5,83.0
905.56,87.0
905.62,113.0
905.69,107.0
905.75,131.0
905.81,132.0
905.88,142.0
905.94,136.0
906.0,120.0
906.07,137.0
906.13,152.0
906.19,140.0
906.25,142.0
906.32,129.0
906.38,127.0
906.44,145.0
906.51,155.0
906.57,141.0
906.63,141.0
906.7,124.0
906.76,142.0
906.82,138.0
906.88,152.0
906.95,158.0
907.01,141.0
907.07,124.0
907.14,154.0
907.2,164.0
907.26,150.0
907.33,165.0
907.39,147.0
907.45,161.0
907.51,165.0
907.58,141.0
907.64,137.0
907.7,132.0
907.77,128.0
907.83,144.0
907.89,122.0
907.96,130.0
908.02,126.0
908.08,114.0
908.14,147.0
908.21,132.0
908.27,137.0
908.33,133.0
908.4,119.0
908.46,107.0
908.52,130.0
908.59,122.0
908.65,115.0
908.71,110.0
908.77,99.0
908.84,89.0
908.9,95.0
908.96,107.0
909.03,103.0
909.09,109.0
909.15,124.0
909.22,128.0
909.28,118.0
909.34,132.0
909.4,121.0
909.47,110.0
909.53,130.0
909.59,135.0
909.66,113.0
909.72,109.0
909.78,119.0
909.85,120.0
909.91,143.0
909.97,133.0
910.03,115.0
910.1,128.0
910.16,120.0
910.22,91.0
910.29,112.0
910.35,114.0
910.41,112.0
910.48,109.0
910.54,93.0
910.6,85.0
910.66,95.0
910.73,81.0
910.79,84.0
910.85,100.0
910.92,109.0
910.98,87.0
911.04,72.0
911.11,84.0
911.17,88.0
911.23,81.0
911.29,86.0
911.36,95.0
911.42,88.0
911.48,84.0
911.55,83.0
911.61,82.0
911.67,82.0
911.74,85.0
911.8,89.0
911.86,107.0
911.92,107.0
911.99,70.0
912.05,102.0
912.11,115.0
912.18,83.0
912.24,82.0
912.3,85.0
912.37,68.0
912.43,90.0
912.49,81.0
912.55,81.0
912.62,84.0
912.68,91.0
912.74,80.0
912.81,84.0
912.87,69.0
912.93,60.0
913.0,83.0
913.06,51.0
913.12,46.0
913.18,52.0
913.25,81.0
913.31,66.0
913.37,52.0
913.44,56.0
913.5,61.0
913.56,68.0
913.63,60.0
913.69,53.0
913.75,48.0
913.81,47.0
913.88,65.0
913.94,77.0
914.0,57.0
914.07,59.0
914.13,57.0
914.19,61.0
914.26,70.0
914.32,81.0
914.38,70.0
914.44,80.0
914.51,97.0
914.57,93.0
914.63,76.0
914.7,83.0
914.76,76.0
914.82,66.0
914.89,62.0
914.95,61.0
915.01,91.0
915.07,70.0
915.14,71.0
915.2,88.0
915.26,78.0
915.33,72.0
915.39,78.0
915.45,88.0
915.52,91.0
915.58,79.0
915.64,92.0
915.7,94.0
915.77,82.0
915.83,76.0
915.89,74.0
915.96,87.0
916.02,112.0
916.08,84.0
916.15,98.0
916.21,93.0
916.27,82.0
916.33,71.0
916.4,81.0
916.46,88.0
916.52,89.0
916.59,110.0
916.65,93.0
916.71,91.0
916.78,101.0
916.84,98.0
916.9,87.0
916.96,80.0
917.03,106.0
917.09,126.0
917.15,105.0
917.22,103.0
917.28,104.0
917.34,129.0
917.41,145.0
917.47,112.0
917.53,118.0
917.59,104.0
917.66,100.0
917.72,121.0
917.78,103.0
917.85,112.0
917.91,110.0
917.97,115.0
918.04,91.0
918.1,87.0
918.16,95.0
918.22,104.0
918.29,102.0
918.35,106.0
918.41,107.0
918.48,106.0
918.54,123.0
918.6,130.0
918.67,126.0
918.73,77.0
918.79,98.0
918.85,110.0
918.92,123.0
918.98,108.0
919.04,93.0
919.11,117.0
919.17,103.0
919.23,108.0
919.3,110.0
919.36,121.0
919.42,100.0
919.48,112.0
919.55,133.0
919.61,111.0
919.67,110.0
919.74,128.0
919.8,130.0
919.86,114.0
919.93,95.0
919.99,112.0
920.05,118.0
920.11,120.0
920.18,115.0
920.24,105.0
920.3,114.0
920.37,117.0
920.43,108.0
920.49,123.0
920.56,110.0
920.62,115.0
920.68,121.0
920.74,135.0
920.81,136.0
920.87,130.0
920.93,129.0
921.0,143.0
921.06,154.0
921.12,159.0
921.19,155.0
921.25,151.0
921.31,132.0
921.37,156.0
921.44,147.0
921.5,140.0
921.56,149.0
921.63,134.0
921.69,145.0
921.75,162.0
921.82,176.0
921.88,165.0
921.94,176.0
922.0,146.0
922.07,169.0
922.13,172.0
922.19,151.0
922.26,179.0
922.32,176.0
922.38,172.0
922.45,165.0
922.51,164.0
922.57,183.0
922.63,167.0
922.7,167.0
922.76,170.0
922.82,180.0
922.89,186.0
922.95,172.0
923.01,178.0
923.08,171.0
923.14,164.0
923.2,165.0
923.26,179.0
923.33,172.0
923.39,167.0
923.45,181.0
923.52,182.0
923.58,184.0
923.64,168.0
923.71,150.0
923.77,183.0
923.83,186.0
923.89,163.0
923.96,164.0
924.02,170.0
924.08,180.0
924.15,202.0
924.21,195.0
924.27,183.0
924.34,179.0
924.4,181.0
924.46,187.0
924.52,202.0
924.59,178.0
924.65,181.0
924.71,189.0
924.78,192.0
924.84,197.0
924.9,194.0
924.97,191.0
925.03,191.0
925.09,170.0
925.15,195.0
925.22,176.0
925.28,168.0
925.34,173.0
925.41,207.0
925.47,188.0
925.53,186.0
925.6,187.0
925.66,187.0
925.72,183.0
925.78,190.0
925.85,200.0
925.91,183.0
925.97,183.0
926.04,180.0
926.1,176.0
926.16,177.0
926.23,156.0
926.29,162.0
926.35,188.0
926.41,178.0
926.48,184.0
926.54,171.0
926.6,175.0
926.67,195.0
926.73,170.0
926.79,179.0
926.86,175.0
926.92,189.0
926.98,195.0
927.04,180.0
927.11,167.0
927.17,170.0
927.23,167.0
927.3,135.0
927.36,144.0
927.42,164.0
927.49,159.0
927.55,159.0
927.61,168.0
927.67,169.0
927.74,194.0
927.8,178.0
927.86,161.0
927.93,148.0
927.99,158.0
928.05,130.0
928.12,147.0
928.18,172.0
928.24,156.0
928.3,161.0
928.37,169.0
928.43,161.0
928.49,143.0
928.56,150.0
928.62,152.0
928.68,149.0
928.75,160.0
928.81,169.0
928.87,158.0
928.93,151.0
929.0,159.0
929.06,150.0
929.12,127.0
929.19,139.0
929.25,140.0
929.31,129.0
929.38,143.0
929.44,146.0
929.5,148.0
929.56,125.0
929.63,137.0
929.69,116.0
929.75,103.0
929.82,138.0
929.88,139.0
929.94,114.0
930.01,121.0
930.07,118.0
930.13,120.0
930.19,122.0
930.26,121.0
930.32,127.0
930.38,113.0
930.45,113.0
930.51,122.0
930.57,93.0
930.64,113.0
930.7,135.0
930.76,124.0
930.82,129.0
930.89,127.0
930.95,114.0
931.01,120.0
931.08,99.0
931.14,129.0
931.2,111.0
931.27,125.0
931.33,121.0
931.39,121.0
931.45,110.0
931.52,124.0
931.58,120.0
931.64,118.0
931.71,123.0
931.77,124.0
931.83,116.0
931.9,116.0
931.96,107.0
932.02,116.0
932.08,121.0
932.15,79.0
932.21,99.0
932.27,94.0
932.34,97.0
932.4,103.0
932.46,88.0
932.53,89.0
932.59,101.0
932.65,93.0
932.71,67.0
932.78,79.0
932.84,62.0
932.9,60.0
932.97,54.0
933.03,68.0
933.09,52.0
933.16,26.0
933.22,37.0
933.28,36.0
933.34,51.0
933.41,45.0
933.47,44.0
933.53,30.0
933.6,43.0
933.66,51.0
933.72,22.0
933.79,17.0
933.85,37.0
933.91,37.0
933.97,29.0
934.04,30.0
934.1,29.0
934.16,13.0
934.23,36.0
934.29,49.0
934.35,44.0
934.42,29.0
934.48,38.0
934.54,48.0
934.6,16.0
934.67,27.0
934.73,24.0
934.79,21.0
934.86,37.0
934.92,33.0
934.98,35.0
935.05,32.0
935.11,37.0
935.17,41.0
935.23,55.0
935.3,44.0
935.36,39.0
935.42,57.0
935.49,60.0
935.55,46.0
935.61,52.0
935.68,58.0
935.74,60.0
935.8,64.0
935.86,63.0
935.93,70.0
935.99,48.0
936.05,52.0
936.12,69.0
936.18,46.0
936.24,62.0
936.31,64.0
936.37,77.0
936.43,81.0
936.49,65.0
936.56,74.0
936.62,64.0
936.68,65.0
936.75,67.0
936.81,66.0
936.87,84.0
936.94,77.0
937.0,88.0
937.06,95.0
937.12,99.0
937.19,95.0
937.25,99.0
937.31,91.0
937.38,77.0
937.44,82.0
937.5,62.0
937.57,57.0
937.63,52.0
937.69,68.0
937.75,61.0
937.82,60.0
937.88,84.0
937.94,58.0
938.01,33.0
938.07,45.0
938.13,65.0
938.2,73.0
938.26,71.0
938.32,82.0
938.38,74.0
938.45,84.0
938.51,68.0
938.57,56.0
938.64,47.0
938.7,68.0
938.76,81.0
938.83,81.0
938.89,88.0
938.95,95.0
939.01,73.0
939.08,83.0
939.14,87.0
939.2,70.0
939.27,60.0
939.33,71.0
939.39,78.0
939.46,69.0
939.52,60.0
939.58,59.0
939.64,71.0
939.71,60.0
939.77,65.0
939.83,81.0
939.9,71.0
939.96,72.0
940.02,87.0
940.09,70.0
940.15,68.0
940.21,59.0
940.27,81.0
940.34,98.0
940.4,113.0
940.46,95.0
940.53,93.0
940.59,96.0
940.65,90.0
940.72,83.0
940.78,81.0
940.84,90.0
940.9,91.0
940.97,99.0
941.03,104.0
941.09,111.0
941.16,108.0
941.22,135.0
941.28,131.0
941.35,117.0
941.41,134.0
941.47,111.0
941.53,132.0
941.6,152.0
941.66,139.0
941.72,119.0
941.79,120.0
941.85,125.0
941.91,117.0
941.98,100.0
942.04,96.0
942.1,115.0
942.16,117.0
942.23,128.0
942.29,120.0
942.35,117.0
942.42,124.0
942.48,118.0
942.54,129.0
942.61,124.0
942.67,115.0
942.73,126.0
942.79,140.0
942.86,143.0
942.92,129.0
942.98,137.0
943.05,140.0
943.11,128.0
943.17,101.0
943.24,100.0
943.3,106.0
943.36,101.0
943.42,82.0
943.49,89.0
943.55,89.0
943.61,91.0
943.68,94.0
943.74,105.0
943.8,92.0
943.87,100.0
943.93,115.0
943.99,113.0
944.05,117.0
944.12,120.0
944.18,115.0
944.24,97.0
944.31,84.0
944.37,105.0
944.43,115.0
944.5,81.0
944.56,87.0
944.62,86.0
944.68,102.0
944.75,89.0
944.81,109.0
944.87,113.0
944.94,115.0
945.0,79.0
945.06,108.0
945.13,110.0
945.19,102.0
945.25,110.0
945.31,109.0
945.38,105.0
945.44,105.0
945.5,92.0
945.57,93.0
945.63,77.0
945.69,90.0
945.76,104.0
945.82,82.0
945.88,101.0
945.94,108.0
946.01,121.0
946.07,129.0
946.13,127.0
946.2,108.0
946.26,128.0
946.32,112.0
946.39,115.0
946.45,133.0
946.51,92.0
946.57,98.0
946.64,93.0
946.7,104.0
946.76,113.0
946.83,103.0
946.89,97.0
946.95,99.0
947.02,107.0
947.08,93.0
947.14,84.0
947.2,103.0
947.27,105.0
947.33,121.0
947.39,115.0
947.46,105.0
947.52,106.0
947.58,115.0
947.65,118.0
947.71,109.0
947.77,93.0
947.83,89.0
947.9,95.0
947.96,111.0
948.02,121.0
948.09,113.0
948.15,118.0
948.21,98.0
948.28,132.0
948.34,100.0
948.4,89.0
948.46,115.0
948.53,97.0
948.59,100.0
948.65,95.0
948.72,110.0
948.78,105.0
948.84,92.0
948.91,96.0
948.97,95.0
949.03,94.0
949.09,88.0
949.16,95.0
949.22,94.0
949.28,69.0
949.35,69.0
949.41,63.0
949.47,51.0
949.54,62.0
949.6,67.0
949.66,60.0
949.72,77.0
949.79,60.0
949.85,73.0
949.91,91.0
949.98,79.0
950.04,84.0
950.1,103.0
950.17,90.0
950.23,98.0
950.29,81.0
950.35,89.0
950.42,99.0
950.48,110.0
950.54,112.0
950.61,111.0
950.67,109.0
950.73,113.0
950.8,112.0
950.86,131.0
950.92,109.0
950.98,108.0
951.05,117.0
951.11,104.0
951.17,108.0
951.24,100.0
951.3,110.0
951.36,112.0
951.43,84.0
951.49,95.0
951.55,95.0
951.61,104.0
951.68,95.0
951.74,92.0
951.8,96.0
951.87,95.0
951.93,87.0
951.99,89.0
952.06,90.0
952.12,92.0
952.18,88.0
952.24,90.0
952.31,89.0
952.37,68.0
952.43,74.0
952.5,91.0
952.56,79.0
952.62,84.0
952.69,96.0
952.75,101.0
952.81,104.0
952.87,115.0
952.94,107.0
953.0,101.0
953.06,110.0
953.13,123.0
953.19,130.0
953.25,117.0
953.32,118.0
953.38,124.0
953.44,138.0
953.5,115.0
953.57,124.0
953.63,122.0
953.69,126.0
953.76,135.0
953.82,125.0
953.88,118.0
953.95,109.0
954.01,117.0
954.07,133.0
954.13,127.0
954.2,118.0
954.26,128.0
954.32,140.0
954.39,129.0
954.45,119.0
954.51,118.0
954.58,125.0
954.64,98.0
954.7,116.0
954.76,108.0
954.83,89.0
954.89,98.0
954.95,101.0
955.02,96.0
955.08,86.0
955.14,84.0
955.21,88.0
955.27,104.0
955.33,117.0
955.39,111.0
955.46,103.0
955.52,98.0
955.58,105.0
955.65,85.0
955.71,81.0
955.77,92.0
955.84,115.0
955.9,109.0
955.96,115.0
956.02,122.0
956.09,91.0
956.15,106.0
956.21,98.0
956.28,102.0
956.34,104.0
956.4,113.0
956.47,110.0
956.53,107.0
956.59,132.0
956.65,111.0
956.72,117.0
956.78,123.0
956.84,132.0
956.91,129.0
956.97,126.0
957.03,138.0
957.1,138.0
957.16,129.0
957.22,132.0
957.28,128.0
957.35,131.0
957.41,113.0
957.47,117.0
957.54,126.0
957.6,118.0
957.66,135.0
957.73,137.0
957.79,128.0
957.85,122.0
957.91,125.0
957.98,157.0
958.04,135.0
958.1,121.0
958.17,131.0
958.23,138.0
958.29,135.0
958.36,132.0
958.42,151.0
958.48,125.0
958.54,129.0
958.61,128.0
958.67,108.0
958.73,110.0
958.8,110.0
958.86,97.0
958.92,98.0
958.99,100.0
959.05,98.0
959.11,95.0
959.17,111.0
959.24,112.0
959.3,102.0
959.36,113.0
959.43,96.0
959.49,110.0
959.55,124.0
959.62,95.0
959.68,73.0
959.74,68.0
959.8,73.0
959.87,87.0
959.93,71.0
959.99,66.0
960.06,65.0
960.12,68.0
960.18,73.0
960.25,69.0
960.31,83.0
960.37,90.0
960.43,74.0
960.5,81.0
960.56,70.0
960.62,72.0
960.69,79.0
960.75,74.0
960.81,82.0
960.88,63.0
960.94,69.0
961.0,77.0
961.06,84.0
961.13,94.0
961.19,72.0
961.25,70.0
961.32,95.0
961.38,87.0
961.44,93.0
961.51,85.0
961.57,85.0
961.63,82.0
961.69,66.0
961.76,75.0
961.82,91.0
961.88,117.0
961.95,107.0
962.01,85.0
962.07,98.0
962.14,101.0
962.2,115.0
962.26,103.0
962.32,92.0
962.39,72.0
962.45,88.0
962.51,97.0
962.58,94.0
962.64,106.0
962.7,96.0
962.77,90.0
962.83,95.0
962.89,87.0
962.95,85.0
963.02,81.0
963.08,72.0
963.14,81.0
963.21,96.0
963.27,74.0
963.33,81.0
963.4,82.0
963.46,78.0
963.52,74.0
963.58,49.0
963.65,61.0
963.71,73.0
963.77,76.0
963.84,95.0
963.9,97.0
963.96,74.0
964.03,80.0
964.09,91.0
964.15,84.0
964.21,95.0
964.28,74.0
964.34,90.0
964.4,91.0
964.47,90.0
964.53,89.0
964.59,84.0
964.66,55.0
964.72,54.0
964.78,55.0
964.84,62.0
964.91,62.0
964.97,63.0
965.03,75.0
965.1,71.0
965.16,83.0
965.22,79.0
965.29,73.0
965.35,84.0
965.41,69.0
965.47,74.0
965.54,71.0
965.6,57.0
965.66,65.0
965.73,50.0
965.79,59.0
965.85,66.0
965.92,69.0
965.98,74.0
966.04,59.0
966.1,47.0
966.17,59.0
966.23,67.0
966.29,75.0
966.36,63.0
966.42,68.0
966.48,61.0
966.55,59.0
966.61,60.0
966.67,54.0
966.73,65.0
966.8,74.0
966.86,53.0
966.92,51.0
966.99,76.0
967.05,77.0
967.11,77.0
967.18,80.0
967.24,62.0
967.3,73.0
967.36,70.0
967.43,74.0
967.49,87.0
967.55,68.0
967.62,73.0
967.68,68.0
967.74,65.0
967.81,69.0
967.87,65.0
967.93,47.0
967.99,57.0
968.06,60.0
968.12,82.0
968.18,68.0
968.25,70.0
968.31,95.0
968.37,91.0
968.44,70.0
968.5,80.0
968.56,85.0
968.62,82.0
968.69,93.0
968.75,89.0
968.81,76.0
968.88,92.0
968.94,90.0
969.0,92.0
969.07,118.0
969.13,108.0
969.19,113.0
969.25,109.0
969.32,101.0
969.38,129.0
969.44,114.0
969.51,96.0
969.57,116.0
969.63,122.0
969.7,132.0
969.76,117.0
969.82,104.0
969.88,111.0
969.95,102.0
970.01,117.0
970.07,101.0
970.14,119.0
970.2,126.0
970.26,117.0
970.33,113.0
970.39,99.0
970.45,132.0
970.51,117.0
970.58,99.0
970.64,97.0
970.7,98.0
970.77,114.0
970.83,110.0
970.89,112.0
970.96,123.0
971.02,107.0
971.08,104.0
971.14,104.0
971.21,116.0
971.27,122.0
971.33,118.0
971.4,124.0
971.46,120.0
971.52,123.0
971.59,145.0
971.65,135.0
971.71,130.0
971.77,142.0
971.84,144.0
971.9,149.0
971.96,156.0
972.03,144.0
972.09,156.0
972.15,154.0
972.22,150.0
972.28,150.0
972.34,162.0
972.4,164.0
972.47,143.0
972.53,142.0
972.59,135.0
972.66,129.0
972.72,142.0
972.78,126.0
972.85,131.0
972.91,151.0
972.97,124.0
973.03,149.0
973.1,146.0
973.16,160.0
973.22,147.0
973.29,153.0
973.35,159.0
973.41,161.0
973.48,172.0
973.54,170.0
973.6,162.0
973.66,170.0
973.73,158.0
973.79,150.0
973.85,153.0
973.92,157.0
973.98,146.0
974.04,122.0
974.11,140.0
974.17,149.0
974.23,151.0
974.29,152.0
974.36,150.0
974.42,153.0
974.48,147.0
974.55,139.0
974.61,144.0
974.67,135.0
974.74,154.0
974.8,130.0
974.86,139.0
974.92,136.0
974.99,131.0
975.05,121.0
975.11,126.0
975.18,140.0
975.24,128.0
975.3,128.0
975.37,141.0
975.43,133.0
975.49,154.0
975.55,140.0
975.62,132.0
975.68,119.0
975.74,130.0
975.81,143.0
975.87,169.0
975.93,151.0
976.0,136.0
976.06,158.0
976.12,162.0
976.18,149.0
976.25,160.0
976.31,158.0
976.37,161.0
976.44,140.0
976.5,158.0
976.56,154.0
976.63,164.0
976.69,152.0
976.75,149.0
976.81,153.0
976.88,146.0
976.94,146.0
977.0,145.0
977.07,126.0
977.13,141.0
977.19,140.0
977.26,131.0
977.32,146.0
977.38,136.0
977.44,133.0
977.51,125.0
977.57,128.0
977.63,139.0
977.7,149.0
977.76,149.0
977.82,126.0
977.89,110.0
977.95,125.0
978.01,125.0
978.07,124.0
978.14,126.0
978.2,130.0
978.26,130.0
978.33,141.0
978.39,147.0
978.45,128.0
978.52,130.0
978.58,137.0
978.64,150.0
978.7,142.0
978.77,132.0
978.83,143.0
978.89,135.0
978.96,113.0
979.02,118.0
979.08,127.0
979.15,133.0
979.21,137.0
979.27,137.0
979.33,125.0
979.4,121.0
979.46,139.0
979.52,141.0
979.59,152.0
979.65,159.0
979.71,129.0
979.78,118.0
979.84,114.0
979.9,139.0
979.96,148.0
980.03,140.0
980.09,139.0
980.15,144.0
980.22,126.0
980.28,125.0
980.34,122.0
980.41,118.0
980.47,118.0
980.53,85.0
980.59,101.0
980.66,92.0
980.72,104.0
980.78,101.0
980.85,93.0
980.91,95.0
980.97,101.0
981.04,102.0
981.1,116.0
981.16,98.0
981.22,94.0
981.29,100.0
981.35,90.0
981.41,95.0
981.48,101.0
981.54,110.0
981.6,97.0
981.67,96.0
981.73,108.0
981.79,80.0
981.85,73.0
981.92,73.0
981.98,53.0
982.04,53.0
982.11,65.0
982.17,31.0
982.23,40.0
982.3,30.0
982.36,49.0
982.42,44.0
982.48,48.0
982.55,39.0
982.61,43.0
982.67,64.0
982.74,55.0
982.8,54.0
982.86,52.0
982.93,62.0
982.99,47.0
983.05,55.0
983.11,59.0
983.18,73.0
983.24,60.0
983.3,64.0
983.37,68.0
983.43,35.0
983.49,27.0
983.56,27.0
983.62,25.0
983.68,26.0
983.74,44.0
983.81,40.0
983.87,35.0
983.93,41.0
984.0,28.0
984.06,8.0
984.12,32.0
984.19,29.0
984.25,25.0
984.31,35.0
984.37,27.0
984.44,33.0
984.5,37.0
984.56,41.0
984.63,40.0
984.69,36.0
984.75,40.0
984.82,26.0
984.88,26.0
984.94,32.0
985.0,36.0
985.07,35.0
985.13,24.0
985.19,54.0
985.26,50.0
985.32,36.0
985.38,34.0
985.45,32.0
985.51,55.0
985.57,59.0
985.63,76.0
985.7,91.0
985.76,88.0
985.82,61.0
985.89,58.0
985.95,84.0
986.01,87.0
986.08,56.0
986.14,67.0
986.2,94.0
986.26,88.0
986.33,85.0
986.39,80.0
986.45,75.0
986.52,99.0
986.58,101.0
986.64,74.0
986.71,109.0
986.77,112.0
986.83,105.0
986.89,91.0
986.96,90.0
987.02,91.0
987.08,101.0
987.15,89.0
987.21,83.0
987.27,96.0
987.34,82.0
987.4,91.0
987.46,117.0
987.52,107.0
987.59,79.0
987.65,105.0
987.71,99.0
987.78,103.0
987.84,96.0
987.9,88.0
987.97,82.0
988.03,87.0
988.09,92.0
988.15,94.0
988.22,75.0
988.28,74.0
988.34,72.0
988.41,75.0
988.47,92.0
988.53,88.0
988.6,91.0
988.66,65.0
988.72,96.0
988.78,110.0
988.85,91.0
988.91,89.0
988.97,95.0
989.04,91.0
989.1,96.0
989.16,96.0
989.23,87.0
989.29,89.0
989.35,77.0
989.41,76.0
989.48,96.0
989.54,86.0
989.6,73.0
989.67,93.0
989.73,87.0
989.79,84.0
989.86,92.0
989.92,79.0
989.98,68.0
990.04,74.0
990.11,82.0
990.17,90.0
990.23,77.0
990.3,93.0
990.36,79.0
990.42,80.0
990.49,84.0
990.55,91.0
990.61,85.0
990.67,87.0
990.74,92.0
990.8,120.0
990.86,132.0
990.93,106.0
990.99,111.0
991.05,116.0
991.12,137.0
991.18,147.0
991.24,162.0
991.3,167.0
991.37,147.0
991.43,154.0
991.49,145.0
991.56,180.0
991.62,178.0
991.68,172.0
991.75,175.0
991.81,185.0
991.87,184.0
991.93,177.0
992.0,190.0
992.06,167.0
992.12,178.0
992.19,181.0
992.25,187.0
992.31,192.0
992.38,172.0
992.44,168.0
992.5,169.0
992.56,165.0
992.63,176.0
992.69,154.0
992.75,143.0
992.82,139.0
992.88,156.0
992.94,144.0
993.01,146.0
993.07,170.0
993.13,160.0
993.19,158.0
993.26,154.0
993.32,164.0
993.38,172.0
993.45,161.0
993.51,179.0
993.57,178.0
993.64,177.0
993.7,186.0
993.76,184.0
993.82,171.0
993.89,183.0
993.95,179.0
994.01,198.0
994.08,184.0
994.14,172.0
994.2,170.0
994.27,165.0
994.33,190.0
994.39,184.0
994.45,195.0
994.52,197.0
994.58,198.0
994.64,212.0
994.71,200.0
994.77,194.0
994.83,205.0
994.9,196.0
994.96,192.0
995.02,200.0
995.08,187.0
995.15,191.0
995.21,179.0
995.27,173.0
995.34,178.0
995.4,190.0
995.46,182.0
995.53,185.0
995.59,184.0
995.65,170.0
995.71,189.0
995.78,183.0
995.84,180.0
995.9,170.0
995.97,172.0
996.03,173.0
996.09,166.0
996.16,165.0
996.22,192.0
996.28,198.0
996.34,171.0
996.41,161.0
996.47,154.0
996.53,171.0
996.6,165.0
996.66,176.0
996.72,184.0
996.79,170.0
996.85,175.0
996.91,161.0
996.97,171.0
997.04,186.0
997.1,154.0
997.16,152.0
997.23,159.0
997.29,154.0
997.35,151.0
997.42,151.0
997.48,154.0
997.54,133.0
997.6,148.0
997.67,141.0
997.73,142.0
997.79,147.0
997.86,121.0
997.92,125.0
997.98,123.0
998.05,126.0
998.11,136.0
998.17,121.0
998.23,116.0
998.3,112.0
998.36,103.0
998.42,96.0
998.49,110.0
998.55,94.0
998.61,89.0
998.68,103.0
998.74,84.0
998.8,117.0
998.86,128.0
998.93,112.0
998.99,115.0
999.05,114.0
999.12,106.0
999.18,95.0
999.24,101.0
999.31,79.0
999.37,84.0
999.43,88.0
999.49,92.0
999.56,90.0
999.62,92.0
999.68,103.0
999.75,96.0
999.81,93.0
999.87,96.0
