timestamp,intensity
0,-202.0
0.06,-189.0
0.13,-165.0
0.19,-190.0
0.25,-194.0
0.32,-201.0
0.38,-215.0
0.44,-219.0
0.5,-211.0
0.57,-221.0
0.63,-227.0
0.69,-216.0
0.76,-234.0
0.82,-227.0
0.88,-203.0
0.94,-235.0
1.01,-217.0
1.07,-212.0
1.13,-217.0
1.2,-194.0
1.26,-199.0
1.32,-200.0
1.39,-224.0
1.45,-201.0
1.51,-217.0
1.57,-224.0
1.64,-198.0
1.7,-223.0
1.76,-220.0
1.83,-214.0
1.89,-233.0
1.95,-210.0
2.02,-212.0
2.08,-222.0
2.14,-212.0
2.2,-211.0
2.27,-217.0
2.33,-212.0
2.39,-203.0
2.46,-223.0
2.52,-213.0
2.58,-224.0
2.65,-219.0
2.71,-211.0
2.77,-210.0
2.84,-206.0
2.9,-198.0
2.96,-201.0
3.02,-223.0
3.09,-196.0
3.15,-195.0
3.21,-227.0
3.28,-222.0
3.34,-222.0
3.4,-228.0
3.47,-219.0
3.53,-229.0
3.59,-243.0
3.65,-217.0
3.72,-210.0
3.78,-235.0
3.84,-258.0
3.91,-257.0
3.97,-257.0
4.03,-259.0
4.1,-252.0
4.16,-262.0
4.22,-242.0
4.28,-255.0
4.35,-263.0
4.41,-257.0
4.47,-253.0
4.54,-242.0
4.6,-236.0
4.66,-239.0
4.73,-230.0
4.79,-236.0
4.85,-257.0
4.91,-242.0
4.98,-248.0
5.04,-253.0
5.1,-266.0
5.17,-262.0
5.23,-249.0
5.29,-256.0
5.35,-251.0
5.42,-243.0
5.48,-255.0
5.54,-254.0
5.61,-260.0
5.67,-250.0
5.73,-253.0
5.8,-269.0
5.86,-263.0
5.92,-285.0
5.98,-280.0
6.05,-277.0
6.11,-265.0
6.17,-277.0
6.24,-282.0
6.3,-271.0
6.36,-274.0
6.43,-257.0
6.49,-270.0
6.55,-259.0
6.61,-271.0
6.68,-264.0
6.74,-262.0
6.8,-272.0
6.87,-273.0
6.93,-281.0
6.99,-287.0
7.06,-292.0
7.12,-284.0
7.18,-262.0
7.24,-272.0
7.31,-266.0
7.37,-250.0
7.43,-268.0
7.5,-270.0
7.56,-254.0
7.62,-278.0
7.69,-271.0
7.75,-279.0
7.81,-257.0
7.87,-251.0
7.94,-259.0
8.0,-261.0
8.06,-277.0
8.13,-267.0
8.19,-272.0
8.25,-270.0
8.32,-252.0
8.38,-275.0
8.44,-275.0
8.5,-268.0
8.57,-272.0
8.63,-271.0
8.69,-252.0
8.76,-259.0
8.82,-265.0
8.88,-250.0
8.95,-251.0
9.01,-258.0
9.07,-267.0
9.13,-258.0
9.2,-255.0
9.26,-259.0
9.32,-255.0
9.39,-253.0
9.45,-237.0
9.51,-230.0
9.58,-255.0
9.64,-249.0
9.7,-244.0
9.77,-234.0
9.83,-238.0
9.89,-237.0
9.95,-269.0
10.02,-263.0
10.08,-233.0
10.14,-265.0
10.21,-244.0
10.27,-217.0
10.33,-228.0
10.4,-242.0
10.46,-235.0
10.52,-231.0
10.58,-236.0
10.65,-238.0
10.71,-233.0
10.77,-244.0
10.84,-236.0
10.9,-233.0
10.96,-216.0
11.03,-210.0
11.09,-229.0
11.15,-216.0
11.21,-213.0
11.28,-218.0
11.34,-230.0
11.4,-230.0
11.47,-223.0
11.53,-235.0
11.59,-243.0
11.66,-217.0
11.72,-235.0
11.78,-235.0
11.84,-227.0
11.91,-243.0
11.97,-231.0
12.03,-236.0
12.1,-233.0
12.16,-248.0
12.22,-242.0
12.29,-238.0
12.35,-241.0
12.41,-229.0
12.47,-209.0
12.54,-209.0
12.6,-228.0
12.66,-235.0
12.73,-229.0
12.79,-220.0
12.85,-219.0
12.92,-212.0
12.98,-202.0
13.04,-212.0
13.1,-205.0
13.17,-188.0
13.23,-199.0
13.29,-191.0
13.36,-210.0
13.42,-212.0
13.48,-200.0
13.55,-211.0
13.61,-226.0
13.67,-223.0
13.73,-219.0
13.8,-223.0
13.86,-221.0
13.92,-196.0
13.99,-231.0
14.05,-212.0
14.11,-210.0
14.18,-226.0
14.24,-208.0
14.3,-228.0
14.36,-222.0
14.43,-227.0
14.49,-225.0
14.55,-233.0
14.62,-249.0
14.68,-253.0
14.74,-238.0
14.81,-243.0
14.87,-238.0
14.93,-239.0
14.99,-240.0
15.06,-255.0
15.12,-266.0
15.18,-248.0
15.25,-246.0
15.31,-247.0
15.37,-256.0
15.44,-258.0
15.5,-251.0
15.56,-263.0
15.62,-261.0
15.69,-254.0
15.75,-239.0
15.81,-242.0
15.88,-263.0
15.94,-245.0
16.0,-217.0
16.07,-226.0
16.13,-239.0
16.19,-207.0
16.25,-212.0
16.32,-205.0
16.38,-202.0
16.44,-213.0
16.51,-216.0
16.57,-214.0
16.63,-206.0
16.7,-212.0
16.76,-224.0
16.82,-216.0
16.88,-214.0
16.95,-201.0
17.01,-198.0
17.07,-195.0
17.14,-173.0
17.2,-200.0
17.26,-193.0
17.33,-194.0
17.39,-193.0
17.45,-169.0
17.51,-171.0
17.58,-185.0
17.64,-197.0
17.7,-196.0
17.77,-194.0
17.83,-172.0
17.89,-170.0
17.96,-200.0
18.02,-205.0
18.08,-188.0
18.14,-201.0
18.21,-215.0
18.27,-205.0
18.33,-182.0
18.4,-182.0
18.46,-186.0
18.52,-195.0
18.59,-184.0
18.65,-190.0
18.71,-197.0
18.77,-197.0
18.84,-220.0
18.9,-180.0
18.96,-188.0
19.03,-205.0
19.09,-189.0
19.15,-186.0
19.22,-200.0
19.28,-186.0
19.34,-178.0
19.4,-215.0
19.47,-212.0
19.53,-210.0
19.59,-194.0
19.66,-193.0
19.72,-214.0
19.78,-185.0
19.84,-212.0
19.91,-178.0
19.97,-197.0
20.03,-212.0
20.1,-185.0
20.16,-204.0
20.22,-183.0
20.29,-204.0
20.35,-209.0
20.41,-207.0
20.47,-205.0
20.54,-208.0
20.6,-203.0
20.66,-206.0
20.73,-193.0
20.79,-196.0
20.85,-190.0
20.92,-197.0
20.98,-209.0
21.04,-192.0
21.1,-212.0
21.17,-212.0
21.23,-193.0
21.29,-210.0
21.36,-208.0
21.42,-208.0
21.48,-222.0
21.55,-212.0
21.61,-201.0
21.67,-209.0
21.73,-207.0
21.8,-206.0
21.86,-210.0
21.92,-212.0
21.99,-221.0
22.05,-219.0
22.11,-214.0
22.18,-200.0
22.24,-202.0
22.3,-198.0
22.36,-188.0
22.43,-189.0
22.49,-182.0
22.55,-174.0
22.62,-202.0
22.68,-202.0
22.74,-187.0
22.81,-196.0
22.87,-182.0
22.93,-179.0
22.99,-187.0
23.06,-175.0
23.12,-182.0
23.18,-186.0
23.25,-190.0
23.31,-189.0
23.37,-193.0
23.44,-194.0
23.5,-200.0
23.56,-186.0
23.62,-168.0
23.69,-175.0
23.75,-166.0
23.81,-187.0
23.88,-178.0
23.94,-162.0
24.0,-169.0
24.07,-172.0
24.13,-172.0
24.19,-167.0
24.25,-182.0
24.32,-173.0
24.38,-182.0
24.44,-183.0
24.51,-180.0
24.57,-187.0
24.63,-183.0
24.7,-190.0
24.76,-197.0
24.82,-189.0
24.88,-197.0
24.95,-197.0
25.01,-163.0
25.07,-165.0
25.14,-184.0
25.2,-176.0
25.26,-163.0
25.33,-169.0
25.39,-176.0
25.45,-163.0
25.51,-170.0
25.58,-162.0
25.64,-161.0
25.7,-166.0
25.77,-170.0
25.83,-159.0
25.89,-148.0
25.96,-147.0
26.02,-143.0
26.08,-153.0
26.14,-157.0
26.21,-139.0
26.27,-148.0
26.33,-159.0
26.4,-146.0
26.46,-144.0
26.52,-149.0
26.59,-144.0
26.65,-145.0
26.71,-167.0
26.77,-141.0
26.84,-138.0
26.9,-141.0
26.96,-131.0
27.03,-140.0
27.09,-148.0
27.15,-154.0
27.22,-143.0
27.28,-146.0
27.34,-143.0
27.4,-134.0
27.47,-153.0
27.53,-155.0
27.59,-134.0
27.66,-123.0
27.72,-136.0
27.78,-129.0
27.85,-130.0
27.91,-126.0
27.97,-138.0
28.03,-128.0
28.1,-117.0
28.16,-124.0
28.22,-114.0
28.29,-131.0
28.35,-123.0
28.41,-124.0
28.48,-119.0
28.54,-121.0
28.6,-133.0
28.66,-142.0
28.73,-141.0
28.79,-140.0
28.85,-153.0
28.92,-144.0
28.98,-141.0
29.04,-161.0
29.11,-163.0
29.17,-161.0
29.23,-147.0
29.29,-147.0
29.36,-174.0
29.42,-159.0
29.48,-138.0
29.55,-134.0
29.61,-129.0
29.67,-132.0
29.74,-120.0
29.8,-116.0
29.86,-131.0
29.92,-124.0
29.99,-137.0
30.05,-161.0
30.11,-160.0
30.18,-162.0
30.24,-156.0
30.3,-162.0
30.37,-173.0
30.43,-157.0
30.49,-163.0
30.55,-164.0
30.62,-165.0
30.68,-163.0
30.74,-189.0
30.81,-166.0
30.87,-185.0
30.93,-195.0
31.0,-185.0
31.06,-196.0
31.12,-196.0
31.18,-205.0
31.25,-216.0
31.31,-209.0
31.37,-193.0
31.44,-199.0
31.5,-202.0
31.56,-209.0
31.63,-209.0
31.69,-224.0
31.75,-206.0
31.81,-191.0
31.88,-210.0
31.94,-204.0
32.0,-202.0
32.07,-188.0
32.13,-179.0
32.19,-186.0
32.26,-186.0
32.32,-178.0
32.38,-191.0
32.44,-173.0
32.51,-172.0
32.57,-172.0
32.63,-168.0
32.7,-172.0
32.76,-154.0
32.82,-140.0
32.89,-144.0
32.95,-139.0
33.01,-140.0
33.07,-143.0
33.14,-158.0
33.2,-155.0
33.26,-148.0
33.33,-161.0
33.39,-151.0
33.45,-141.0
33.52,-137.0
33.58,-148.0
33.64,-142.0
33.7,-143.0
33.77,-147.0
33.83,-132.0
33.89,-132.0
33.96,-157.0
34.02,-134.0
34.08,-147.0
34.15,-149.0
34.21,-130.0
34.27,-133.0
34.33,-123.0
34.4,-123.0
34.46,-124.0
34.52,-134.0
34.59,-131.0
34.65,-123.0
34.71,-105.0
34.78,-110.0
34.84,-110.0
34.9,-113.0
34.96,-123.0
35.03,-98.0
35.09,-117.0
35.15,-123.0
35.22,-144.0
35.28,-123.0
35.34,-140.0
35.41,-143.0
35.47,-125.0
35.53,-127.0
35.59,-135.0
35.66,-148.0
35.72,-143.0
35.78,-128.0
35.85,-127.0
35.91,-126.0
35.97,-126.0
36.04,-157.0
36.1,-142.0
36.16,-128.0
36.22,-147.0
36.29,-146.0
36.35,-143.0
36.41,-142.0
36.48,-134.0
36.54,-147.0
36.6,-148.0
36.67,-138.0
36.73,-140.0
36.79,-111.0
36.85,-132.0
36.92,-134.0
36.98,-141.0
37.04,-132.0
37.11,-134.0
37.17,-121.0
37.23,-124.0
37.3,-119.0
37.36,-127.0
37.42,-145.0
37.48,-130.0
37.55,-149.0
37.61,-157.0
37.67,-147.0
37.74,-136.0
37.8,-145.0
37.86,-145.0
37.93,-153.0
37.99,-166.0
38.05,-161.0
38.12,-159.0
38.18,-155.0
38.24,-162.0
38.3,-151.0
38.37,-168.0
38.43,-165.0
38.49,-186.0
38.56,-167.0
38.62,-192.0
38.68,-197.0
38.75,-196.0
38.81,-193.0
38.87,-186.0
38.93,-188.0
39.0,-192.0
39.06,-180.0
39.12,-170.0
39.19,-186.0
39.25,-180.0
39.31,-174.0
39.38,-166.0
39.44,-167.0
39.5,-173.0
39.56,-161.0
39.63,-171.0
39.69,-174.0
39.75,-163.0
39.82,-175.0
39.88,-184.0
39.94,-186.0
40.01,-195.0
40.07,-191.0
40.13,-166.0
40.19,-167.0
40.26,-165.0
40.32,-173.0
40.38,-173.0
40.45,-172.0
40.51,-156.0
40.57,-164.0
40.64,-160.0
40.7,-162.0
40.76,-158.0
40.82,-156.0
40.89,-143.0
40.95,-128.0
41.01,-157.0
41.08,-168.0
41.14,-173.0
41.2,-162.0
41.27,-177.0
41.33,-166.0
41.39,-164.0
41.45,-165.0
41.52,-190.0
41.58,-197.0
41.64,-180.0
41.71,-195.0
41.77,-204.0
41.83,-190.0
41.9,-188.0
41.96,-183.0
42.02,-172.0
42.08,-161.0
42.15,-169.0
42.21,-182.0
42.27,-159.0
42.34,-151.0
42.4,-172.0
42.46,-141.0
42.53,-157.0
42.59,-167.0
42.65,-147.0
42.71,-167.0
42.78,-162.0
42.84,-159.0
42.9,-154.0
42.97,-154.0
43.03,-132.0
43.09,-113.0
43.16,-126.0
43.22,-131.0
43.28,-130.0
43.34,-120.0
43.41,-125.0
43.47,-106.0
43.53,-113.0
43.6,-112.0
43.66,-100.0
43.72,-106.0
43.79,-91.0
43.85,-79.0
43.91,-80.0
43.97,-94.0
44.04,-75.0
44.1,-80.0
44.16,-79.0
44.23,-79.0
44.29,-95.0
44.35,-71.0
44.42,-83.0
44.48,-74.0
44.54,-86.0
44.6,-74.0
44.67,-64.0
44.73,-57.0
44.79,-64.0
44.86,-78.0
44.92,-71.0
44.98,-61.0
45.05,-79.0
45.11,-81.0
45.17,-79.0
45.23,-88.0
45.3,-71.0
45.36,-55.0
45.42,-65.0
45.49,-68.0
45.55,-51.0
45.61,-76.0
45.68,-84.0
45.74,-69.0
45.8,-62.0
45.86,-72.0
45.93,-81.0
45.99,-78.0
46.05,-81.0
46.12,-105.0
46.18,-93.0
46.24,-81.0
46.31,-89.0
46.37,-89.0
46.43,-92.0
46.49,-82.0
46.56,-74.0
46.62,-64.0
46.68,-77.0
46.75,-54.0
46.81,-54.0
46.87,-40.0
46.94,-54.0
47.0,-61.0
47.06,-49.0
47.12,-51.0
47.19,-48.0
47.25,-59.0
47.31,-51.0
47.38,-58.0
47.44,-78.0
47.5,-64.0
47.57,-48.0
47.63,-70.0
47.69,-65.0
47.75,-64.0
47.82,-59.0
47.88,-67.0
47.94,-77.0
48.01,-64.0
48.07,-50.0
48.13,-41.0
48.2,-29.0
48.26,-37.0
48.32,-34.0
48.38,-21.0
48.45,-16.0
48.51,-24.0
48.57,-26.0
48.64,-19.0
48.7,-9.0
48.76,-22.0
48.83,-33.0
48.89,-22.0
48.95,-24.0
49.01,-16.0
49.08,-8.0
49.14,-17.0
49.2,-5.0
49.27,-10.0
49.33,2.0
49.39,-1.0
49.46,8.0
49.52,25.0
49.58,13.0
49.64,28.0
49.71,47.0
49.77,22.0
49.83,28.0
49.9,31.0
49.96,19.0
50.02,35.0
50.09,26.0
50.15,35.0
50.21,28.0
50.27,17.0
50.34,9.0
50.4,9.0
50.46,17.0
50.53,17.0
50.59,38.0
50.65,52.0
50.72,58.0
50.78,69.0
50.84,68.0
50.9,62.0
50.97,64.0
51.03,76.0
51.09,62.0
51.16,57.0
51.22,33.0
51.28,55.0
51.35,63.0
51.41,61.0
51.47,64.0
51.53,75.0
51.6,75.0
51.66,83.0
51.72,91.0
51.79,80.0
51.85,84.0
51.91,61.0
51.98,73.0
52.04,66.0
52.1,66.0
52.16,49.0
52.23,50.0
52.29,74.0
52.35,67.0
52.42,41.0
52.48,30.0
52.54,35.0
52.61,50.0
52.67,39.0
52.73,21.0
52.79,19.0
52.86,19.0
52.92,9.0
52.98,0.0
53.05,-5.0
53.11,29.0
53.17,28.0
53.24,15.0
53.3,22.0
53.36,25.0
53.42,-7.0
53.49,4.0
53.55,-6.0
53.61,-4.0
53.68,-22.0
53.74,-15.0
53.8,-4.0
53.87,6.0
53.93,-15.0
53.99,4.0
54.05,10.0
54.12,1.0
54.18,6.0
54.24,-10.0
54.31,-3.0
54.37,0.0
54.43,-2.0
54.5,-6.0
54.56,-16.0
54.62,-8.0
54.68,-18.0
54.75,-15.0
54.81,-29.0
54.87,-10.0
54.94,2.0
55.0,2.0
55.06,-5.0
55.13,-13.0
55.19,11.0
55.25,-5.0
55.31,-13.0
55.38,-17.0
55.44,-8.0
55.5,-8.0
55.57,-16.0
55.63,-11.0
55.69,-18.0
55.76,-47.0
55.82,-33.0
55.88,-22.0
55.94,-32.0
56.01,-50.0
56.07,-40.0
56.13,-51.0
56.2,-43.0
56.26,-39.0
56.32,-61.0
56.39,-69.0
56.45,-41.0
56.51,-21.0
56.57,-45.0
56.64,-57.0
56.7,-45.0
56.76,-56.0
56.83,-68.0
56.89,-73.0
56.95,-67.0
57.02,-88.0
57.08,-85.0
57.14,-82.0
57.2,-104.0
57.27,-104.0
57.33,-110.0
57.39,-98.0
57.46,-111.0
57.52,-112.0
57.58,-117.0
57.65,-98.0
57.71,-84.0
57.77,-99.0
57.83,-92.0
57.9,-125.0
57.96,-137.0
58.02,-111.0
58.09,-99.0
58.15,-98.0
58.21,-104.0
58.28,-113.0
58.34,-93.0
58.4,-70.0
58.46,-89.0
58.53,-73.0
58.59,-96.0
58.65,-83.0
58.72,-96.0
58.78,-106.0
58.84,-80.0
58.91,-97.0
58.97,-85.0
59.03,-75.0
59.09,-76.0
59.16,-96.0
59.22,-97.0
59.28,-86.0
59.35,-79.0
59.41,-84.0
59.47,-76.0
59.54,-76.0
59.6,-78.0
59.66,-75.0
59.72,-86.0
59.79,-71.0
59.85,-68.0
59.91,-62.0
59.98,-67.0
60.04,-65.0
60.1,-48.0
60.17,-34.0
60.23,-46.0
60.29,-59.0
60.35,-71.0
60.42,-76.0
60.48,-56.0
60.54,-53.0
60.61,-50.0
60.67,-45.0
60.73,-47.0
60.8,-35.0
60.86,-58.0
60.92,-34.0
60.98,-35.0
61.05,-28.0
61.11,-33.0
61.17,-50.0
61.24,-49.0
61.3,-26.0
61.36,-21.0
61.43,-39.0
61.49,-44.0
61.55,-37.0
61.61,-31.0
61.68,-35.0
61.74,-21.0
61.8,-19.0
61.87,-35.0
61.93,-17.0
61.99,-26.0
62.06,-18.0
62.12,-20.0
62.18,-25.0
62.24,-21.0
62.31,-8.0
62.37,-13.0
62.43,16.0
62.5,-8.0
62.56,-25.0
62.62,-28.0
62.69,-40.0
62.75,-59.0
62.81,-29.0
62.87,-28.0
62.94,-32.0
63.0,-50.0
63.06,-59.0
63.13,-69.0
63.19,-61.0
63.25,-67.0
63.32,-59.0
63.38,-60.0
63.44,-93.0
63.5,-91.0
63.57,-81.0
63.63,-101.0
63.69,-98.0
63.76,-86.0
63.82,-81.0
63.88,-79.0
63.95,-91.0
64.01,-93.0
64.07,-66.0
64.13,-86.0
64.2,-70.0
64.26,-58.0
64.32,-73.0
64.39,-44.0
64.45,-59.0
64.51,-75.0
64.58,-90.0
64.64,-71.0
64.7,-92.0
64.76,-63.0
64.83,-71.0
64.89,-72.0
64.95,-67.0
65.02,-60.0
65.08,-64.0
65.14,-56.0
65.21,-51.0
65.27,-59.0
65.33,-58.0
65.39,-55.0
65.46,-58.0
65.52,-67.0
65.58,-54.0
65.65,-37.0
65.71,-52.0
65.77,-37.0
65.84,-45.0
65.9,-35.0
65.96,-57.0
66.02,-36.0
66.09,-47.0
66.15,-72.0
66.21,-36.0
66.28,-19.0
66.34,-28.0
66.4,-31.0
66.47,-7.0
66.53,-24.0
66.59,-34.0
66.65,-35.0
66.72,-49.0
66.78,-45.0
66.84,-48.0
66.91,-46.0
66.97,-28.0
67.03,-20.0
67.1,-29.0
67.16,-33.0
67.22,-16.0
67.28,-15.0
67.35,-25.0
67.41,-28.0
67.47,-41.0
67.54,-13.0
67.6,-18.0
67.66,-1.0
67.73,-11.0
67.79,-20.0
67.85,-6.0
67.91,3.0
67.98,3.0
68.04,-9.0
68.1,-11.0
68.17,17.0
68.23,19.0
68.29,5.0
68.36,17.0
68.42,22.0
68.48,22.0
68.54,9.0
68.61,7.0
68.67,16.0
68.73,24.0
68.8,1.0
68.86,23.0
68.92,31.0
68.99,30.0
69.05,26.0
69.11,33.0
69.17,27.0
69.24,49.0
69.3,26.0
69.36,42.0
69.43,33.0
69.49,17.0
69.55,35.0
69.62,15.0
69.68,37.0
69.74,9.0
69.8,19.0
69.87,21.0
69.93,16.0
69.99,25.0
70.06,25.0
70.12,19.0
70.18,29.0
70.25,13.0
70.31,12.0
70.37,19.0
70.43,11.0
70.5,27.0
70.56,36.0
70.62,27.0
70.69,18.0
70.75,25.0
70.81,19.0
70.88,23.0
70.94,27.0
71.0,12.0
71.06,16.0
71.13,21.0
71.19,9.0
71.25,19.0
71.32,17.0
71.38,14.0
71.44,3.0
71.51,-1.0
71.57,16.0
71.63,10.0
71.69,-14.0
71.76,-21.0
71.82,4.0
71.88,-7.0
71.95,-9.0
72.01,5.0
72.07,9.0
72.14,9.0
72.2,16.0
72.26,5.0
72.32,15.0
72.39,13.0
72.45,-16.0
72.51,-15.0
72.58,-21.0
72.64,-11.0
72.7,-12.0
72.77,-29.0
72.83,-24.0
72.89,-26.0
72.95,-35.0
73.02,-29.0
73.08,-23.0
73.14,-15.0
73.21,-22.0
73.27,-31.0
73.33,-21.0
73.4,-19.0
73.46,-39.0
73.52,-38.0
73.58,-32.0
73.65,-42.0
73.71,-47.0
73.77,-42.0
73.84,-29.0
73.9,-18.0
73.96,-61.0
74.03,-48.0
74.09,-55.0
74.15,-62.0
74.21,-63.0
74.28,-70.0
74.34,-46.0
74.4,-46.0
74.47,-42.0
74.53,-51.0
74.59,-55.0
74.66,-21.0
74.72,-32.0
74.78,-33.0
74.84,-34.0
74.91,-36.0
74.97,-25.0
75.03,-36.0
75.1,-34.0
75.16,-4.0
75.22,-24.0
75.29,-26.0
75.35,-34.0
75.41,-23.0
75.47,-34.0
75.54,-37.0
75.6,-24.0
75.66,-26.0
75.73,-36.0
75.79,-58.0
75.85,-46.0
75.92,-43.0
75.98,-44.0
76.04,-25.0
76.1,-25.0
76.17,-26.0
76.23,-17.0
76.29,-14.0
76.36,-3.0
76.42,-5.0
76.48,-9.0
76.55,12.0
76.61,1.0
76.67,-3.0
76.73,9.0
76.8,-3.0
76.86,22.0
76.92,5.0
76.99,0.0
77.05,-15.0
77.11,-7.0
77.18,-4.0
77.24,6.0
77.3,10.0
77.36,9.0
77.43,12.0
77.49,28.0
77.55,29.0
77.62,13.0
77.68,19.0
77.74,11.0
77.81,25.0
77.87,22.0
77.93,26.0
77.99,28.0
78.06,7.0
78.12,0.0
78.18,33.0
78.25,21.0
78.31,1.0
78.37,17.0
78.44,24.0
78.5,9.0
78.56,22.0
78.62,9.0
78.69,4.0
78.75,1.0
78.81,-8.0
78.88,2.0
78.94,-6.0
79.0,0.0
79.07,-12.0
79.13,-6.0
79.19,3.0
79.25,-12.0
79.32,-15.0
79.38,-21.0
79.44,-9.0
79.51,-13.0
79.57,-27.0
79.63,-14.0
79.7,-11.0
79.76,-14.0
79.82,-29.0
79.88,-40.0
79.95,-21.0
80.01,-20.0
80.07,-35.0
80.14,-43.0
80.2,-20.0
80.26,-42.0
80.33,-54.0
80.39,-45.0
80.45,-42.0
80.51,-28.0
80.58,-37.0
80.64,-26.0
80.7,-18.0
80.77,-45.0
80.83,-27.0
80.89,-30.0
80.96,-34.0
81.02,-36.0
81.08,-37.0
81.14,-31.0
81.21,-38.0
81.27,-45.0
81.33,-44.0
81.4,-57.0
81.46,-53.0
81.52,-56.0
81.59,-73.0
81.65,-80.0
81.71,-68.0
81.77,-70.0
81.84,-64.0
81.9,-65.0
81.96,-85.0
82.03,-80.0
82.09,-89.0
82.15,-87.0
82.22,-87.0
82.28,-89.0
82.34,-91.0
82.4,-86.0
82.47,-69.0
82.53,-75.0
82.59,-82.0
82.66,-76.0
82.72,-81.0
82.78,-84.0
82.85,-79.0
82.91,-91.0
82.97,-98.0
83.03,-96.0
83.1,-82.0
83.16,-91.0
83.22,-82.0
83.29,-92.0
83.35,-76.0
83.41,-59.0
83.48,-61.0
83.54,-46.0
83.6,-60.0
83.66,-65.0
83.73,-67.0
83.79,-36.0
83.85,-52.0
83.92,-46.0
83.98,-59.0
84.04,-61.0
84.11,-40.0
84.17,-51.0
84.23,-43.0
84.29,-28.0
84.36,-35.0
84.42,-31.0
84.48,-28.0
84.55,-23.0
84.61,-16.0
84.67,8.0
84.74,-20.0
84.8,-55.0
84.86,-26.0
84.92,-29.0
84.99,-27.0
85.05,-28.0
85.11,-11.0
85.18,-6.0
85.24,-11.0
85.3,-19.0
85.37,-11.0
85.43,-7.0
85.49,-14.0
85.55,-8.0
85.62,-19.0
85.68,-11.0
85.74,-20.0
85.81,-33.0
85.87,-5.0
85.93,5.0
86.0,-4.0
86.06,17.0
86.12,22.0
86.18,6.0
86.25,-7.0
86.31,5.0
86.37,15.0
86.44,16.0
86.5,22.0
86.56,11.0
86.63,0.0
86.69,21.0
86.75,6.0
86.81,9.0
86.88,18.0
86.94,11.0
87.0,5.0
87.07,6.0
87.13,9.0
87.19,11.0
87.26,20.0
87.32,4.0
87.38,2.0
87.44,14.0
87.51,25.0
87.57,31.0
87.63,23.0
87.7,8.0
87.76,32.0
87.82,14.0
87.89,8.0
87.95,3.0
88.01,-8.0
88.07,9.0
88.14,-8.0
88.2,0.0
88.26,6.0
88.33,-11.0
88.39,-8.0
88.45,-3.0
88.52,-24.0
88.58,-17.0
88.64,-26.0
88.7,-30.0
88.77,-18.0
88.83,-25.0
88.89,-27.0
88.96,-5.0
89.02,14.0
89.08,3.0
89.15,-5.0
89.21,-3.0
89.27,7.0
89.33,13.0
89.4,28.0
89.46,28.0
89.52,21.0
89.59,23.0
89.65,6.0
89.71,5.0
89.78,-7.0
89.84,-21.0
89.9,-21.0
89.96,-2.0
90.03,2.0
90.09,8.0
90.15,-5.0
90.22,11.0
90.28,2.0
90.34,-11.0
90.41,-8.0
90.47,0.0
90.53,-5.0
90.59,2.0
90.66,-3.0
90.72,-3.0
90.78,-16.0
90.85,-33.0
90.91,-35.0
90.97,-12.0
91.04,-35.0
91.1,-22.0
91.16,-16.0
91.22,-33.0
91.29,-38.0
91.35,-15.0
91.41,-21.0
91.48,-12.0
91.54,-28.0
91.6,-30.0
91.67,-28.0
91.73,-20.0
91.79,-15.0
91.85,-9.0
91.92,-17.0
91.98,-28.0
92.04,-19.0
92.11,-24.0
92.17,-14.0
92.23,-7.0
92.3,14.0
92.36,8.0
92.42,11.0
92.48,-2.0
92.55,4.0
92.61,-5.0
92.67,-16.0
92.74,-17.0
92.8,-8.0
92.86,3.0
92.93,4.0
92.99,10.0
93.05,18.0
93.11,-2.0
93.18,5.0
93.24,23.0
93.3,35.0
93.37,25.0
93.43,20.0
93.49,38.0
93.56,15.0
93.62,35.0
93.68,24.0
93.74,45.0
93.81,48.0
93.87,27.0
93.93,43.0
94.0,35.0
94.06,75.0
94.12,61.0
94.19,57.0
94.25,80.0
94.31,63.0
94.37,85.0
94.44,97.0
94.5,101.0
94.56,69.0
94.63,101.0
94.69,105.0
94.75,104.0
94.82,113.0
94.88,102.0
94.94,114.0
95.0,107.0
95.07,119.0
95.13,126.0
95.19,139.0
95.26,121.0
95.32,120.0
95.38,114.0
95.45,112.0
95.51,113.0
95.57,118.0
95.63,120.0
95.7,113.0
95.76,97.0
95.82,93.0
95.89,94.0
95.95,95.0
96.01,83.0
96.08,96.0
96.14,97.0
96.2,103.0
96.26,91.0
96.33,94.0
96.39,102.0
96.45,101.0
96.52,101.0
96.58,90.0
96.64,91.0
96.71,83.0
96.77,74.0
96.83,71.0
96.89,79.0
96.96,86.0
97.02,66.0
97.08,60.0
97.15,50.0
97.21,72.0
97.27,74.0
97.34,66.0
97.4,72.0
97.46,54.0
97.52,63.0
97.59,86.0
97.65,69.0
97.71,87.0
97.78,79.0
97.84,78.0
97.9,80.0
97.97,76.0
98.03,81.0
98.09,61.0
98.15,86.0
98.22,79.0
98.28,90.0
98.34,75.0
98.41,71.0
98.47,54.0
98.53,61.0
98.6,56.0
98.66,53.0
98.72,71.0
98.78,63.0
98.85,55.0
98.91,65.0
98.97,60.0
99.04,60.0
99.1,75.0
99.16,83.0
99.23,41.0
99.29,63.0
99.35,54.0
99.41,82.0
99.48,85.0
99.54,88.0
99.6,82.0
99.67,66.0
99.73,72.0
99.79,65.0
99.86,56.0
99.92,63.0
99.98,59.0
100.04,48.0
100.11,50.0
100.17,61.0
100.23,60.0
100.3,63.0
100.36,68.0
100.42,63.0
100.49,88.0
100.55,87.0
100.61,89.0
100.67,84.0
100.74,77.0
100.8,71.0
100.86,84.0
100.93,101.0
100.99,126.0
101.05,118.0
101.12,111.0
101.18,97.0
101.24,101.0
101.3,96.0
101.37,113.0
101.43,113.0
101.49,74.0
101.56,84.0
101.62,74.0
101.68,55.0
101.75,57.0
101.81,64.0
101.87,71.0
101.93,74.0
102.0,95.0
102.06,85.0
102.12,101.0
102.19,97.0
102.25,105.0
102.31,104.0
102.38,94.0
102.44,98.0
102.5,97.0
102.56,100.0
102.63,90.0
102.69,85.0
102.75,110.0
102.82,92.0
102.88,93.0
102.94,89.0
103.01,83.0
103.07,83.0
103.13,75.0
103.19,91.0
103.26,112.0
103.32,102.0
103.38,108.0
103.45,101.0
103.51,110.0
103.57,127.0
103.64,132.0
103.7,117.0
103.76,105.0
103.82,99.0
103.89,102.0
103.95,95.0
104.01,93.0
104.08,92.0
104.14,104.0
104.2,113.0
104.27,95.0
104.33,94.0
104.39,110.0
104.45,91.0
104.52,114.0
104.58,121.0
104.64,108.0
104.71,104.0
104.77,98.0
104.83,96.0
104.9,84.0
104.96,105.0
105.02,97.0
105.08,105.0
105.15,100.0
105.21,109.0
105.27,96.0
105.34,88.0
105.4,109.0
105.46,98.0
105.53,105.0
105.59,104.0
105.65,83.0
105.71,80.0
105.78,74.0
105.84,55.0
105.9,47.0
105.97,25.0
106.03,39.0
106.09,47.0
106.16,49.0
106.22,67.0
106.28,63.0
106.34,33.0
106.41,36.0
106.47,22.0
106.53,22.0
106.6,12.0
106.66,24.0
106.72,53.0
106.79,55.0
106.85,54.0
106.91,58.0
106.97,64.0
107.04,47.0
107.1,43.0
107.16,41.0
107.23,41.0
107.29,25.0
107.35,24.0
107.42,46.0
107.48,24.0
107.54,19.0
107.6,16.0
107.67,37.0
107.73,13.0
107.79,23.0
107.86,14.0
107.92,-1.0
107.98,5.0
108.05,-13.0
108.11,4.0
108.17,-14.0
108.23,-19.0
108.3,-16.0
108.36,-18.0
108.42,-18.0
108.49,-17.0
108.55,-29.0
108.61,-31.0
108.68,-14.0
108.74,-39.0
108.8,-24.0
108.86,-18.0
108.93,-43.0
108.99,-32.0
109.05,-60.0
109.12,-46.0
109.18,-39.0
109.24,-35.0
109.31,-33.0
109.37,-19.0
109.43,-18.0
109.49,-38.0
109.56,-10.0
109.62,-4.0
109.68,5.0
109.75,0.0
109.81,-3.0
109.87,10.0
109.94,23.0
110.0,21.0
110.06,17.0
110.12,20.0
110.19,22.0
110.25,28.0
110.31,21.0
110.38,24.0
110.44,31.0
110.5,45.0
110.57,34.0
110.63,41.0
110.69,43.0
110.75,61.0
110.82,47.0
110.88,57.0
110.94,45.0
111.01,46.0
111.07,78.0
111.13,52.0
111.2,32.0
111.26,34.0
111.32,65.0
111.38,69.0
111.45,57.0
111.51,80.0
111.57,61.0
111.64,80.0
111.7,72.0
111.76,76.0
111.83,81.0
111.89,78.0
111.95,82.0
112.01,91.0
112.08,106.0
112.14,105.0
112.2,103.0
112.27,103.0
112.33,107.0
112.39,108.0
112.46,107.0
112.52,99.0
112.58,105.0
112.64,84.0
112.71,94.0
112.77,108.0
112.83,91.0
112.9,68.0
112.96,87.0
113.02,84.0
113.09,89.0
113.15,83.0
113.21,80.0
113.27,83.0
113.34,86.0
113.4,86.0
113.46,92.0
113.53,84.0
113.59,68.0
113.65,70.0
113.72,63.0
113.78,53.0
113.84,60.0
113.9,61.0
113.97,48.0
114.03,65.0
114.09,72.0
114.16,82.0
114.22,79.0
114.28,68.0
114.35,83.0
114.41,73.0
114.47,84.0
114.53,56.0
114.6,66.0
114.66,69.0
114.72,65.0
114.79,72.0
114.85,53.0
114.91,59.0
114.98,56.0
115.04,66.0
115.1,66.0
115.16,46.0
115.23,63.0
115.29,41.0
115.35,48.0
115.42,56.0
115.48,46.0
115.54,52.0
115.61,59.0
115.67,55.0
115.73,50.0
115.79,41.0
115.86,34.0
115.92,56.0
115.98,69.0
116.05,57.0
116.11,37.0
116.17,33.0
116.24,38.0
116.3,31.0
116.36,26.0
116.42,33.0
116.49,39.0
116.55,29.0
116.61,25.0
116.68,24.0
116.74,30.0
116.8,54.0
116.87,42.0
116.93,47.0
116.99,72.0
117.05,66.0
117.12,65.0
117.18,62.0
117.24,70.0
117.31,64.0
117.37,66.0
117.43,74.0
117.5,80.0
117.56,93.0
117.62,78.0
117.68,87.0
117.75,65.0
117.81,91.0
117.87,99.0
117.94,97.0
118.0,88.0
118.06,80.0
118.13,86.0
118.19,82.0
118.25,83.0
118.31,55.0
118.38,65.0
118.44,86.0
118.5,83.0
118.57,96.0
118.63,103.0
118.69,83.0
118.76,78.0
118.82,85.0
118.88,99.0
118.94,96.0
119.01,91.0
119.07,83.0
119.13,90.0
119.2,95.0
119.26,77.0
119.32,100.0
119.39,120.0
119.45,95.0
119.51,95.0
119.57,90.0
119.64,90.0
119.7,91.0
119.76,102.0
119.83,98.0
119.89,120.0
119.95,105.0
120.02,105.0
120.08,108.0
120.14,112.0
120.2,104.0
120.27,80.0
120.33,86.0
120.39,102.0
120.46,96.0
120.52,110.0
120.58,99.0
120.65,93.0
120.71,99.0
120.77,102.0
120.83,123.0
120.9,126.0
120.96,119.0
121.02,126.0
121.09,123.0
121.15,102.0
121.21,111.0
121.28,127.0
121.34,111.0
121.4,127.0
121.46,134.0
121.53,124.0
121.59,101.0
121.65,108.0
121.72,120.0
121.78,109.0
121.84,108.0
121.91,104.0
121.97,90.0
122.03,95.0
122.09,100.0
122.16,103.0
122.22,97.0
122.28,79.0
122.35,88.0
122.41,89.0
122.47,88.0
122.54,86.0
122.6,77.0
122.66,74.0
122.72,75.0
122.79,65.0
122.85,56.0
122.91,53.0
122.98,56.0
123.04,33.0
123.1,43.0
123.17,43.0
123.23,32.0
123.29,35.0
123.35,51.0
123.42,44.0
123.48,34.0
123.54,24.0
123.61,11.0
123.67,32.0
123.73,15.0
123.8,24.0
123.86,28.0
123.92,10.0
123.98,4.0
124.05,11.0
124.11,-8.0
124.17,-13.0
124.24,4.0
124.3,3.0
124.36,16.0
124.43,-2.0
124.49,7.0
124.55,-9.0
124.61,-12.0
124.68,-37.0
124.74,-24.0
124.8,-17.0
124.87,-51.0
124.93,-50.0
124.99,-46.0
125.06,-29.0
125.12,-29.0
125.18,-45.0
125.24,-30.0
125.31,-25.0
125.37,-47.0
125.43,-20.0
125.5,-28.0
125.56,-42.0
125.62,-34.0
125.69,-29.0
125.75,-18.0
125.81,-32.0
125.87,-8.0
125.94,-11.0
126.0,-40.0
126.06,-39.0
126.13,-26.0
126.19,-33.0
126.25,-43.0
126.32,-41.0
126.38,-30.0
126.44,-12.0
126.5,-9.0
126.57,0.0
126.63,-9.0
126.69,-17.0
126.76,-17.0
126.82,-6.0
126.88,-15.0
126.95,-16.0
127.01,-20.0
127.07,-11.0
127.13,-9.0
127.2,1.0
127.26,11.0
127.32,-1.0
127.39,7.0
127.45,4.0
127.51,11.0
127.58,1.0
127.64,9.0
127.7,-12.0
127.76,22.0
127.83,17.0
127.89,23.0
127.95,3.0
128.02,9.0
128.08,4.0
128.14,19.0
128.21,19.0
128.27,14.0
128.33,23.0
128.39,21.0
128.46,22.0
128.52,23.0
128.58,37.0
128.65,32.0
128.71,19.0
128.77,24.0
128.84,25.0
128.9,23.0
128.96,37.0
129.02,32.0
129.09,62.0
129.15,53.0
129.21,47.0
129.28,39.0
129.34,37.0
129.4,23.0
129.47,34.0
129.53,24.0
129.59,29.0
129.65,38.0
129.72,51.0
129.78,57.0
129.84,60.0
129.91,51.0
129.97,32.0
130.03,42.0
130.1,37.0
130.16,19.0
130.22,35.0
130.28,30.0
130.35,26.0
130.41,21.0
130.47,4.0
130.54,15.0
130.6,24.0
130.66,13.0
130.73,11.0
130.79,14.0
130.85,9.0
130.91,23.0
130.98,30.0
131.04,24.0
131.1,24.0
131.17,16.0
131.23,36.0
131.29,37.0
131.36,48.0
131.42,37.0
131.48,30.0
131.54,17.0
131.61,14.0
131.67,23.0
131.73,33.0
131.8,5.0
131.86,-2.0
131.92,9.0
131.99,5.0
132.05,21.0
132.11,15.0
132.17,6.0
132.24,17.0
132.3,31.0
132.36,23.0
132.43,19.0
132.49,37.0
132.55,36.0
132.62,23.0
132.68,15.0
132.74,33.0
132.8,13.0
132.87,7.0
132.93,-4.0
132.99,4.0
133.06,14.0
133.12,4.0
133.18,5.0
133.25,7.0
133.31,2.0
133.37,8.0
133.43,11.0
133.5,14.0
133.56,15.0
133.62,14.0
133.69,29.0
133.75,0.0
133.81,15.0
133.88,26.0
133.94,26.0
134.0,18.0
134.06,28.0
134.13,41.0
134.19,40.0
134.25,35.0
134.32,54.0
134.38,45.0
134.44,28.0
134.51,36.0
134.57,22.0
134.63,15.0
134.69,22.0
134.76,24.0
134.82,25.0
134.88,29.0
134.95,19.0
135.01,28.0
135.07,25.0
135.14,27.0
135.2,40.0
135.26,18.0
135.32,15.0
135.39,43.0
135.45,38.0
135.51,30.0
135.58,36.0
135.64,55.0
135.7,60.0
135.77,40.0
135.83,40.0
135.89,55.0
135.95,74.0
136.02,85.0
136.08,82.0
136.14,72.0
136.21,81.0
136.27,70.0
136.33,62.0
136.4,62.0
136.46,70.0
136.52,77.0
136.58,82.0
136.65,93.0
136.71,83.0
136.77,65.0
136.84,66.0
136.9,75.0
136.96,77.0
137.03,60.0
137.09,47.0
137.15,56.0
137.21,56.0
137.28,51.0
137.34,55.0
137.4,49.0
137.47,44.0
137.53,34.0
137.59,45.0
137.66,48.0
137.72,47.0
137.78,19.0
137.84,39.0
137.91,51.0
137.97,37.0
138.03,49.0
138.1,63.0
138.16,56.0
138.22,52.0
138.29,60.0
138.35,58.0
138.41,52.0
138.47,30.0
138.54,24.0
138.6,31.0
138.66,42.0
138.73,41.0
138.79,48.0
138.85,44.0
138.92,50.0
138.98,44.0
139.04,43.0
139.1,26.0
139.17,47.0
139.23,46.0
139.29,36.0
139.36,22.0
139.42,27.0
139.48,51.0
139.55,49.0
139.61,44.0
139.67,33.0
139.73,25.0
139.8,48.0
139.86,33.0
139.92,29.0
139.99,43.0
140.05,23.0
140.11,39.0
140.18,45.0
140.24,17.0
140.3,27.0
140.36,32.0
140.43,22.0
140.49,30.0
140.55,14.0
140.62,12.0
140.68,15.0
140.74,-7.0
140.81,-7.0
140.87,10.0
140.93,-14.0
140.99,-5.0
141.06,22.0
141.12,24.0
141.18,10.0
141.25,6.0
141.31,10.0
141.37,9.0
141.44,-1.0
141.5,2.0
141.56,9.0
141.62,23.0
141.69,15.0
141.75,19.0
141.81,22.0
141.88,4.0
141.94,7.0
142.0,28.0
142.07,23.0
142.13,10.0
142.19,13.0
142.25,20.0
142.32,6.0
142.38,-1.0
142.44,5.0
142.51,11.0
142.57,17.0
142.63,20.0
142.7,14.0
142.76,6.0
142.82,3.0
142.88,7.0
142.95,22.0
143.01,13.0
143.07,20.0
143.14,9.0
143.2,13.0
143.26,26.0
143.33,23.0
143.39,21.0
143.45,33.0
143.51,31.0
143.58,5.0
143.64,15.0
143.7,28.0
143.77,19.0
143.83,40.0
143.89,47.0
143.96,61.0
144.02,51.0
144.08,55.0
144.14,66.0
144.21,69.0
144.27,71.0
144.33,68.0
144.4,71.0
144.46,69.0
144.52,60.0
144.59,68.0
144.65,73.0
144.71,66.0
144.77,90.0
144.84,86.0
144.9,87.0
144.96,75.0
145.03,75.0
145.09,88.0
145.15,90.0
145.22,103.0
145.28,96.0
145.34,87.0
145.4,93.0
145.47,97.0
145.53,83.0
145.59,84.0
145.66,80.0
145.72,73.0
145.78,103.0
145.85,101.0
145.91,97.0
145.97,104.0
146.03,91.0
146.1,75.0
146.16,75.0
146.22,85.0
146.29,93.0
146.35,74.0
146.41,69.0
146.47,70.0
146.54,74.0
146.6,77.0
146.66,70.0
146.73,67.0
146.79,69.0
146.85,83.0
146.92,85.0
146.98,77.0
147.04,73.0
147.1,67.0
147.17,53.0
147.23,59.0
147.29,61.0
147.36,74.0
147.42,70.0
147.48,76.0
147.55,80.0
147.61,76.0
147.67,66.0
147.73,55.0
147.8,77.0
147.86,64.0
147.92,79.0
147.99,84.0
148.05,64.0
148.11,66.0
148.18,72.0
148.24,61.0
148.3,85.0
148.36,75.0
148.43,97.0
148.49,80.0
148.55,84.0
148.62,69.0
148.68,58.0
148.74,69.0
148.81,78.0
148.87,79.0
148.93,76.0
148.99,77.0
149.06,94.0
149.12,88.0
149.18,92.0
149.25,84.0
149.31,74.0
149.37,99.0
149.44,100.0
149.5,84.0
149.56,72.0
149.62,67.0
149.69,95.0
149.75,81.0
149.81,64.0
149.88,69.0
149.94,81.0
150.0,92.0
150.07,100.0
150.13,82.0
150.19,88.0
150.25,80.0
150.32,92.0
150.38,72.0
150.44,69.0
150.51,95.0
150.57,102.0
150.63,101.0
150.7,75.0
150.76,64.0
150.82,87.0
150.88,89.0
150.95,86.0
151.01,91.0
151.07,95.0
151.14,89.0
151.2,80.0
151.26,111.0
151.33,69.0
151.39,72.0
151.45,83.0
151.51,92.0
151.58,78.0
151.64,79.0
151.7,73.0
151.77,72.0
151.83,76.0
151.89,99.0
151.96,118.0
152.02,116.0
152.08,117.0
152.14,113.0
152.21,91.0
152.27,98.0
152.33,108.0
152.4,96.0
152.46,86.0
152.52,97.0
152.59,106.0
152.65,107.0
152.71,132.0
152.77,121.0
152.84,117.0
152.9,101.0
152.96,113.0
153.03,116.0
153.09,127.0
153.15,119.0
153.22,120.0
153.28,113.0
153.34,106.0
153.4,125.0
153.47,131.0
153.53,106.0
153.59,114.0
153.66,110.0
153.72,87.0
153.78,98.0
153.85,120.0
153.91,106.0
153.97,83.0
154.03,93.0
154.1,111.0
154.16,103.0
154.22,122.0
154.29,117.0
154.35,111.0
154.41,94.0
154.48,124.0
154.54,112.0
154.6,136.0
154.66,138.0
154.73,119.0
154.79,113.0
154.85,95.0
154.92,112.0
154.98,130.0
155.04,110.0
155.11,110.0
155.17,113.0
155.23,110.0
155.29,110.0
155.36,102.0
155.42,86.0
155.48,107.0
155.55,86.0
155.61,100.0
155.67,109.0
155.74,87.0
155.8,111.0
155.86,103.0
155.92,117.0
155.99,124.0
156.05,126.0
156.11,126.0
156.18,117.0
156.24,128.0
156.3,114.0
156.37,128.0
156.43,137.0
156.49,115.0
156.55,118.0
156.62,111.0
156.68,86.0
156.74,110.0
156.81,90.0
156.87,116.0
156.93,119.0
157.0,99.0
157.06,110.0
157.12,106.0
157.18,106.0
157.25,99.0
157.31,80.0
157.37,88.0
157.44,92.0
157.5,107.0
157.56,97.0
157.63,74.0
157.69,84.0
157.75,80.0
157.81,95.0
157.88,77.0
157.94,69.0
158.0,64.0
158.07,50.0
158.13,53.0
158.19,44.0
158.26,59.0
158.32,52.0
158.38,67.0
158.44,55.0
158.51,65.0
158.57,83.0
158.63,66.0
158.7,56.0
158.76,59.0
158.82,73.0
158.89,89.0
158.95,85.0
159.01,66.0
159.07,61.0
159.14,45.0
159.2,80.0
159.26,84.0
159.33,53.0
159.39,58.0
159.45,68.0
159.52,77.0
159.58,72.0
159.64,64.0
159.7,84.0
159.77,73.0
159.83,70.0
159.89,80.0
159.96,78.0
160.02,96.0
160.08,84.0
160.15,79.0
160.21,99.0
160.27,100.0
160.33,89.0
160.4,112.0
160.46,91.0
160.52,79.0
160.59,85.0
160.65,66.0
160.71,73.0
160.78,85.0
160.84,81.0
160.9,62.0
160.96,72.0
161.03,72.0
161.09,89.0
161.15,79.0
161.22,85.0
161.28,93.0
161.34,100.0
161.41,83.0
161.47,102.0
161.53,120.0
161.59,124.0
161.66,133.0
161.72,116.0
161.78,120.0
161.85,118.0
161.91,113.0
161.97,121.0
162.04,129.0
162.1,124.0
162.16,103.0
162.22,112.0
162.29,84.0
162.35,86.0
162.41,106.0
162.48,122.0
162.54,102.0
162.6,97.0
162.67,120.0
162.73,111.0
162.79,114.0
162.85,96.0
162.92,106.0
162.98,104.0
163.04,121.0
163.11,126.0
163.17,116.0
163.23,109.0
163.3,100.0
163.36,116.0
163.42,99.0
163.48,80.0
163.55,71.0
163.61,106.0
163.67,70.0
163.74,67.0
163.8,83.0
163.86,102.0
163.93,88.0
163.99,83.0
164.05,86.0
164.11,89.0
164.18,91.0
164.24,76.0
164.3,91.0
164.37,77.0
164.43,80.0
164.49,89.0
164.56,79.0
164.62,88.0
164.68,81.0
164.74,97.0
164.81,102.0
164.87,84.0
164.93,104.0
165.0,84.0
165.06,83.0
165.12,86.0
165.19,81.0
165.25,66.0
165.31,65.0
165.37,81.0
165.44,56.0
165.5,53.0
165.56,58.0
165.63,50.0
165.69,26.0
165.75,53.0
165.82,52.0
165.88,44.0
165.94,47.0
166.0,57.0
166.07,48.0
166.13,33.0
166.19,33.0
166.26,47.0
166.32,32.0
166.38,43.0
166.45,64.0
166.51,53.0
166.57,18.0
166.63,36.0
166.7,61.0
166.76,73.0
166.82,71.0
166.89,76.0
166.95,78.0
167.01,74.0
167.08,74.0
167.14,78.0
167.2,93.0
167.26,67.0
167.33,52.0
167.39,71.0
167.45,53.0
167.52,57.0
167.58,69.0
167.64,78.0
167.71,76.0
167.77,91.0
167.83,88.0
167.89,98.0
167.96,88.0
168.02,95.0
168.08,106.0
168.15,69.0
168.21,106.0
168.27,99.0
168.34,87.0
168.4,89.0
168.46,84.0
168.52,84.0
168.59,74.0
168.65,73.0
168.71,94.0
168.78,109.0
168.84,109.0
168.9,94.0
168.97,113.0
169.03,130.0
169.09,139.0
169.15,117.0
169.22,132.0
169.28,122.0
169.34,122.0
169.41,137.0
169.47,139.0
169.53,133.0
169.6,128.0
169.66,108.0
169.72,109.0
169.78,124.0
169.85,135.0
169.91,138.0
169.97,149.0
170.04,154.0
170.1,150.0
170.16,146.0
170.23,144.0
170.29,147.0
170.35,153.0
170.41,145.0
170.48,146.0
170.54,128.0
170.6,133.0
170.67,127.0
170.73,120.0
170.79,130.0
170.86,138.0
170.92,132.0
170.98,135.0
171.04,102.0
171.11,116.0
171.17,119.0
171.23,131.0
171.3,117.0
171.36,104.0
171.42,122.0
171.49,119.0
171.55,117.0
171.61,94.0
171.67,102.0
171.74,106.0
171.8,98.0
171.86,109.0
171.93,113.0
171.99,95.0
172.05,74.0
172.12,86.0
172.18,84.0
172.24,88.0
172.3,86.0
172.37,72.0
172.43,77.0
172.49,81.0
172.56,56.0
172.62,69.0
172.68,59.0
172.75,58.0
172.81,72.0
172.87,64.0
172.93,53.0
173.0,69.0
173.06,66.0
173.12,67.0
173.19,40.0
173.25,51.0
173.31,62.0
173.38,66.0
173.44,50.0
173.5,62.0
173.56,76.0
173.63,55.0
173.69,66.0
173.75,69.0
173.82,58.0
173.88,75.0
173.94,62.0
174.01,62.0
174.07,59.0
174.13,57.0
174.19,37.0
174.26,38.0
174.32,69.0
174.38,34.0
174.45,18.0
174.51,15.0
174.57,44.0
174.64,28.0
174.7,13.0
174.76,25.0
174.82,22.0
174.89,29.0
174.95,29.0
175.01,18.0
175.08,6.0
175.14,12.0
175.2,2.0
175.27,-16.0
175.33,-9.0
175.39,8.0
175.45,4.0
175.52,-9.0
175.58,-4.0
175.64,6.0
175.71,-25.0
175.77,-18.0
175.83,-22.0
175.9,-18.0
175.96,-18.0
176.02,-19.0
176.08,-2.0
176.15,-16.0
176.21,-3.0
176.27,-10.0
176.34,-4.0
176.4,-11.0
176.46,-3.0
176.53,-21.0
176.59,-20.0
176.65,-14.0
176.71,-16.0
176.78,-3.0
176.84,-11.0
176.9,-3.0
176.97,-2.0
177.03,8.0
177.09,-20.0
177.16,-15.0
177.22,-7.0
177.28,-20.0
177.34,2.0
177.41,5.0
177.47,12.0
177.53,39.0
177.6,38.0
177.66,43.0
177.72,44.0
177.79,54.0
177.85,54.0
177.91,50.0
177.97,57.0
178.04,21.0
178.1,27.0
178.16,32.0
178.23,36.0
178.29,50.0
178.35,38.0
178.42,50.0
178.48,50.0
178.54,39.0
178.6,48.0
178.67,59.0
178.73,58.0
178.79,57.0
178.86,73.0
178.92,83.0
178.98,92.0
179.05,76.0
179.11,70.0
179.17,81.0
179.23,87.0
179.3,64.0
179.36,63.0
179.42,63.0
179.49,63.0
179.55,64.0
179.61,78.0
179.68,57.0
179.74,46.0
179.8,43.0
179.86,36.0
179.93,41.0
179.99,28.0
180.05,52.0
180.12,36.0
180.18,42.0
180.24,50.0
180.31,28.0
180.37,21.0
180.43,32.0
180.49,52.0
180.56,43.0
180.62,46.0
180.68,36.0
180.75,55.0
180.81,39.0
180.87,12.0
180.94,11.0
181.0,9.0
181.06,19.0
181.12,-4.0
181.19,19.0
181.25,30.0
181.31,26.0
181.38,6.0
181.44,5.0
181.5,-2.0
181.57,-5.0
181.63,8.0
181.69,15.0
181.75,17.0
181.82,0.0
181.88,-1.0
181.94,0.0
182.01,20.0
182.07,21.0
182.13,21.0
182.2,15.0
182.26,1.0
182.32,10.0
182.38,6.0
182.45,7.0
182.51,-5.0
182.57,-2.0
182.64,21.0
182.7,11.0
182.76,5.0
182.83,15.0
182.89,2.0
182.95,-11.0
183.01,-22.0
183.08,-13.0
183.14,2.0
183.2,1.0
183.27,-13.0
183.33,-4.0
183.39,2.0
183.46,29.0
183.52,12.0
183.58,5.0
183.64,28.0
183.71,16.0
183.77,1.0
183.83,6.0
183.9,17.0
183.96,19.0
184.02,12.0
184.09,19.0
184.15,25.0
184.21,40.0
184.27,38.0
184.34,44.0
184.4,26.0
184.46,47.0
184.53,32.0
184.59,44.0
184.65,69.0
184.72,65.0
184.78,52.0
184.84,52.0
184.9,58.0
184.97,36.0
185.03,49.0
185.09,48.0
185.16,55.0
185.22,61.0
185.28,74.0
185.35,78.0
185.41,63.0
185.47,52.0
185.53,68.0
185.6,50.0
185.66,39.0
185.72,50.0
185.79,36.0
185.85,39.0
185.91,40.0
185.98,52.0
186.04,40.0
186.1,35.0
186.16,37.0
186.23,45.0
186.29,54.0
186.35,55.0
186.42,66.0
186.48,70.0
186.54,57.0
186.61,63.0
186.67,69.0
186.73,67.0
186.79,66.0
186.86,60.0
186.92,46.0
186.98,69.0
187.05,71.0
187.11,75.0
187.17,61.0
187.24,76.0
187.3,71.0
187.36,74.0
187.42,90.0
187.49,107.0
187.55,109.0
187.61,98.0
187.68,80.0
187.74,94.0
187.8,94.0
187.87,101.0
187.93,112.0
187.99,112.0
188.05,131.0
188.12,140.0
188.18,111.0
188.24,130.0
188.31,123.0
188.37,112.0
188.43,108.0
188.5,109.0
188.56,112.0
188.62,115.0
188.68,107.0
188.75,128.0
188.81,140.0
188.87,134.0
188.94,118.0
189.0,112.0
189.06,114.0
189.13,122.0
189.19,133.0
189.25,151.0
189.31,130.0
189.38,134.0
189.44,112.0
189.5,125.0
189.57,124.0
189.63,127.0
189.69,130.0
189.76,110.0
189.82,128.0
189.88,100.0
189.94,129.0
190.01,131.0
190.07,116.0
190.13,101.0
190.2,105.0
190.26,114.0
190.32,99.0
190.39,112.0
190.45,116.0
190.51,105.0
190.57,96.0
190.64,119.0
190.7,113.0
190.76,102.0
190.83,121.0
190.89,105.0
190.95,91.0
191.02,80.0
191.08,70.0
191.14,65.0
191.2,65.0
191.27,66.0
191.33,73.0
191.39,62.0
191.46,64.0
191.52,50.0
191.58,65.0
191.65,59.0
191.71,49.0
191.77,54.0
191.83,42.0
191.9,54.0
191.96,46.0
192.02,47.0
192.09,61.0
192.15,64.0
192.21,56.0
192.28,68.0
192.34,46.0
192.4,45.0
192.46,43.0
192.53,56.0
192.59,32.0
192.65,21.0
192.72,35.0
192.78,32.0
192.84,29.0
192.91,21.0
192.97,19.0
193.03,35.0
193.09,31.0
193.16,57.0
193.22,45.0
193.28,27.0
193.35,30.0
193.41,31.0
193.47,11.0
193.54,24.0
193.6,43.0
193.66,49.0
193.72,49.0
193.79,36.0
193.85,51.0
193.91,57.0
193.98,57.0
194.04,55.0
194.1,57.0
194.17,56.0
194.23,49.0
194.29,54.0
194.35,43.0
194.42,53.0
194.48,64.0
194.54,46.0
194.61,41.0
194.67,52.0
194.73,54.0
194.8,50.0
194.86,58.0
194.92,58.0
194.98,77.0
195.05,83.0
195.11,77.0
195.17,94.0
195.24,90.0
195.3,82.0
195.36,87.0
195.43,82.0
195.49,72.0
195.55,81.0
195.61,83.0
195.68,79.0
195.74,79.0
195.8,76.0
195.87,62.0
195.93,65.0
195.99,54.0
196.06,50.0
196.12,54.0
196.18,45.0
196.24,32.0
196.31,41.0
196.37,46.0
196.43,45.0
196.5,44.0
196.56,43.0
196.62,62.0
196.69,54.0
196.75,49.0
196.81,47.0
196.87,50.0
196.94,31.0
197.0,51.0
197.06,49.0
197.13,46.0
197.19,50.0
197.25,50.0
197.32,46.0
197.38,57.0
197.44,44.0
197.5,39.0
197.57,67.0
197.63,44.0
197.69,61.0
197.76,61.0
197.82,46.0
197.88,57.0
197.95,55.0
198.01,61.0
198.07,59.0
198.13,53.0
198.2,45.0
198.26,53.0
198.32,55.0
198.39,61.0
198.45,57.0
198.51,44.0
198.58,68.0
198.64,56.0
198.7,39.0
198.76,43.0
198.83,35.0
198.89,58.0
198.95,37.0
199.02,37.0
199.08,29.0
199.14,39.0
199.21,38.0
199.27,32.0
199.33,50.0
199.39,46.0
199.46,52.0
199.52,44.0
199.58,50.0
199.65,35.0
199.71,46.0
199.77,32.0
199.84,30.0
199.9,42.0
199.96,44.0
200.02,41.0
200.09,53.0
200.15,40.0
200.21,24.0
200.28,25.0
200.34,47.0
200.4,54.0
200.47,47.0
200.53,28.0
200.59,50.0
200.65,42.0
200.72,41.0
200.78,39.0
200.84,48.0
200.91,53.0
200.97,31.0
201.03,38.0
201.1,25.0
201.16,27.0
201.22,29.0
201.28,34.0
201.35,8.0
201.41,13.0
201.47,-5.0
201.54,0.0
201.6,26.0
201.66,26.0
201.73,12.0
201.79,-12.0
201.85,5.0
201.91,11.0
201.98,11.0
202.04,23.0
202.1,28.0
202.17,28.0
202.23,16.0
202.29,21.0
202.36,40.0
202.42,36.0
202.48,38.0
202.54,35.0
202.61,34.0
202.67,23.0
202.73,20.0
202.8,5.0
202.86,11.0
202.92,7.0
202.99,11.0
203.05,15.0
203.11,24.0
203.17,27.0
203.24,21.0
203.3,22.0
203.36,17.0
203.43,44.0
203.49,37.0
203.55,34.0
203.62,26.0
203.68,52.0
203.74,63.0
203.8,52.0
203.87,52.0
203.93,67.0
203.99,67.0
204.06,73.0
204.12,70.0
204.18,59.0
204.25,76.0
204.31,86.0
204.37,75.0
204.43,67.0
204.5,86.0
204.56,98.0
204.62,86.0
204.69,75.0
204.75,89.0
204.81,77.0
204.88,72.0
204.94,71.0
205.0,66.0
205.06,77.0
205.13,62.0
205.19,63.0
205.25,70.0
205.32,70.0
205.38,89.0
205.44,91.0
205.51,74.0
205.57,78.0
205.63,56.0
205.69,71.0
205.76,74.0
205.82,55.0
205.88,69.0
205.95,71.0
206.01,82.0
206.07,85.0
206.14,83.0
206.2,91.0
206.26,98.0
206.32,92.0
206.39,94.0
206.45,111.0
206.51,92.0
206.58,76.0
206.64,65.0
206.7,72.0
206.77,68.0
206.83,58.0
206.89,71.0
206.95,86.0
207.02,67.0
207.08,83.0
207.14,82.0
207.21,76.0
207.27,61.0
207.33,88.0
207.4,97.0
207.46,82.0
207.52,91.0
207.58,71.0
207.65,85.0
207.71,80.0
207.77,74.0
207.84,85.0
207.9,64.0
207.96,69.0
208.03,70.0
208.09,78.0
208.15,82.0
208.21,83.0
208.28,78.0
208.34,53.0
208.4,63.0
208.47,78.0
208.53,66.0
208.59,71.0
208.66,64.0
208.72,62.0
208.78,70.0
208.84,76.0
208.91,65.0
208.97,64.0
209.03,52.0
209.1,56.0
209.16,39.0
209.22,56.0
209.29,67.0
209.35,71.0
209.41,62.0
209.47,83.0
209.54,66.0
209.6,81.0
209.66,69.0
209.73,59.0
209.79,74.0
209.85,89.0
209.92,83.0
209.98,64.0
210.04,75.0
210.1,50.0
210.17,67.0
210.23,79.0
210.29,75.0
210.36,78.0
210.42,76.0
210.48,79.0
210.55,84.0
210.61,91.0
210.67,83.0
210.73,73.0
210.8,98.0
210.86,99.0
210.92,77.0
210.99,105.0
211.05,115.0
211.11,97.0
211.18,134.0
211.24,127.0
211.3,116.0
211.36,129.0
211.43,114.0
211.49,124.0
211.55,118.0
211.62,99.0
211.68,111.0
211.74,107.0
211.81,114.0
211.87,111.0
211.93,116.0
211.99,103.0
212.06,123.0
212.12,142.0
212.18,133.0
212.25,145.0
212.31,126.0
212.37,155.0
212.44,150.0
212.5,144.0
212.56,115.0
212.62,108.0
212.69,118.0
212.75,105.0
212.81,105.0
212.88,138.0
212.94,144.0
213.0,122.0
213.07,135.0
213.13,129.0
213.19,137.0
213.25,153.0
213.32,140.0
213.38,160.0
213.44,149.0
213.51,130.0
213.57,168.0
213.63,147.0
213.7,166.0
213.76,150.0
213.82,137.0
213.88,159.0
213.95,164.0
214.01,155.0
214.07,135.0
214.14,156.0
214.2,160.0
214.26,159.0
214.33,173.0
214.39,160.0
214.45,190.0
214.51,162.0
214.58,152.0
214.64,154.0
214.7,145.0
214.77,133.0
214.83,155.0
214.89,153.0
214.96,152.0
215.02,147.0
215.08,136.0
215.14,122.0
215.21,124.0
215.27,145.0
215.33,133.0
215.4,117.0
215.46,131.0
215.52,135.0
215.59,114.0
215.65,116.0
215.71,135.0
215.77,141.0
215.84,120.0
215.9,97.0
215.96,113.0
216.03,111.0
216.09,88.0
216.15,95.0
216.22,116.0
216.28,116.0
216.34,114.0
216.4,125.0
216.47,119.0
216.53,98.0
216.59,109.0
216.66,101.0
216.72,97.0
216.78,89.0
216.85,71.0
216.91,57.0
216.97,79.0
217.03,77.0
217.1,83.0
217.16,99.0
217.22,87.0
217.29,108.0
217.35,111.0
217.41,104.0
217.48,104.0
217.54,93.0
217.6,78.0
217.66,95.0
217.73,110.0
217.79,87.0
217.85,88.0
217.92,99.0
217.98,80.0
218.04,89.0
218.11,82.0
218.17,67.0
218.23,77.0
218.29,75.0
218.36,72.0
218.42,98.0
218.48,90.0
218.55,77.0
218.61,80.0
218.67,63.0
218.74,59.0
218.8,66.0
218.86,70.0
218.92,74.0
218.99,64.0
219.05,63.0
219.11,74.0
219.18,45.0
219.24,50.0
219.3,61.0
219.37,80.0
219.43,70.0
219.49,82.0
219.55,73.0
219.62,72.0
219.68,46.0
219.74,53.0
219.81,45.0
219.87,47.0
219.93,36.0
220.0,44.0
220.06,64.0
220.12,50.0
220.18,60.0
220.25,32.0
220.31,46.0
220.37,67.0
220.44,49.0
220.5,59.0
220.56,74.0
220.63,91.0
220.69,74.0
220.75,63.0
220.81,63.0
220.88,72.0
220.94,70.0
221.0,82.0
221.07,100.0
221.13,100.0
221.19,106.0
221.26,105.0
221.32,120.0
221.38,88.0
221.44,63.0
221.51,61.0
221.57,78.0
221.63,92.0
221.7,83.0
221.76,67.0
221.82,88.0
221.89,92.0
221.95,89.0
222.01,71.0
222.07,74.0
222.14,84.0
222.2,70.0
222.26,81.0
222.33,72.0
222.39,85.0
222.45,79.0
222.52,95.0
222.58,85.0
222.64,109.0
222.7,96.0
222.77,91.0
222.83,90.0
222.89,103.0
222.96,70.0
223.02,54.0
223.08,94.0
223.15,96.0
223.21,86.0
223.27,78.0
223.33,75.0
223.4,71.0
223.46,68.0
223.52,49.0
223.59,63.0
223.65,64.0
223.71,68.0
223.78,76.0
223.84,67.0
223.9,53.0
223.96,75.0
224.03,65.0
224.09,93.0
224.15,71.0
224.22,70.0
224.28,85.0
224.34,70.0
224.41,58.0
224.47,42.0
224.53,77.0
224.59,76.0
224.66,61.0
224.72,60.0
224.78,62.0
224.85,52.0
224.91,38.0
224.97,59.0
225.04,50.0
225.1,31.0
225.16,47.0
225.22,65.0
225.29,59.0
225.35,27.0
225.41,53.0
225.48,29.0
225.54,47.0
225.6,34.0
225.67,23.0
225.73,34.0
225.79,9.0
225.85,8.0
225.92,19.0
225.98,32.0
226.04,19.0
226.11,21.0
226.17,12.0
226.23,24.0
226.3,40.0
226.36,15.0
226.42,22.0
226.48,28.0
226.55,28.0
226.61,38.0
226.67,33.0
226.74,27.0
226.8,30.0
226.86,8.0
226.93,5.0
226.99,9.0
227.05,22.0
227.11,2.0
227.18,-7.0
227.24,11.0
227.3,9.0
227.37,20.0
227.43,7.0
227.49,21.0
227.56,45.0
227.62,34.0
227.68,13.0
227.74,3.0
227.81,6.0
227.87,-26.0
227.93,-23.0
228.0,-6.0
228.06,-16.0
228.12,-20.0
228.19,0.0
228.25,-7.0
228.31,-6.0
228.37,-1.0
228.44,-21.0
228.5,14.0
228.56,13.0
228.63,2.0
228.69,5.0
228.75,4.0
228.82,0.0
228.88,33.0
228.94,25.0
229.0,19.0
229.07,45.0
229.13,43.0
229.19,18.0
229.26,27.0
229.32,25.0
229.38,47.0
229.45,38.0
229.51,16.0
229.57,46.0
229.63,49.0
229.7,56.0
229.76,38.0
229.82,51.0
229.89,33.0
229.95,42.0
230.01,60.0
230.08,46.0
230.14,52.0
230.2,52.0
230.26,31.0
230.33,24.0
230.39,26.0
230.45,21.0
230.52,37.0
230.58,39.0
230.64,27.0
230.71,19.0
230.77,33.0
230.83,31.0
230.89,19.0
230.96,39.0
231.02,28.0
231.08,27.0
231.15,27.0
231.21,31.0
231.27,21.0
231.34,35.0
231.4,34.0
231.46,33.0
231.52,31.0
231.59,28.0
231.65,23.0
231.71,12.0
231.78,8.0
231.84,16.0
231.9,33.0
231.97,30.0
232.03,35.0
232.09,40.0
232.15,7.0
232.22,7.0
232.28,16.0
232.34,24.0
232.41,12.0
232.47,17.0
232.53,14.0
232.6,16.0
232.66,7.0
232.72,25.0
232.78,9.0
232.85,-12.0
232.91,22.0
232.97,15.0
233.04,26.0
233.1,27.0
233.16,15.0
233.23,8.0
233.29,10.0
233.35,25.0
233.41,29.0
233.48,44.0
233.54,28.0
233.6,22.0
233.67,21.0
233.73,5.0
233.79,17.0
233.86,14.0
233.92,12.0
233.98,26.0
234.04,32.0
234.11,53.0
234.17,31.0
234.23,19.0
234.3,42.0
234.36,48.0
234.42,42.0
234.49,45.0
234.55,57.0
234.61,49.0
234.67,45.0
234.74,52.0
234.8,39.0
234.86,34.0
234.93,48.0
234.99,53.0
235.05,39.0
235.12,64.0
235.18,56.0
235.24,60.0
235.3,64.0
235.37,45.0
235.43,52.0
235.49,53.0
235.56,68.0
235.62,91.0
235.68,62.0
235.75,63.0
235.81,59.0
235.87,58.0
235.93,59.0
236.0,47.0
236.06,47.0
236.12,61.0
236.19,29.0
236.25,30.0
236.31,44.0
236.38,45.0
236.44,69.0
236.5,54.0
236.56,51.0
236.63,72.0
236.69,55.0
236.75,49.0
236.82,42.0
236.88,50.0
236.94,55.0
237.01,44.0
237.07,44.0
237.13,67.0
237.19,78.0
237.26,38.0
237.32,53.0
237.38,74.0
237.45,79.0
237.51,80.0
237.57,76.0
237.64,75.0
237.7,66.0
237.76,69.0
237.82,93.0
237.89,94.0
237.95,75.0
238.01,97.0
238.08,97.0
238.14,90.0
238.2,74.0
238.27,89.0
238.33,100.0
238.39,101.0
238.45,69.0
238.52,85.0
238.58,94.0
238.64,93.0
238.71,87.0
238.77,99.0
238.83,92.0
238.9,86.0
238.96,78.0
239.02,77.0
239.08,91.0
239.15,109.0
239.21,95.0
239.27,89.0
239.34,91.0
239.4,100.0
239.46,112.0
239.53,79.0
239.59,102.0
239.65,118.0
239.71,135.0
239.78,132.0
239.84,113.0
239.9,109.0
239.97,121.0
240.03,104.0
240.09,109.0
240.16,103.0
240.22,107.0
240.28,105.0
240.34,108.0
240.41,117.0
240.47,97.0
240.53,84.0
240.6,110.0
240.66,123.0
240.72,124.0
240.79,126.0
240.85,115.0
240.91,114.0
240.97,114.0
241.04,133.0
241.1,124.0
241.16,113.0
241.23,114.0
241.29,120.0
241.35,111.0
241.42,86.0
241.48,103.0
241.54,105.0
241.6,98.0
241.67,78.0
241.73,71.0
241.79,75.0
241.86,64.0
241.92,58.0
241.98,77.0
242.05,74.0
242.11,79.0
242.17,78.0
242.23,78.0
242.3,63.0
242.36,64.0
242.42,60.0
242.49,47.0
242.55,56.0
242.61,56.0
242.68,53.0
242.74,48.0
242.8,33.0
242.86,53.0
242.93,55.0
242.99,56.0
243.05,56.0
243.12,39.0
243.18,43.0
243.24,30.0
243.31,35.0
243.37,33.0
243.43,34.0
243.49,36.0
243.56,50.0
243.62,52.0
243.68,30.0
243.75,30.0
243.81,38.0
243.87,37.0
243.94,14.0
244.0,12.0
244.06,28.0
244.12,25.0
244.19,51.0
244.25,54.0
244.31,36.0
244.38,30.0
244.44,17.0
244.5,8.0
244.57,31.0
244.63,49.0
244.69,44.0
244.75,57.0
244.82,72.0
244.88,66.0
244.94,50.0
245.01,49.0
245.07,50.0
245.13,56.0
245.2,56.0
245.26,56.0
245.32,61.0
245.38,40.0
245.45,45.0
245.51,43.0
245.57,45.0
245.64,53.0
245.7,72.0
245.76,77.0
245.83,71.0
245.89,58.0
245.95,42.0
246.01,42.0
246.08,48.0
246.14,53.0
246.2,63.0
246.27,75.0
246.33,34.0
246.39,33.0
246.46,32.0
246.52,29.0
246.58,61.0
246.64,45.0
246.71,69.0
246.77,33.0
246.83,38.0
246.9,52.0
246.96,31.0
247.02,54.0
247.09,47.0
247.15,61.0
247.21,40.0
247.27,44.0
247.34,42.0
247.4,52.0
247.46,73.0
247.53,56.0
247.59,56.0
247.65,51.0
247.72,75.0
247.78,80.0
247.84,72.0
247.9,81.0
247.97,63.0
248.03,67.0
248.09,96.0
248.16,98.0
248.22,78.0
248.28,97.0
248.35,73.0
248.41,78.0
248.47,52.0
248.53,71.0
248.6,86.0
248.66,89.0
248.72,66.0
248.79,80.0
248.85,91.0
248.91,77.0
248.98,85.0
249.04,85.0
249.1,85.0
249.16,67.0
249.23,88.0
249.29,80.0
249.35,77.0
249.42,74.0
249.48,75.0
249.54,91.0
249.61,89.0
249.67,74.0
249.73,81.0
249.79,75.0
249.86,98.0
249.92,75.0
249.98,89.0
250.05,96.0
250.11,79.0
250.17,90.0
250.24,94.0
250.3,80.0
250.36,79.0
250.42,67.0
250.49,63.0
250.55,66.0
250.61,66.0
250.68,46.0
250.74,33.0
250.8,28.0
250.87,45.0
250.93,22.0
250.99,30.0
251.05,61.0
251.12,56.0
251.18,70.0
251.24,54.0
251.31,62.0
251.37,52.0
251.43,52.0
251.5,66.0
251.56,56.0
251.62,69.0
251.68,74.0
251.75,69.0
251.81,49.0
251.87,55.0
251.94,46.0
252.0,55.0
252.06,72.0
252.13,51.0
252.19,60.0
252.25,69.0
252.31,45.0
252.38,59.0
252.44,52.0
252.5,74.0
252.57,72.0
252.63,70.0
252.69,56.0
252.76,52.0
252.82,49.0
252.88,47.0
252.94,53.0
253.01,47.0
253.07,56.0
253.13,63.0
253.2,70.0
253.26,53.0
253.32,42.0
253.39,51.0
253.45,44.0
253.51,75.0
253.57,55.0
253.64,58.0
253.7,53.0
253.76,85.0
253.83,64.0
253.89,71.0
253.95,85.0
254.02,52.0
254.08,45.0
254.14,55.0
254.2,55.0
254.27,54.0
254.33,64.0
254.39,55.0
254.46,61.0
254.52,55.0
254.58,43.0
254.65,41.0
254.71,64.0
254.77,61.0
254.83,58.0
254.9,73.0
254.96,70.0
255.02,74.0
255.09,57.0
255.15,56.0
255.21,74.0
255.28,67.0
255.34,63.0
255.4,89.0
255.46,80.0
255.53,83.0
255.59,64.0
255.65,61.0
255.72,90.0
255.78,100.0
255.84,104.0
255.91,94.0
255.97,88.0
256.03,108.0
256.09,113.0
256.16,105.0
256.22,92.0
256.28,94.0
256.35,89.0
256.41,119.0
256.47,124.0
256.54,113.0
256.6,94.0
256.66,93.0
256.72,107.0
256.79,102.0
256.85,74.0
256.91,74.0
256.98,64.0
257.04,75.0
257.1,90.0
257.17,88.0
257.23,72.0
257.29,66.0
257.35,81.0
257.42,71.0
257.48,83.0
257.54,98.0
257.61,104.0
257.67,85.0
257.73,80.0
257.8,59.0
257.86,77.0
257.92,82.0
257.98,67.0
258.05,56.0
258.11,72.0
258.17,50.0
258.24,53.0
258.3,58.0
258.36,53.0
258.43,48.0
258.49,60.0
258.55,67.0
258.61,78.0
258.68,70.0
258.74,69.0
258.8,49.0
258.87,47.0
258.93,60.0
258.99,42.0
259.06,44.0
259.12,32.0
259.18,32.0
259.24,45.0
259.31,16.0
259.37,34.0
259.43,50.0
259.5,27.0
259.56,37.0
259.62,42.0
259.69,12.0
259.75,16.0
259.81,26.0
259.87,56.0
259.94,53.0
260.0,46.0
260.06,58.0
260.13,41.0
260.19,36.0
260.25,45.0
260.32,46.0
260.38,34.0
260.44,36.0
260.5,58.0
260.57,54.0
260.63,55.0
260.69,57.0
260.76,56.0
260.82,68.0
260.88,57.0
260.95,44.0
261.01,49.0
261.07,56.0
261.13,45.0
261.2,53.0
261.26,61.0
261.32,28.0
261.39,62.0
261.45,78.0
261.51,67.0
261.58,79.0
261.64,84.0
261.7,92.0
261.76,62.0
261.83,72.0
261.89,96.0
261.95,97.0
262.02,92.0
262.08,100.0
262.14,105.0
262.21,97.0
262.27,94.0
262.33,107.0
262.39,100.0
262.46,108.0
262.52,100.0
262.58,95.0
262.65,122.0
262.71,118.0
262.77,106.0
262.84,114.0
262.9,117.0
262.96,106.0
263.02,98.0
263.09,109.0
263.15,83.0
263.21,66.0
263.28,80.0
263.34,81.0
263.4,104.0
263.47,107.0
263.53,111.0
263.59,109.0
263.65,98.0
263.72,112.0
263.78,111.0
263.84,113.0
263.91,111.0
263.97,110.0
264.03,108.0
264.1,115.0
264.16,107.0
264.22,102.0
264.28,126.0
264.35,112.0
264.41,107.0
264.47,136.0
264.54,111.0
264.6,117.0
264.66,115.0
264.73,94.0
264.79,91.0
264.85,113.0
264.91,129.0
264.98,114.0
265.04,127.0
265.1,140.0
265.17,140.0
265.23,118.0
265.29,123.0
265.36,113.0
265.42,99.0
265.48,132.0
265.54,118.0
265.61,136.0
265.67,130.0
265.73,125.0
265.8,125.0
265.86,114.0
265.92,119.0
265.99,126.0
266.05,125.0
266.11,125.0
266.17,141.0
266.24,130.0
266.3,129.0
266.36,119.0
266.43,127.0
266.49,122.0
266.55,138.0
266.62,157.0
266.68,150.0
266.74,122.0
266.8,121.0
266.87,140.0
266.93,138.0
266.99,122.0
267.06,126.0
267.12,112.0
267.18,129.0
267.25,133.0
267.31,115.0
267.37,100.0
267.43,109.0
267.5,117.0
267.56,130.0
267.62,116.0
267.69,98.0
267.75,100.0
267.81,103.0
267.88,91.0
267.94,94.0
268.0,101.0
268.06,102.0
268.13,132.0
268.19,109.0
268.25,99.0
268.32,105.0
268.38,106.0
268.44,112.0
268.51,107.0
268.57,105.0
268.63,102.0
268.69,89.0
268.76,115.0
268.82,102.0
268.88,100.0
268.95,99.0
269.01,98.0
269.07,114.0
269.14,105.0
269.2,100.0
269.26,89.0
269.32,85.0
269.39,74.0
269.45,75.0
269.51,89.0
269.58,115.0
269.64,91.0
269.7,88.0
269.77,91.0
269.83,96.0
269.89,96.0
269.95,83.0
270.02,85.0
270.08,81.0
270.14,90.0
270.21,85.0
270.27,96.0
270.33,95.0
270.4,89.0
270.46,99.0
270.52,104.0
270.58,89.0
270.65,107.0
270.71,107.0
270.77,83.0
270.84,122.0
270.9,122.0
270.96,99.0
271.03,110.0
271.09,105.0
271.15,111.0
271.21,111.0
271.28,119.0
271.34,110.0
271.4,133.0
271.47,113.0
271.53,100.0
271.59,126.0
271.66,109.0
271.72,100.0
271.78,85.0
271.84,96.0
271.91,107.0
271.97,92.0
272.03,101.0
272.1,100.0
272.16,83.0
272.22,107.0
272.29,103.0
272.35,99.0
272.41,107.0
272.47,104.0
272.54,96.0
272.6,105.0
272.66,90.0
272.73,122.0
272.79,103.0
272.85,105.0
272.92,117.0
272.98,116.0
273.04,116.0
273.1,91.0
273.17,106.0
273.23,100.0
273.29,119.0
273.36,116.0
273.42,108.0
273.48,108.0
273.55,89.0
273.61,85.0
273.67,87.0
273.73,77.0
273.8,79.0
273.86,82.0
273.92,70.0
273.99,71.0
274.05,78.0
274.11,85.0
274.18,75.0
274.24,104.0
274.3,100.0
274.36,85.0
274.43,100.0
274.49,102.0
274.55,83.0
274.62,107.0
274.68,113.0
274.74,120.0
274.81,119.0
274.87,108.0
274.93,100.0
274.99,100.0
275.06,101.0
275.12,109.0
275.18,77.0
275.25,69.0
275.31,91.0
275.37,80.0
275.44,79.0
275.5,110.0
275.56,94.0
275.62,98.0
275.69,74.0
275.75,91.0
275.81,71.0
275.88,60.0
275.94,52.0
276.0,56.0
276.07,64.0
276.13,61.0
276.19,62.0
276.25,56.0
276.32,78.0
276.38,64.0
276.44,65.0
276.51,68.0
276.57,63.0
276.63,88.0
276.7,74.0
276.76,76.0
276.82,78.0
276.88,68.0
276.95,63.0
277.01,72.0
277.07,73.0
277.14,65.0
277.2,70.0
277.26,75.0
277.33,61.0
277.39,50.0
277.45,43.0
277.51,58.0
277.58,71.0
277.64,67.0
277.7,69.0
277.77,85.0
277.83,74.0
277.89,58.0
277.96,64.0
278.02,72.0
278.08,80.0
278.14,100.0
278.21,101.0
278.27,89.0
278.33,83.0
278.4,84.0
278.46,92.0
278.52,63.0
278.59,47.0
278.65,66.0
278.71,71.0
278.77,91.0
278.84,83.0
278.9,53.0
278.96,65.0
279.03,58.0
279.09,74.0
279.15,81.0
279.22,72.0
279.28,67.0
279.34,72.0
279.4,52.0
279.47,68.0
279.53,78.0
279.59,82.0
279.66,94.0
279.72,92.0
279.78,88.0
279.85,63.0
279.91,80.0
279.97,60.0
280.03,66.0
280.1,64.0
280.16,75.0
280.22,80.0
280.29,45.0
280.35,56.0
280.41,52.0
280.48,59.0
280.54,74.0
280.6,61.0
280.66,72.0
280.73,56.0
280.79,50.0
280.85,57.0
280.92,45.0
280.98,49.0
281.04,57.0
281.11,66.0
281.17,58.0
281.23,54.0
281.29,42.0
281.36,37.0
281.42,54.0
281.48,41.0
281.55,43.0
281.61,38.0
281.67,41.0
281.74,45.0
281.8,30.0
281.86,41.0
281.92,27.0
281.99,33.0
282.05,31.0
282.11,37.0
282.18,40.0
282.24,41.0
282.3,46.0
282.37,24.0
282.43,34.0
282.49,19.0
282.55,31.0
282.62,35.0
282.68,11.0
282.74,10.0
282.81,4.0
282.87,35.0
282.93,49.0
283.0,17.0
283.06,25.0
283.12,20.0
283.18,26.0
283.25,39.0
283.31,35.0
283.37,29.0
283.44,34.0
283.5,41.0
283.56,31.0
283.63,31.0
283.69,17.0
283.75,8.0
283.81,-3.0
283.88,13.0
283.94,10.0
284.0,19.0
284.07,17.0
284.13,22.0
284.19,23.0
284.26,6.0
284.32,21.0
284.38,-1.0
284.44,20.0
284.51,20.0
284.57,31.0
284.63,36.0
284.7,60.0
284.76,50.0
284.82,37.0
284.89,34.0
284.95,56.0
285.01,49.0
285.07,40.0
285.14,49.0
285.2,47.0
285.26,56.0
285.33,68.0
285.39,41.0
285.45,66.0
285.52,69.0
285.58,75.0
285.64,71.0
285.7,59.0
285.77,48.0
285.83,37.0
285.89,50.0
285.96,54.0
286.02,59.0
286.08,63.0
286.15,64.0
286.21,43.0
286.27,31.0
286.33,29.0
286.4,34.0
286.46,32.0
286.52,50.0
286.59,39.0
286.65,56.0
286.71,56.0
286.78,27.0
286.84,58.0
286.9,37.0
286.96,29.0
287.03,47.0
287.09,49.0
287.15,58.0
287.22,72.0
287.28,43.0
287.34,38.0
287.41,61.0
287.47,55.0
287.53,29.0
287.59,56.0
287.66,40.0
287.72,68.0
287.78,47.0
287.85,18.0
287.91,33.0
287.97,55.0
288.04,58.0
288.1,58.0
288.16,43.0
288.22,51.0
288.29,48.0
288.35,48.0
288.41,39.0
288.48,58.0
288.54,68.0
288.6,73.0
288.67,67.0
288.73,64.0
288.79,51.0
288.85,55.0
288.92,42.0
288.98,33.0
289.04,46.0
289.11,66.0
289.17,59.0
289.23,51.0
289.3,71.0
289.36,69.0
289.42,75.0
289.48,68.0
289.55,70.0
289.61,81.0
289.67,112.0
289.74,121.0
289.8,113.0
289.86,109.0
289.93,133.0
289.99,149.0
290.05,131.0
290.11,132.0
290.18,141.0
290.24,113.0
290.3,125.0
290.37,109.0
290.43,119.0
290.49,127.0
290.56,111.0
290.62,103.0
290.68,117.0
290.74,131.0
290.81,102.0
290.87,115.0
290.93,113.0
291.0,117.0
291.06,110.0
291.12,106.0
291.19,132.0
291.25,141.0
291.31,138.0
291.37,138.0
291.44,122.0
291.5,130.0
291.56,132.0
291.63,100.0
291.69,110.0
291.75,121.0
291.82,116.0
291.88,110.0
291.94,107.0
292.0,92.0
292.07,108.0
292.13,113.0
292.19,111.0
292.26,98.0
292.32,88.0
292.38,88.0
292.45,110.0
292.51,100.0
292.57,94.0
292.63,109.0
292.7,89.0
292.76,86.0
292.82,75.0
292.89,100.0
292.95,76.0
293.01,67.0
293.08,69.0
293.14,62.0
293.2,70.0
293.26,56.0
293.33,59.0
293.39,60.0
293.45,80.0
293.52,84.0
293.58,71.0
293.64,90.0
293.71,86.0
293.77,90.0
293.83,75.0
293.89,80.0
293.96,93.0
294.02,70.0
294.08,58.0
294.15,64.0
294.21,65.0
294.27,84.0
294.34,69.0
294.4,50.0
294.46,74.0
294.52,81.0
294.59,75.0
294.65,97.0
294.71,73.0
294.78,71.0
294.84,59.0
294.9,82.0
294.97,60.0
295.03,51.0
295.09,69.0
295.15,59.0
295.22,67.0
295.28,70.0
295.34,77.0
295.41,75.0
295.47,58.0
295.53,68.0
295.6,84.0
295.66,79.0
295.72,80.0
295.78,70.0
295.85,68.0
295.91,62.0
295.97,92.0
296.04,70.0
296.1,87.0
296.16,71.0
296.23,70.0
296.29,74.0
296.35,74.0
296.41,65.0
296.48,55.0
296.54,38.0
296.6,44.0
296.67,80.0
296.73,89.0
296.79,73.0
296.86,77.0
296.92,84.0
296.98,83.0
297.04,80.0
297.11,83.0
297.17,76.0
297.23,73.0
297.3,51.0
297.36,39.0
297.42,50.0
297.49,60.0
297.55,76.0
297.61,87.0
297.67,83.0
297.74,73.0
297.8,64.0
297.86,62.0
297.93,65.0
297.99,64.0
298.05,69.0
298.12,72.0
298.18,60.0
298.24,65.0
298.3,88.0
298.37,96.0
298.43,84.0
298.49,82.0
298.56,51.0
298.62,34.0
298.68,43.0
298.75,59.0
298.81,36.0
298.87,57.0
298.93,63.0
299.0,40.0
299.06,17.0
299.12,40.0
299.19,38.0
299.25,26.0
299.31,33.0
299.38,38.0
299.44,50.0
299.5,50.0
299.56,29.0
299.63,25.0
299.69,26.0
299.75,48.0
299.82,58.0
299.88,38.0
299.94,29.0
300.01,23.0
300.07,42.0
300.13,34.0
300.19,20.0
300.26,47.0
300.32,1.0
300.38,7.0
300.45,23.0
300.51,35.0
300.57,50.0
300.64,28.0
300.7,50.0
300.76,50.0
300.82,60.0
300.89,58.0
300.95,29.0
301.01,34.0
301.08,46.0
301.14,42.0
301.2,73.0
301.27,58.0
301.33,76.0
301.39,43.0
301.45,58.0
301.52,73.0
301.58,75.0
301.64,78.0
301.71,70.0
301.77,73.0
301.83,59.0
301.9,34.0
301.96,67.0
302.02,68.0
302.08,88.0
302.15,90.0
302.21,62.0
302.27,73.0
302.34,70.0
302.4,61.0
302.46,51.0
302.53,47.0
302.59,65.0
302.65,76.0
302.71,81.0
302.78,60.0
302.84,62.0
302.9,48.0
302.97,69.0
303.03,72.0
303.09,56.0
303.16,74.0
303.22,73.0
303.28,77.0
303.34,72.0
303.41,81.0
303.47,65.0
303.53,54.0
303.6,40.0
303.66,25.0
303.72,51.0
303.79,42.0
303.85,40.0
303.91,40.0
303.97,35.0
304.04,25.0
304.1,20.0
304.16,60.0
304.23,54.0
304.29,59.0
304.35,60.0
304.42,42.0
304.48,46.0
304.54,41.0
304.6,48.0
304.67,17.0
304.73,15.0
304.79,56.0
304.86,71.0
304.92,73.0
304.98,47.0
305.05,84.0
305.11,103.0
305.17,97.0
305.23,100.0
305.3,75.0
305.36,81.0
305.42,78.0
305.49,76.0
305.55,66.0
305.61,81.0
305.68,72.0
305.74,74.0
305.8,58.0
305.86,83.0
305.93,69.0
305.99,61.0
306.05,63.0
306.12,52.0
306.18,55.0
306.24,67.0
306.31,87.0
306.37,88.0
306.43,89.0
306.49,89.0
306.56,86.0
306.62,106.0
306.68,84.0
306.75,95.0
306.81,100.0
306.87,95.0
306.94,97.0
307.0,101.0
307.06,107.0
307.12,101.0
307.19,118.0
307.25,114.0
307.31,113.0
307.38,106.0
307.44,110.0
307.5,90.0
307.57,102.0
307.63,102.0
307.69,108.0
307.75,100.0
307.82,108.0
307.88,111.0
307.94,111.0
308.01,124.0
308.07,88.0
308.13,93.0
308.2,103.0
308.26,91.0
308.32,105.0
308.38,103.0
308.45,79.0
308.51,102.0
308.57,95.0
308.64,81.0
308.7,95.0
308.76,79.0
308.83,81.0
308.89,80.0
308.95,84.0
309.01,82.0
309.08,80.0
309.14,84.0
309.2,63.0
309.27,62.0
309.33,91.0
309.39,65.0
309.46,62.0
309.52,66.0
309.58,67.0
309.64,56.0
309.71,46.0
309.77,55.0
309.83,52.0
309.9,38.0
309.96,29.0
310.02,23.0
310.09,62.0
310.15,59.0
310.21,45.0
310.27,39.0
310.34,20.0
310.4,75.0
310.46,59.0
310.53,66.0
310.59,69.0
310.65,65.0
310.72,84.0
310.78,77.0
310.84,69.0
310.9,64.0
310.97,69.0
311.03,72.0
311.09,71.0
311.16,82.0
311.22,77.0
311.28,69.0
311.35,77.0
311.41,79.0
311.47,75.0
311.53,54.0
311.6,55.0
311.66,59.0
311.72,66.0
311.79,69.0
311.85,90.0
311.91,89.0
311.98,91.0
312.04,81.0
312.1,81.0
312.16,80.0
312.23,92.0
312.29,82.0
312.35,84.0
312.42,92.0
312.48,93.0
312.54,91.0
312.61,93.0
312.67,83.0
312.73,84.0
312.79,101.0
312.86,93.0
312.92,108.0
312.98,117.0
313.05,106.0
313.11,106.0
313.17,117.0
313.24,115.0
313.3,92.0
313.36,86.0
313.42,95.0
313.49,119.0
313.55,119.0
313.61,131.0
313.68,108.0
313.74,125.0
313.8,112.0
313.87,129.0
313.93,108.0
313.99,95.0
314.05,86.0
314.12,81.0
314.18,99.0
314.24,103.0
314.31,94.0
314.37,92.0
314.43,80.0
314.5,81.0
314.56,119.0
314.62,104.0
314.68,115.0
314.75,95.0
314.81,72.0
314.87,89.0
314.94,103.0
315.0,103.0
315.06,100.0
315.13,124.0
315.19,108.0
315.25,122.0
315.31,124.0
315.38,139.0
315.44,144.0
315.5,138.0
315.57,144.0
315.63,142.0
315.69,128.0
315.76,128.0
315.82,125.0
315.88,121.0
315.94,102.0
316.01,126.0
316.07,137.0
316.13,120.0
316.2,124.0
316.26,121.0
316.32,105.0
316.39,100.0
316.45,100.0
316.51,94.0
316.57,106.0
316.64,124.0
316.7,111.0
316.76,123.0
316.83,110.0
316.89,124.0
316.95,122.0
317.02,113.0
317.08,109.0
317.14,135.0
317.2,142.0
317.27,121.0
317.33,128.0
317.39,126.0
317.46,121.0
317.52,144.0
317.58,138.0
317.65,129.0
317.71,110.0
317.77,150.0
317.83,142.0
317.9,154.0
317.96,126.0
318.02,135.0
318.09,174.0
318.15,148.0
318.21,132.0
318.28,123.0
318.34,146.0
318.4,136.0
318.46,133.0
318.53,132.0
318.59,145.0
318.65,144.0
318.72,117.0
318.78,136.0
318.84,124.0
318.91,142.0
318.97,143.0
319.03,138.0
319.09,128.0
319.16,124.0
319.22,155.0
319.28,141.0
319.35,128.0
319.41,122.0
319.47,86.0
319.54,120.0
319.6,146.0
319.66,118.0
319.72,127.0
319.79,134.0
319.85,129.0
319.91,139.0
319.98,145.0
320.04,153.0
320.1,142.0
320.17,132.0
320.23,134.0
320.29,136.0
320.35,146.0
320.42,144.0
320.48,130.0
320.54,163.0
320.61,136.0
320.67,169.0
320.73,161.0
320.8,153.0
320.86,143.0
320.92,135.0
320.98,134.0
321.05,114.0
321.11,124.0
321.17,118.0
321.24,113.0
321.3,116.0
321.36,116.0
321.43,111.0
321.49,102.0
321.55,110.0
321.61,105.0
321.68,108.0
321.74,124.0
321.8,110.0
321.87,116.0
321.93,106.0
321.99,116.0
322.06,117.0
322.12,113.0
322.18,116.0
322.24,109.0
322.31,111.0
322.37,120.0
322.43,130.0
322.5,116.0
322.56,124.0
322.62,133.0
322.69,116.0
322.75,125.0
322.81,139.0
322.87,105.0
322.94,125.0
323.0,125.0
323.06,127.0
323.13,133.0
323.19,149.0
323.25,125.0
323.32,103.0
323.38,117.0
323.44,110.0
323.5,109.0
323.57,115.0
323.63,101.0
323.69,102.0
323.76,107.0
323.82,95.0
323.88,103.0
323.95,87.0
324.01,91.0
324.07,94.0
324.13,94.0
324.2,109.0
324.26,108.0
324.32,84.0
324.39,86.0
324.45,98.0
324.51,102.0
324.58,104.0
324.64,102.0
324.7,87.0
324.76,76.0
324.83,79.0
324.89,79.0
324.95,64.0
325.02,72.0
325.08,65.0
325.14,82.0
325.21,58.0
325.27,63.0
325.33,63.0
325.39,45.0
325.46,34.0
325.52,51.0
325.58,69.0
325.65,48.0
325.71,23.0
325.77,60.0
325.84,47.0
325.9,68.0
325.96,69.0
326.02,44.0
326.09,38.0
326.15,23.0
326.21,40.0
326.28,34.0
326.34,45.0
326.4,39.0
326.47,53.0
326.53,59.0
326.59,43.0
326.65,41.0
326.72,29.0
326.78,26.0
326.84,29.0
326.91,29.0
326.97,51.0
327.03,40.0
327.1,29.0
327.16,50.0
327.22,42.0
327.28,66.0
327.35,40.0
327.41,39.0
327.47,68.0
327.54,46.0
327.6,45.0
327.66,46.0
327.73,61.0
327.79,73.0
327.85,59.0
327.91,82.0
327.98,70.0
328.04,52.0
328.1,53.0
328.17,62.0
328.23,54.0
328.29,69.0
328.36,68.0
328.42,72.0
328.48,81.0
328.54,66.0
328.61,72.0
328.67,57.0
328.73,68.0
328.8,71.0
328.86,47.0
328.92,46.0
328.99,60.0
329.05,91.0
329.11,60.0
329.17,80.0
329.24,74.0
329.3,73.0
329.36,74.0
329.43,77.0
329.49,61.0
329.55,71.0
329.62,73.0
329.68,67.0
329.74,60.0
329.8,64.0
329.87,50.0
329.93,63.0
329.99,65.0
330.06,62.0
330.12,68.0
330.18,73.0
330.25,56.0
330.31,71.0
330.37,69.0
330.43,39.0
330.5,43.0
330.56,61.0
330.62,60.0
330.69,61.0
330.75,62.0
330.81,53.0
330.88,38.0
330.94,51.0
331.0,40.0
331.06,50.0
331.13,51.0
331.19,37.0
331.25,17.0
331.32,30.0
331.38,32.0
331.44,23.0
331.51,22.0
331.57,29.0
331.63,28.0
331.69,22.0
331.76,34.0
331.82,37.0
331.88,26.0
331.95,4.0
332.01,18.0
332.07,45.0
332.14,47.0
332.2,39.0
332.26,22.0
332.32,17.0
332.39,37.0
332.45,34.0
332.51,35.0
332.58,27.0
332.64,40.0
332.7,41.0
332.77,52.0
332.83,70.0
332.89,47.0
332.95,30.0
333.02,37.0
333.08,29.0
333.14,26.0
333.21,28.0
333.27,24.0
333.33,47.0
333.4,31.0
333.46,39.0
333.52,21.0
333.58,47.0
333.65,39.0
333.71,38.0
333.77,43.0
333.84,49.0
333.9,40.0
333.96,43.0
334.03,56.0
334.09,56.0
334.15,58.0
334.21,53.0
334.28,48.0
334.34,40.0
334.4,48.0
334.47,39.0
334.53,61.0
334.59,59.0
334.66,56.0
334.72,56.0
334.78,40.0
334.84,47.0
334.91,36.0
334.97,29.0
335.03,36.0
335.1,32.0
335.16,31.0
335.22,30.0
335.29,35.0
335.35,30.0
335.41,41.0
335.47,39.0
335.54,31.0
335.6,46.0
335.66,44.0
335.73,32.0
335.79,23.0
335.85,26.0
335.92,10.0
335.98,7.0
336.04,16.0
336.1,19.0
336.17,14.0
336.23,17.0
336.29,31.0
336.36,21.0
336.42,22.0
336.48,21.0
336.55,29.0
336.61,20.0
336.67,15.0
336.73,26.0
336.8,32.0
336.86,40.0
336.92,33.0
336.99,25.0
337.05,40.0
337.11,53.0
337.18,75.0
337.24,66.0
337.3,70.0
337.36,54.0
337.43,51.0
337.49,72.0
337.55,80.0
337.62,81.0
337.68,83.0
337.74,75.0
337.81,59.0
337.87,58.0
337.93,75.0
337.99,67.0
338.06,76.0
338.12,80.0
338.18,88.0
338.25,72.0
338.31,69.0
338.37,43.0
338.44,60.0
338.5,37.0
338.56,55.0
338.62,43.0
338.69,30.0
338.75,38.0
338.81,40.0
338.88,21.0
338.94,37.0
339.0,43.0
339.07,51.0
339.13,35.0
339.19,32.0
339.25,29.0
339.32,40.0
339.38,22.0
339.44,41.0
339.51,42.0
339.57,52.0
339.63,45.0
339.7,22.0
339.76,23.0
339.82,34.0
339.88,54.0
339.95,52.0
340.01,65.0
340.07,40.0
340.14,54.0
340.2,68.0
340.26,75.0
340.33,78.0
340.39,51.0
340.45,58.0
340.51,69.0
340.58,69.0
340.64,40.0
340.7,53.0
340.77,61.0
340.83,69.0
340.89,86.0
340.96,98.0
341.02,90.0
341.08,84.0
341.14,91.0
341.21,88.0
341.27,86.0
341.33,57.0
341.4,42.0
341.46,58.0
341.52,34.0
341.59,54.0
341.65,69.0
341.71,75.0
341.77,63.0
341.84,51.0
341.9,62.0
341.96,53.0
342.03,51.0
342.09,47.0
342.15,45.0
342.22,34.0
342.28,36.0
342.34,52.0
342.4,31.0
342.47,45.0
342.53,55.0
342.59,40.0
342.66,60.0
342.72,58.0
342.78,67.0
342.85,76.0
342.91,70.0
342.97,53.0
343.03,85.0
343.1,91.0
343.16,88.0
343.22,91.0
343.29,73.0
343.35,60.0
343.41,69.0
343.48,67.0
343.54,68.0
343.6,67.0
343.66,54.0
343.73,66.0
343.79,49.0
343.85,52.0
343.92,71.0
343.98,69.0
344.04,54.0
344.11,67.0
344.17,76.0
344.23,87.0
344.29,85.0
344.36,69.0
344.42,73.0
344.48,72.0
344.55,64.0
344.61,84.0
344.67,76.0
344.74,67.0
344.8,88.0
344.86,78.0
344.92,80.0
344.99,78.0
345.05,81.0
345.11,81.0
345.18,73.0
345.24,81.0
345.3,69.0
345.37,76.0
345.43,73.0
345.49,62.0
345.55,96.0
345.62,102.0
345.68,102.0
345.74,95.0
345.81,98.0
345.87,88.0
345.93,82.0
346.0,97.0
346.06,78.0
346.12,86.0
346.18,88.0
346.25,87.0
346.31,98.0
346.37,88.0
346.44,90.0
346.5,98.0
346.56,89.0
346.63,78.0
346.69,96.0
346.75,106.0
346.81,101.0
346.88,93.0
346.94,94.0
347.0,108.0
347.07,89.0
347.13,92.0
347.19,102.0
347.26,105.0
347.32,92.0
347.38,95.0
347.44,83.0
347.51,100.0
347.57,93.0
347.63,85.0
347.7,78.0
347.76,51.0
347.82,85.0
347.89,95.0
347.95,90.0
348.01,91.0
348.07,73.0
348.14,73.0
348.2,69.0
348.26,78.0
348.33,73.0
348.39,92.0
348.45,88.0
348.52,79.0
348.58,91.0
348.64,75.0
348.7,84.0
348.77,96.0
348.83,84.0
348.89,93.0
348.96,95.0
349.02,87.0
349.08,109.0
349.15,111.0
349.21,94.0
349.27,109.0
349.33,102.0
349.4,102.0
349.46,108.0
349.52,113.0
349.59,95.0
349.65,104.0
349.71,99.0
349.78,80.0
349.84,109.0
349.9,114.0
349.96,111.0
350.03,100.0
350.09,66.0
350.15,82.0
350.22,76.0
350.28,86.0
350.34,75.0
350.41,76.0
350.47,70.0
350.53,83.0
350.59,65.0
350.66,73.0
350.72,51.0
350.78,67.0
350.85,93.0
350.91,74.0
350.97,83.0
351.04,106.0
351.1,111.0
351.16,94.0
351.22,94.0
351.29,117.0
351.35,91.0
351.41,119.0
351.48,120.0
351.54,112.0
351.6,108.0
351.67,128.0
351.73,115.0
351.79,113.0
351.85,132.0
351.92,106.0
351.98,118.0
352.04,126.0
352.11,94.0
352.17,114.0
352.23,94.0
352.3,106.0
352.36,115.0
352.42,103.0
352.48,100.0
352.55,96.0
352.61,100.0
352.67,111.0
352.74,91.0
352.8,102.0
352.86,94.0
352.93,87.0
352.99,102.0
353.05,67.0
353.11,76.0
353.18,77.0
353.24,87.0
353.3,83.0
353.37,88.0
353.43,92.0
353.49,87.0
353.56,95.0
353.62,94.0
353.68,73.0
353.74,92.0
353.81,101.0
353.87,91.0
353.93,77.0
354.0,80.0
354.06,90.0
354.12,80.0
354.19,80.0
354.25,57.0
354.31,80.0
354.37,67.0
354.44,78.0
354.5,90.0
354.56,65.0
354.63,47.0
354.69,66.0
354.75,44.0
354.82,51.0
354.88,57.0
354.94,60.0
355.0,55.0
355.07,51.0
355.13,53.0
355.19,53.0
355.26,59.0
355.32,67.0
355.38,67.0
355.45,72.0
355.51,66.0
355.57,60.0
355.63,45.0
355.7,50.0
355.76,47.0
355.82,50.0
355.89,76.0
355.95,83.0
356.01,75.0
356.08,86.0
356.14,95.0
356.2,83.0
356.26,72.0
356.33,76.0
356.39,89.0
356.45,101.0
356.52,85.0
356.58,67.0
356.64,83.0
356.71,70.0
356.77,88.0
356.83,97.0
356.89,95.0
356.96,98.0
357.02,57.0
357.08,62.0
357.15,94.0
357.21,77.0
357.27,83.0
357.34,95.0
357.4,104.0
357.46,108.0
357.52,95.0
357.59,100.0
357.65,104.0
357.71,106.0
357.78,122.0
357.84,99.0
357.9,92.0
357.97,108.0
358.03,75.0
358.09,81.0
358.15,76.0
358.22,80.0
358.28,76.0
358.34,81.0
358.41,87.0
358.47,81.0
358.53,60.0
358.6,59.0
358.66,88.0
358.72,91.0
358.78,67.0
358.85,69.0
358.91,78.0
358.97,65.0
359.04,59.0
359.1,67.0
359.16,86.0
359.23,61.0
359.29,73.0
359.35,89.0
359.41,77.0
359.48,97.0
359.54,89.0
359.6,89.0
359.67,101.0
359.73,108.0
359.79,111.0
359.86,109.0
359.92,99.0
359.98,88.0
360.04,105.0
360.11,101.0
360.17,112.0
360.23,102.0
360.3,91.0
360.36,78.0
360.42,82.0
360.49,91.0
360.55,88.0
360.61,93.0
360.67,86.0
360.74,62.0
360.8,61.0
360.86,57.0
360.93,75.0
360.99,74.0
361.05,75.0
361.12,53.0
361.18,84.0
361.24,84.0
361.3,82.0
361.37,86.0
361.43,83.0
361.49,108.0
361.56,87.0
361.62,84.0
361.68,66.0
361.75,79.0
361.81,77.0
361.87,70.0
361.93,78.0
362.0,69.0
362.06,66.0
362.12,68.0
362.19,79.0
362.25,56.0
362.31,63.0
362.38,72.0
362.44,62.0
362.5,57.0
362.56,77.0
362.63,69.0
362.69,70.0
362.75,52.0
362.82,61.0
362.88,47.0
362.94,29.0
363.01,43.0
363.07,57.0
363.13,70.0
363.19,54.0
363.26,39.0
363.32,40.0
363.38,45.0
363.45,67.0
363.51,54.0
363.57,78.0
363.64,78.0
363.7,67.0
363.76,87.0
363.82,66.0
363.89,72.0
363.95,48.0
364.01,63.0
364.08,69.0
364.14,59.0
364.2,47.0
364.27,40.0
364.33,55.0
364.39,45.0
364.45,41.0
364.52,61.0
364.58,44.0
364.64,52.0
364.71,63.0
364.77,64.0
364.83,40.0
364.9,49.0
364.96,68.0
365.02,45.0
365.08,35.0
365.15,37.0
365.21,47.0
365.27,38.0
365.34,25.0
365.4,13.0
365.46,36.0
365.53,31.0
365.59,42.0
365.65,56.0
365.71,47.0
365.78,35.0
365.84,32.0
365.9,25.0
365.97,51.0
366.03,67.0
366.09,44.0
366.16,37.0
366.22,42.0
366.28,50.0
366.34,61.0
366.41,53.0
366.47,55.0
366.53,61.0
366.6,48.0
366.66,43.0
366.72,38.0
366.79,43.0
366.85,35.0
366.91,39.0
366.97,40.0
367.04,36.0
367.1,38.0
367.16,16.0
367.23,44.0
367.29,53.0
367.35,53.0
367.42,58.0
367.48,38.0
367.54,48.0
367.6,35.0
367.67,56.0
367.73,75.0
367.79,78.0
367.86,62.0
367.92,55.0
367.98,61.0
368.05,50.0
368.11,50.0
368.17,55.0
368.23,73.0
368.3,87.0
368.36,95.0
368.42,102.0
368.49,92.0
368.55,97.0
368.61,98.0
368.68,78.0
368.74,94.0
368.8,124.0
368.86,100.0
368.93,98.0
368.99,95.0
369.05,113.0
369.12,111.0
369.18,108.0
369.24,94.0
369.31,81.0
369.37,80.0
369.43,86.0
369.49,93.0
369.56,95.0
369.62,83.0
369.68,77.0
369.75,101.0
369.81,82.0
369.87,90.0
369.94,117.0
370.0,114.0
370.06,116.0
370.12,108.0
370.19,99.0
370.25,116.0
370.31,115.0
370.38,97.0
370.44,112.0
370.5,101.0
370.57,109.0
370.63,103.0
370.69,94.0
370.75,92.0
370.82,100.0
370.88,105.0
370.94,100.0
371.01,94.0
371.07,98.0
371.13,117.0
371.2,113.0
371.26,118.0
371.32,121.0
371.38,115.0
371.45,110.0
371.51,110.0
371.57,124.0
371.64,109.0
371.7,113.0
371.76,138.0
371.83,132.0
371.89,128.0
371.95,122.0
372.01,124.0
372.08,128.0
372.14,141.0
372.2,120.0
372.27,124.0
372.33,119.0
372.39,120.0
372.46,130.0
372.52,121.0
372.58,114.0
372.64,110.0
372.71,98.0
372.77,108.0
372.83,123.0
372.9,123.0
372.96,130.0
373.02,121.0
373.09,121.0
373.15,119.0
373.21,117.0
373.27,116.0
373.34,119.0
373.4,131.0
373.46,121.0
373.53,119.0
373.59,132.0
373.65,121.0
373.72,121.0
373.78,135.0
373.84,131.0
373.9,143.0
373.97,142.0
374.03,117.0
374.09,105.0
374.16,121.0
374.22,111.0
374.28,98.0
374.35,118.0
374.41,120.0
374.47,128.0
374.53,127.0
374.6,125.0
374.66,117.0
374.72,132.0
374.79,121.0
374.85,124.0
374.91,112.0
374.98,131.0
375.04,148.0
375.1,152.0
375.16,150.0
375.23,131.0
375.29,120.0
375.35,110.0
375.42,117.0
375.48,110.0
375.54,122.0
375.61,125.0
375.67,132.0
375.73,132.0
375.79,93.0
375.86,82.0
375.92,94.0
375.98,102.0
376.05,70.0
376.11,73.0
376.17,83.0
376.24,97.0
376.3,72.0
376.36,81.0
376.42,106.0
376.49,84.0
376.55,89.0
376.61,83.0
376.68,87.0
376.74,103.0
376.8,88.0
376.87,91.0
376.93,73.0
376.99,62.0
377.05,89.0
377.12,92.0
377.18,60.0
377.24,71.0
377.31,81.0
377.37,83.0
377.43,88.0
377.5,80.0
377.56,103.0
377.62,102.0
377.68,84.0
377.75,76.0
377.81,48.0
377.87,58.0
377.94,80.0
378.0,60.0
378.06,57.0
378.13,58.0
378.19,75.0
378.25,81.0
378.31,56.0
378.38,76.0
378.44,62.0
378.5,74.0
378.57,86.0
378.63,82.0
378.69,66.0
378.76,67.0
378.82,83.0
378.88,67.0
378.94,74.0
379.01,83.0
379.07,81.0
379.13,80.0
379.2,73.0
379.26,58.0
379.32,74.0
379.39,66.0
379.45,61.0
379.51,61.0
379.57,74.0
379.64,63.0
379.7,83.0
379.76,65.0
379.83,67.0
379.89,68.0
379.95,69.0
380.02,41.0
380.08,33.0
380.14,40.0
380.2,51.0
380.27,51.0
380.33,32.0
380.39,39.0
380.46,55.0
380.52,26.0
380.58,20.0
380.65,34.0
380.71,20.0
380.77,29.0
380.83,35.0
380.9,21.0
380.96,5.0
381.02,28.0
381.09,29.0
381.15,13.0
381.21,19.0
381.28,21.0
381.34,32.0
381.4,14.0
381.46,13.0
381.53,25.0
381.59,20.0
381.65,15.0
381.72,22.0
381.78,18.0
381.84,-15.0
381.91,9.0
381.97,17.0
382.03,33.0
382.09,20.0
382.16,25.0
382.22,45.0
382.28,30.0
382.35,49.0
382.41,62.0
382.47,50.0
382.54,53.0
382.6,46.0
382.66,46.0
382.72,50.0
382.79,70.0
382.85,62.0
382.91,53.0
382.98,54.0
383.04,45.0
383.1,36.0
383.17,45.0
383.23,55.0
383.29,40.0
383.35,50.0
383.42,59.0
383.48,43.0
383.54,45.0
383.61,21.0
383.67,50.0
383.73,29.0
383.8,34.0
383.86,44.0
383.92,45.0
383.98,33.0
384.05,53.0
384.11,32.0
384.17,38.0
384.24,45.0
384.3,30.0
384.36,37.0
384.43,37.0
384.49,46.0
384.55,65.0
384.61,63.0
384.68,52.0
384.74,64.0
384.8,59.0
384.87,53.0
384.93,57.0
384.99,61.0
385.06,54.0
385.12,63.0
385.18,59.0
385.24,68.0
385.31,80.0
385.37,65.0
385.43,76.0
385.5,77.0
385.56,82.0
385.62,60.0
385.69,96.0
385.75,81.0
385.81,60.0
385.87,67.0
385.94,70.0
386.0,83.0
386.06,63.0
386.13,60.0
386.19,74.0
386.25,86.0
386.32,82.0
386.38,73.0
386.44,80.0
386.5,86.0
386.57,82.0
386.63,89.0
386.69,75.0
386.76,65.0
386.82,79.0
386.88,82.0
386.95,72.0
387.01,77.0
387.07,72.0
387.13,67.0
387.2,82.0
387.26,73.0
387.32,67.0
387.39,75.0
387.45,97.0
387.51,89.0
387.58,76.0
387.64,83.0
387.7,64.0
387.76,83.0
387.83,93.0
387.89,76.0
387.95,87.0
388.02,62.0
388.08,50.0
388.14,62.0
388.21,58.0
388.27,52.0
388.33,54.0
388.39,48.0
388.46,51.0
388.52,51.0
388.58,45.0
388.65,33.0
388.71,57.0
388.77,45.0
388.84,49.0
388.9,53.0
388.96,48.0
389.02,54.0
389.09,47.0
389.15,62.0
389.21,51.0
389.28,44.0
389.34,43.0
389.4,44.0
389.47,53.0
389.53,34.0
389.59,39.0
389.65,38.0
389.72,36.0
389.78,37.0
389.84,39.0
389.91,80.0
389.97,62.0
390.03,75.0
390.1,68.0
390.16,54.0
390.22,39.0
390.28,61.0
390.35,68.0
390.41,58.0
390.47,47.0
390.54,47.0
390.6,45.0
390.66,56.0
390.73,50.0
390.79,47.0
390.85,58.0
390.91,62.0
390.98,70.0
391.04,67.0
391.1,59.0
391.17,79.0
391.23,51.0
391.29,35.0
391.36,41.0
391.42,41.0
391.48,31.0
391.54,39.0
391.61,28.0
391.67,35.0
391.73,40.0
391.8,-5.0
391.86,12.0
391.92,8.0
391.99,7.0
392.05,15.0
392.11,-2.0
392.17,-12.0
392.24,-12.0
392.3,5.0
392.36,-2.0
392.43,-2.0
392.49,24.0
392.55,5.0
392.62,15.0
392.68,25.0
392.74,33.0
392.8,16.0
392.87,25.0
392.93,22.0
392.99,22.0
393.06,21.0
393.12,9.0
393.18,2.0
393.25,9.0
393.31,11.0
393.37,16.0
393.43,30.0
393.5,37.0
393.56,44.0
393.62,31.0
393.69,47.0
393.75,45.0
393.81,27.0
393.88,25.0
393.94,31.0
394.0,27.0
394.06,43.0
394.13,35.0
394.19,60.0
394.25,79.0
394.32,65.0
394.38,67.0
394.44,65.0
394.51,62.0
394.57,72.0
394.63,60.0
394.69,66.0
394.76,58.0
394.82,59.0
394.88,52.0
394.95,53.0
395.01,60.0
395.07,52.0
395.14,45.0
395.2,71.0
395.26,76.0
395.32,55.0
395.39,66.0
395.45,67.0
395.51,79.0
395.58,89.0
395.64,90.0
395.7,101.0
395.77,90.0
395.83,85.0
395.89,100.0
395.95,91.0
396.02,86.0
396.08,79.0
396.14,89.0
396.21,80.0
396.27,91.0
396.33,88.0
396.4,73.0
396.46,61.0
396.52,85.0
396.58,83.0
396.65,82.0
396.71,84.0
396.77,75.0
396.84,83.0
396.9,90.0
396.96,110.0
397.03,109.0
397.09,93.0
397.15,84.0
397.21,93.0
397.28,90.0
397.34,94.0
397.4,90.0
397.47,90.0
397.53,89.0
397.59,83.0
397.66,99.0
397.72,83.0
397.78,71.0
397.84,74.0
397.91,92.0
397.97,105.0
398.03,94.0
398.1,83.0
398.16,90.0
398.22,84.0
398.29,81.0
398.35,68.0
398.41,71.0
398.47,77.0
398.54,61.0
398.6,54.0
398.66,60.0
398.73,68.0
398.79,57.0
398.85,52.0
398.92,77.0
398.98,75.0
399.04,87.0
399.1,62.0
399.17,72.0
399.23,81.0
399.29,75.0
399.36,72.0
399.42,72.0
399.48,87.0
399.55,78.0
399.61,93.0
399.67,71.0
399.73,64.0
399.8,86.0
399.86,97.0
399.92,100.0
399.99,85.0
400.05,88.0
400.11,72.0
400.18,86.0
400.24,99.0
400.3,112.0
400.36,88.0
400.43,82.0
400.49,86.0
400.55,102.0
400.62,114.0
400.68,97.0
400.74,106.0
400.81,115.0
400.87,112.0
400.93,123.0
400.99,90.0
401.06,90.0
401.12,83.0
401.18,115.0
401.25,121.0
401.31,109.0
401.37,102.0
401.44,113.0
401.5,105.0
401.56,118.0
401.62,119.0
401.69,99.0
401.75,98.0
401.81,104.0
401.88,93.0
401.94,87.0
402.0,86.0
402.07,116.0
402.13,102.0
402.19,103.0
402.25,120.0
402.32,108.0
402.38,106.0
402.44,112.0
402.51,105.0
402.57,123.0
402.63,129.0
402.7,125.0
402.76,110.0
402.82,124.0
402.88,123.0
402.95,115.0
403.01,103.0
403.07,107.0
403.14,103.0
403.2,95.0
403.26,101.0
403.33,99.0
403.39,97.0
403.45,94.0
403.51,93.0
403.58,94.0
403.64,86.0
403.7,93.0
403.77,91.0
403.83,93.0
403.89,93.0
403.96,105.0
404.02,94.0
404.08,92.0
404.14,103.0
404.21,123.0
404.27,98.0
404.33,95.0
404.4,101.0
404.46,77.0
404.52,81.0
404.59,95.0
404.65,72.0
404.71,84.0
404.77,94.0
404.84,109.0
404.9,94.0
404.96,89.0
405.03,72.0
405.09,88.0
405.15,81.0
405.22,72.0
405.28,86.0
405.34,83.0
405.4,92.0
405.47,90.0
405.53,88.0
405.59,104.0
405.66,94.0
405.72,68.0
405.78,76.0
405.85,72.0
405.91,74.0
405.97,73.0
406.03,68.0
406.1,70.0
406.16,85.0
406.22,55.0
406.29,83.0
406.35,63.0
406.41,71.0
406.48,76.0
406.54,86.0
406.6,73.0
406.66,61.0
406.73,64.0
406.79,85.0
406.85,76.0
406.92,81.0
406.98,83.0
407.04,52.0
407.11,71.0
407.17,72.0
407.23,59.0
407.29,57.0
407.36,69.0
407.42,60.0
407.48,53.0
407.55,56.0
407.61,83.0
407.67,101.0
407.74,95.0
407.8,88.0
407.86,105.0
407.92,99.0
407.99,79.0
408.05,101.0
408.11,95.0
408.18,90.0
408.24,72.0
408.3,79.0
408.37,84.0
408.43,64.0
408.49,72.0
408.55,82.0
408.62,85.0
408.68,74.0
408.74,74.0
408.81,65.0
408.87,65.0
408.93,46.0
409.0,49.0
409.06,79.0
409.12,71.0
409.18,61.0
409.25,52.0
409.31,51.0
409.37,70.0
409.44,68.0
409.5,44.0
409.56,58.0
409.63,65.0
409.69,63.0
409.75,57.0
409.81,56.0
409.88,56.0
409.94,41.0
410.0,43.0
410.07,46.0
410.13,57.0
410.19,64.0
410.26,31.0
410.32,38.0
410.38,62.0
410.44,53.0
410.51,72.0
410.57,54.0
410.63,78.0
410.7,54.0
410.76,63.0
410.82,64.0
410.89,47.0
410.95,45.0
411.01,49.0
411.07,43.0
411.14,57.0
411.2,50.0
411.26,34.0
411.33,56.0
411.39,70.0
411.45,59.0
411.52,64.0
411.58,70.0
411.64,71.0
411.7,61.0
411.77,63.0
411.83,58.0
411.89,71.0
411.96,88.0
412.02,96.0
412.08,66.0
412.15,76.0
412.21,79.0
412.27,100.0
412.33,88.0
412.4,82.0
412.46,81.0
412.52,83.0
412.59,93.0
412.65,94.0
412.71,94.0
412.78,89.0
412.84,83.0
412.9,80.0
412.96,61.0
413.03,59.0
413.09,67.0
413.15,68.0
413.22,74.0
413.28,76.0
413.34,66.0
413.41,74.0
413.47,72.0
413.53,86.0
413.59,75.0
413.66,54.0
413.72,79.0
413.78,64.0
413.85,63.0
413.91,64.0
413.97,60.0
414.04,66.0
414.1,58.0
414.16,60.0
414.22,51.0
414.29,69.0
414.35,62.0
414.41,57.0
414.48,59.0
414.54,53.0
414.6,64.0
414.67,57.0
414.73,56.0
414.79,57.0
414.85,39.0
414.92,47.0
414.98,42.0
415.04,48.0
415.11,64.0
415.17,46.0
415.23,25.0
415.3,16.0
415.36,25.0
415.42,40.0
415.48,25.0
415.55,34.0
415.61,27.0
415.67,34.0
415.74,54.0
415.8,35.0
415.86,49.0
415.93,32.0
415.99,22.0
416.05,25.0
416.11,16.0
416.18,6.0
416.24,12.0
416.3,2.0
416.37,24.0
416.43,32.0
416.49,27.0
416.56,22.0
416.62,7.0
416.68,17.0
416.74,34.0
416.81,23.0
416.87,10.0
416.93,7.0
417.0,12.0
417.06,9.0
417.12,8.0
417.19,13.0
417.25,21.0
417.31,24.0
417.37,17.0
417.44,4.0
417.5,-18.0
417.56,-15.0
417.63,0.0
417.69,-5.0
417.75,-5.0
417.82,13.0
417.88,15.0
417.94,3.0
418.0,6.0
418.07,-23.0
418.13,-18.0
418.19,9.0
418.26,-7.0
418.32,10.0
418.38,12.0
418.45,32.0
418.51,35.0
418.57,38.0
418.63,42.0
418.7,23.0
418.76,21.0
418.82,18.0
418.89,24.0
418.95,25.0
419.01,21.0
419.08,35.0
419.14,33.0
419.2,56.0
419.26,74.0
419.33,61.0
419.39,47.0
419.45,42.0
419.52,61.0
419.58,56.0
419.64,40.0
419.71,67.0
419.77,51.0
419.83,59.0
419.89,71.0
419.96,52.0
420.02,44.0
420.08,34.0
420.15,49.0
420.21,52.0
420.27,60.0
420.34,56.0
420.4,45.0
420.46,56.0
420.52,47.0
420.59,51.0
420.65,51.0
420.71,56.0
420.78,64.0
420.84,41.0
420.9,62.0
420.97,56.0
421.03,47.0
421.09,72.0
421.15,62.0
421.22,56.0
421.28,74.0
421.34,66.0
421.41,78.0
421.47,75.0
421.53,76.0
421.6,61.0
421.66,61.0
421.72,56.0
421.78,53.0
421.85,67.0
421.91,60.0
421.97,78.0
422.04,76.0
422.1,75.0
422.16,73.0
422.23,73.0
422.29,88.0
422.35,94.0
422.41,89.0
422.48,98.0
422.54,96.0
422.6,122.0
422.67,101.0
422.73,97.0
422.79,96.0
422.86,100.0
422.92,111.0
422.98,107.0
423.04,105.0
423.11,109.0
423.17,92.0
423.23,88.0
423.3,70.0
423.36,84.0
423.42,89.0
423.49,86.0
423.55,80.0
423.61,72.0
423.67,70.0
423.74,66.0
423.8,78.0
423.86,85.0
423.93,69.0
423.99,75.0
424.05,75.0
424.12,61.0
424.18,62.0
424.24,48.0
424.3,51.0
424.37,56.0
424.43,46.0
424.49,71.0
424.56,62.0
424.62,63.0
424.68,82.0
424.75,83.0
424.81,82.0
424.87,89.0
424.93,93.0
425.0,104.0
425.06,103.0
425.12,104.0
425.19,101.0
425.25,103.0
425.31,101.0
425.38,95.0
425.44,102.0
425.5,95.0
425.56,103.0
425.63,98.0
425.69,83.0
425.75,88.0
425.82,81.0
425.88,82.0
425.94,92.0
426.01,121.0
426.07,123.0
426.13,126.0
426.19,104.0
426.26,103.0
426.32,93.0
426.38,98.0
426.45,97.0
426.51,82.0
426.57,92.0
426.64,106.0
426.7,115.0
426.76,106.0
426.82,100.0
426.89,99.0
426.95,98.0
427.01,118.0
427.08,127.0
427.14,116.0
427.2,114.0
427.27,114.0
427.33,128.0
427.39,122.0
427.45,114.0
427.52,119.0
427.58,118.0
427.64,115.0
427.71,117.0
427.77,102.0
427.83,116.0
427.9,116.0
427.96,127.0
428.02,137.0
428.08,128.0
428.15,127.0
428.21,121.0
428.27,128.0
428.34,153.0
428.4,161.0
428.46,122.0
428.53,130.0
428.59,144.0
428.65,131.0
428.71,144.0
428.78,161.0
428.84,129.0
428.9,125.0
428.97,135.0
429.03,118.0
429.09,133.0
429.16,144.0
429.22,129.0
429.28,137.0
429.34,125.0
429.41,125.0
429.47,145.0
429.53,151.0
429.6,150.0
429.66,133.0
429.72,133.0
429.79,143.0
429.85,144.0
429.91,152.0
429.97,129.0
430.04,138.0
430.1,130.0
430.16,166.0
430.23,139.0
430.29,150.0
430.35,140.0
430.42,131.0
430.48,117.0
430.54,125.0
430.6,153.0
430.67,130.0
430.73,107.0
430.79,112.0
430.86,122.0
430.92,137.0
430.98,107.0
431.05,102.0
431.11,115.0
431.17,101.0
431.23,102.0
431.3,116.0
431.36,106.0
431.42,100.0
431.49,118.0
431.55,104.0
431.61,111.0
431.68,114.0
431.74,125.0
431.8,120.0
431.86,119.0
431.93,138.0
431.99,128.0
432.05,137.0
432.12,113.0
432.18,111.0
432.24,94.0
432.31,98.0
432.37,78.0
432.43,78.0
432.49,78.0
432.56,89.0
432.62,87.0
432.68,85.0
432.75,66.0
432.81,78.0
432.87,56.0
432.94,64.0
433.0,54.0
433.06,53.0
433.12,69.0
433.19,54.0
433.25,47.0
433.31,47.0
433.38,57.0
433.44,47.0
433.5,59.0
433.57,59.0
433.63,51.0
433.69,47.0
433.75,26.0
433.82,34.0
433.88,31.0
433.94,41.0
434.01,54.0
434.07,56.0
434.13,55.0
434.2,41.0
434.26,32.0
434.32,38.0
434.38,43.0
434.45,27.0
434.51,2.0
434.57,27.0
434.64,30.0
434.7,49.0
434.76,45.0
434.83,36.0
434.89,51.0
434.95,54.0
435.01,45.0
435.08,49.0
435.14,50.0
435.2,43.0
435.27,52.0
435.33,59.0
435.39,60.0
435.46,56.0
435.52,45.0
435.58,52.0
435.64,63.0
435.71,77.0
435.77,95.0
435.83,64.0
435.9,80.0
435.96,63.0
436.02,49.0
436.09,61.0
436.15,76.0
436.21,86.0
436.27,86.0
436.34,104.0
436.4,107.0
436.46,96.0
436.53,98.0
436.59,90.0
436.65,90.0
436.72,98.0
436.78,101.0
436.84,100.0
436.9,111.0
436.97,94.0
437.03,76.0
437.09,123.0
437.16,97.0
437.22,91.0
437.28,90.0
437.35,87.0
437.41,78.0
437.47,91.0
437.53,79.0
437.6,69.0
437.66,110.0
437.72,105.0
437.79,101.0
437.85,104.0
437.91,91.0
437.98,89.0
438.04,90.0
438.1,93.0
438.16,88.0
438.23,78.0
438.29,89.0
438.35,88.0
438.42,96.0
438.48,76.0
438.54,77.0
438.61,81.0
438.67,77.0
438.73,66.0
438.79,63.0
438.86,79.0
438.92,81.0
438.98,65.0
439.05,81.0
439.11,116.0
439.17,105.0
439.24,94.0
439.3,99.0
439.36,103.0
439.42,106.0
439.49,114.0
439.55,119.0
439.61,91.0
439.68,100.0
439.74,100.0
439.8,73.0
439.87,70.0
439.93,93.0
439.99,100.0
440.05,95.0
440.12,96.0
440.18,86.0
440.24,87.0
440.31,93.0
440.37,87.0
440.43,102.0
440.5,103.0
440.56,84.0
440.62,91.0
440.68,88.0
440.75,78.0
440.81,88.0
440.87,85.0
440.94,89.0
441.0,70.0
441.06,67.0
441.13,79.0
441.19,61.0
441.25,83.0
441.31,79.0
441.38,81.0
441.44,70.0
441.5,67.0
441.57,85.0
441.63,70.0
441.69,61.0
441.76,76.0
441.82,70.0
441.88,75.0
441.94,60.0
442.01,48.0
442.07,67.0
442.13,40.0
442.2,54.0
442.26,46.0
442.32,44.0
442.39,53.0
442.45,52.0
442.51,46.0
442.57,41.0
442.64,56.0
442.7,41.0
442.76,49.0
442.83,11.0
442.89,13.0
442.95,29.0
443.02,24.0
443.08,8.0
443.14,32.0
443.2,28.0
443.27,23.0
443.33,16.0
443.39,5.0
443.46,8.0
443.52,-14.0
443.58,-15.0
443.65,-4.0
443.71,-1.0
443.77,-6.0
443.83,0.0
443.9,-6.0
443.96,-18.0
444.02,-7.0
444.09,-24.0
444.15,-9.0
444.21,-14.0
444.28,-2.0
444.34,-9.0
444.4,-3.0
444.46,-15.0
444.53,-7.0
444.59,5.0
444.65,-3.0
444.72,-2.0
444.78,0.0
444.84,4.0
444.91,16.0
444.97,4.0
445.03,-10.0
445.09,-18.0
445.16,20.0
445.22,11.0
445.28,2.0
445.35,13.0
445.41,20.0
445.47,45.0
445.54,25.0
445.6,63.0
445.66,45.0
445.72,64.0
445.79,65.0
445.85,39.0
445.91,42.0
445.98,54.0
446.04,45.0
446.1,61.0
446.17,65.0
446.23,61.0
446.29,82.0
446.35,69.0
446.42,56.0
446.48,68.0
446.54,83.0
446.61,86.0
446.67,71.0
446.73,71.0
446.8,70.0
446.86,57.0
446.92,72.0
446.98,97.0
447.05,81.0
447.11,91.0
447.17,92.0
447.24,67.0
447.3,81.0
447.36,81.0
447.43,68.0
447.49,73.0
447.55,67.0
447.61,86.0
447.68,94.0
447.74,96.0
447.8,58.0
447.87,49.0
447.93,67.0
447.99,69.0
448.06,50.0
448.12,50.0
448.18,55.0
448.24,39.0
448.31,53.0
448.37,72.0
448.43,68.0
448.5,80.0
448.56,54.0
448.62,62.0
448.69,58.0
448.75,56.0
448.81,66.0
448.87,64.0
448.94,54.0
449.0,61.0
449.06,67.0
449.13,73.0
449.19,70.0
449.25,64.0
449.32,63.0
449.38,76.0
449.44,70.0
449.5,72.0
449.57,72.0
449.63,71.0
449.69,59.0
449.76,54.0
449.82,43.0
449.88,59.0
449.95,63.0
450.01,59.0
450.07,65.0
450.13,71.0
450.2,65.0
450.26,56.0
450.32,73.0
450.39,53.0
450.45,61.0
450.51,43.0
450.58,57.0
450.64,35.0
450.7,53.0
450.76,50.0
450.83,54.0
450.89,79.0
450.95,64.0
451.02,76.0
451.08,101.0
451.14,90.0
451.21,87.0
451.27,83.0
451.33,79.0
451.39,78.0
451.46,96.0
451.52,98.0
451.58,74.0
451.65,95.0
451.71,79.0
451.77,78.0
451.84,89.0
451.9,101.0
451.96,91.0
452.02,91.0
452.09,109.0
452.15,109.0
452.21,119.0
452.28,123.0
452.34,133.0
452.4,127.0
452.47,139.0
452.53,136.0
452.59,133.0
452.65,139.0
452.72,124.0
452.78,144.0
452.84,127.0
452.91,114.0
452.97,124.0
453.03,111.0
453.1,120.0
453.16,128.0
453.22,147.0
453.28,131.0
453.35,128.0
453.41,148.0
453.47,150.0
453.54,133.0
453.6,123.0
453.66,124.0
453.73,139.0
453.79,123.0
453.85,134.0
453.91,133.0
453.98,133.0
454.04,141.0
454.1,161.0
454.17,148.0
454.23,146.0
454.29,138.0
454.36,148.0
454.42,150.0
454.48,167.0
454.54,179.0
454.61,171.0
454.67,184.0
454.73,180.0
454.8,185.0
454.86,159.0
454.92,171.0
454.99,157.0
455.05,155.0
455.11,161.0
455.17,146.0
455.24,144.0
455.3,115.0
455.36,131.0
455.43,131.0
455.49,139.0
455.55,145.0
455.62,152.0
455.68,133.0
455.74,139.0
455.8,146.0
455.87,161.0
455.93,171.0
455.99,150.0
456.06,162.0
456.12,142.0
456.18,138.0
456.25,167.0
456.31,164.0
456.37,181.0
456.43,155.0
456.5,150.0
456.56,156.0
456.62,136.0
456.69,142.0
456.75,121.0
456.81,119.0
456.88,120.0
456.94,131.0
457.0,133.0
457.06,113.0
457.13,119.0
457.19,136.0
457.25,142.0
457.32,125.0
457.38,135.0
457.44,144.0
457.51,129.0
457.57,108.0
457.63,106.0
457.69,113.0
457.76,115.0
457.82,108.0
457.88,119.0
457.95,117.0
458.01,95.0
458.07,121.0
458.14,123.0
458.2,142.0
458.26,135.0
458.32,108.0
458.39,109.0
458.45,109.0
458.51,76.0
458.58,91.0
458.64,92.0
458.7,91.0
458.77,103.0
458.83,82.0
458.89,83.0
458.95,87.0
459.02,82.0
459.08,75.0
459.14,75.0
459.21,105.0
459.27,98.0
459.33,78.0
459.4,77.0
459.46,68.0
459.52,68.0
459.58,85.0
459.65,62.0
459.71,77.0
459.77,86.0
459.84,84.0
459.9,74.0
459.96,44.0
460.03,45.0
460.09,45.0
460.15,56.0
460.21,61.0
460.28,54.0
460.34,59.0
460.4,48.0
460.47,54.0
460.53,61.0
460.59,40.0
460.66,51.0
460.72,61.0
460.78,62.0
460.84,73.0
460.91,54.0
460.97,73.0
461.03,58.0
461.1,61.0
461.16,92.0
461.22,78.0
461.29,69.0
461.35,54.0
461.41,87.0
461.47,72.0
461.54,66.0
461.6,69.0
461.66,45.0
461.73,59.0
461.79,59.0
461.85,44.0
461.92,70.0
461.98,59.0
462.04,57.0
462.1,67.0
462.17,66.0
462.23,57.0
462.29,65.0
462.36,61.0
462.42,75.0
462.48,78.0
462.55,50.0
462.61,51.0
462.67,50.0
462.73,71.0
462.8,56.0
462.86,56.0
462.92,71.0
462.99,82.0
463.05,82.0
463.11,87.0
463.18,84.0
463.24,63.0
463.3,80.0
463.36,69.0
463.43,73.0
463.49,88.0
463.55,95.0
463.62,101.0
463.68,100.0
463.74,116.0
463.81,127.0
463.87,86.0
463.93,96.0
463.99,112.0
464.06,114.0
464.12,115.0
464.18,95.0
464.25,98.0
464.31,87.0
464.37,74.0
464.44,49.0
464.5,64.0
464.56,78.0
464.62,70.0
464.69,78.0
464.75,72.0
464.81,82.0
464.88,85.0
464.94,74.0
465.0,68.0
465.07,59.0
465.13,44.0
465.19,62.0
465.25,53.0
465.32,51.0
465.38,57.0
465.44,55.0
465.51,69.0
465.57,65.0
465.63,55.0
465.7,45.0
465.76,49.0
465.82,39.0
465.88,44.0
465.95,51.0
466.01,54.0
466.07,54.0
466.14,38.0
466.2,45.0
466.26,30.0
466.33,30.0
466.39,58.0
466.45,51.0
466.51,54.0
466.58,36.0
466.64,39.0
466.7,45.0
466.77,37.0
466.83,46.0
466.89,46.0
466.96,47.0
467.02,26.0
467.08,29.0
467.14,34.0
467.21,13.0
467.27,13.0
467.33,30.0
467.4,9.0
467.46,6.0
467.52,-1.0
467.59,1.0
467.65,5.0
467.71,16.0
467.77,26.0
467.84,6.0
467.9,26.0
467.96,28.0
468.03,24.0
468.09,28.0
468.15,18.0
468.22,37.0
468.28,7.0
468.34,17.0
468.4,14.0
468.47,18.0
468.53,33.0
468.59,35.0
468.66,43.0
468.72,33.0
468.78,9.0
468.85,7.0
468.91,21.0
468.97,61.0
469.03,44.0
469.1,22.0
469.16,33.0
469.22,46.0
469.29,24.0
469.35,20.0
469.41,31.0
469.48,24.0
469.54,28.0
469.6,38.0
469.66,25.0
469.73,20.0
469.79,-11.0
469.85,5.0
469.92,3.0
469.98,19.0
470.04,27.0
470.11,24.0
470.17,30.0
470.23,5.0
470.29,5.0
470.36,18.0
470.42,18.0
470.48,10.0
470.55,7.0
470.61,21.0
470.67,9.0
470.74,31.0
470.8,38.0
470.86,13.0
470.92,15.0
470.99,13.0
471.05,16.0
471.11,13.0
471.18,24.0
471.24,20.0
471.3,1.0
471.37,9.0
471.43,31.0
471.49,38.0
471.55,27.0
471.62,38.0
471.68,41.0
471.74,42.0
471.81,49.0
471.87,60.0
471.93,71.0
472.0,58.0
472.06,52.0
472.12,61.0
472.18,60.0
472.25,83.0
472.31,63.0
472.37,76.0
472.44,81.0
472.5,105.0
472.56,100.0
472.63,85.0
472.69,90.0
472.75,104.0
472.81,89.0
472.88,100.0
472.94,106.0
473.0,94.0
473.07,114.0
473.13,89.0
473.19,123.0
473.26,110.0
473.32,94.0
473.38,129.0
473.44,111.0
473.51,103.0
473.57,104.0
473.63,98.0
473.7,100.0
473.76,114.0
473.82,125.0
473.89,84.0
473.95,118.0
474.01,125.0
474.07,114.0
474.14,104.0
474.2,101.0
474.26,96.0
474.33,100.0
474.39,111.0
474.45,106.0
474.52,94.0
474.58,92.0
474.64,77.0
474.7,84.0
474.77,90.0
474.83,85.0
474.89,83.0
474.96,84.0
475.02,101.0
475.08,93.0
475.15,76.0
475.21,89.0
475.27,89.0
475.33,85.0
475.4,93.0
475.46,66.0
475.52,68.0
475.59,60.0
475.65,71.0
475.71,89.0
475.78,91.0
475.84,59.0
475.9,84.0
475.96,61.0
476.03,56.0
476.09,62.0
476.15,74.0
476.22,75.0
476.28,77.0
476.34,78.0
476.41,76.0
476.47,75.0
476.53,88.0
476.59,80.0
476.66,69.0
476.72,82.0
476.78,80.0
476.85,74.0
476.91,85.0
476.97,109.0
477.04,106.0
477.1,117.0
477.16,104.0
477.22,102.0
477.29,98.0
477.35,106.0
477.41,101.0
477.48,117.0
477.54,130.0
477.6,117.0
477.67,101.0
477.73,113.0
477.79,107.0
477.85,95.0
477.92,95.0
477.98,76.0
478.04,94.0
478.11,112.0
478.17,94.0
478.23,109.0
478.3,111.0
478.36,122.0
478.42,105.0
478.48,109.0
478.55,106.0
478.61,112.0
478.67,140.0
478.74,152.0
478.8,153.0
478.86,138.0
478.93,126.0
478.99,131.0
479.05,127.0
479.11,134.0
479.18,156.0
479.24,141.0
479.3,171.0
479.37,169.0
479.43,166.0
479.49,167.0
479.56,184.0
479.62,178.0
479.68,173.0
479.74,166.0
479.81,174.0
479.87,192.0
479.93,193.0
480.0,198.0
480.06,191.0
480.12,188.0
480.19,183.0
480.25,186.0
480.31,188.0
480.37,184.0
480.44,181.0
480.5,186.0
480.56,206.0
480.63,187.0
480.69,209.0
480.75,192.0
480.82,183.0
480.88,194.0
480.94,195.0
481.0,185.0
481.07,160.0
481.13,184.0
481.19,159.0
481.26,174.0
481.32,153.0
481.38,166.0
481.45,161.0
481.51,165.0
481.57,187.0
481.63,171.0
481.7,180.0
481.76,181.0
481.82,167.0
481.89,166.0
481.95,161.0
482.01,154.0
482.08,165.0
482.14,160.0
482.2,156.0
482.26,147.0
482.33,143.0
482.39,142.0
482.45,145.0
482.52,133.0
482.58,131.0
482.64,126.0
482.71,132.0
482.77,120.0
482.83,122.0
482.89,125.0
482.96,125.0
483.02,121.0
483.08,126.0
483.15,130.0
483.21,106.0
483.27,104.0
483.34,116.0
483.4,119.0
483.46,114.0
483.52,107.0
483.59,111.0
483.65,100.0
483.71,100.0
483.78,87.0
483.84,91.0
483.9,93.0
483.97,91.0
484.03,81.0
484.09,62.0
484.15,74.0
484.22,68.0
484.28,76.0
484.34,89.0
484.41,82.0
484.47,89.0
484.53,82.0
484.6,81.0
484.66,78.0
484.72,70.0
484.78,59.0
484.85,56.0
484.91,52.0
484.97,77.0
485.04,65.0
485.1,56.0
485.16,63.0
485.23,78.0
485.29,79.0
485.35,83.0
485.41,74.0
485.48,48.0
485.54,45.0
485.6,65.0
485.67,57.0
485.73,49.0
485.79,49.0
485.86,51.0
485.92,46.0
485.98,49.0
486.04,32.0
486.11,37.0
486.17,34.0
486.23,38.0
486.3,46.0
486.36,53.0
486.42,46.0
486.49,48.0
486.55,46.0
486.61,39.0
486.67,42.0
486.74,39.0
486.8,43.0
486.86,26.0
486.93,27.0
486.99,34.0
487.05,41.0
487.12,34.0
487.18,43.0
487.24,35.0
487.3,30.0
487.37,32.0
487.43,21.0
487.49,22.0
487.56,15.0
487.62,12.0
487.68,16.0
487.75,38.0
487.81,58.0
487.87,28.0
487.93,48.0
488.0,46.0
488.06,59.0
488.12,56.0
488.19,45.0
488.25,64.0
488.31,63.0
488.38,62.0
488.44,61.0
488.5,70.0
488.56,57.0
488.63,59.0
488.69,65.0
488.75,71.0
488.82,77.0
488.88,55.0
488.94,54.0
489.01,67.0
489.07,75.0
489.13,81.0
489.19,72.0
489.26,82.0
489.32,84.0
489.38,75.0
489.45,92.0
489.51,90.0
489.57,56.0
489.64,75.0
489.7,60.0
489.76,81.0
489.82,76.0
489.89,90.0
489.95,86.0
490.01,81.0
490.08,93.0
490.14,80.0
490.2,88.0
490.27,82.0
490.33,87.0
490.39,88.0
490.45,86.0
490.52,83.0
490.58,96.0
490.64,98.0
490.71,100.0
490.77,113.0
490.83,104.0
490.9,103.0
490.96,109.0
491.02,107.0
491.08,94.0
491.15,97.0
491.21,89.0
491.27,78.0
491.34,67.0
491.4,93.0
491.46,77.0
491.53,71.0
491.59,90.0
491.65,71.0
491.71,83.0
491.78,82.0
491.84,62.0
491.9,64.0
491.97,71.0
492.03,62.0
492.09,82.0
492.16,78.0
492.22,68.0
492.28,66.0
492.34,70.0
492.41,70.0
492.47,72.0
492.53,78.0
492.6,77.0
492.66,60.0
492.72,56.0
492.79,45.0
492.85,56.0
492.91,69.0
492.97,67.0
493.04,82.0
493.1,74.0
493.16,76.0
493.23,93.0
493.29,81.0
493.35,85.0
493.42,66.0
493.48,68.0
493.54,79.0
493.6,72.0
493.67,79.0
493.73,66.0
493.79,76.0
493.86,98.0
493.92,82.0
493.98,70.0
494.05,81.0
494.11,65.0
494.17,68.0
494.23,78.0
494.3,57.0
494.36,71.0
494.42,93.0
494.49,75.0
494.55,68.0
494.61,54.0
494.68,58.0
494.74,53.0
494.8,50.0
494.86,57.0
494.93,43.0
494.99,53.0
495.05,55.0
495.12,41.0
495.18,44.0
495.24,43.0
495.31,38.0
495.37,51.0
495.43,60.0
495.49,52.0
495.56,46.0
495.62,46.0
495.68,34.0
495.75,52.0
495.81,37.0
495.87,35.0
495.94,49.0
496.0,46.0
496.06,32.0
496.12,45.0
496.19,51.0
496.25,60.0
496.31,71.0
496.38,60.0
496.44,67.0
496.5,88.0
496.57,80.0
496.63,78.0
496.69,73.0
496.75,89.0
496.82,70.0
496.88,74.0
496.94,89.0
497.01,78.0
497.07,99.0
497.13,104.0
497.2,84.0
497.26,78.0
497.32,99.0
497.38,94.0
497.45,104.0
497.51,89.0
497.57,82.0
497.64,86.0
497.7,86.0
497.76,108.0
497.83,114.0
497.89,109.0
497.95,110.0
498.01,104.0
498.08,127.0
498.14,107.0
498.2,107.0
498.27,100.0
498.33,110.0
498.39,98.0
498.46,81.0
498.52,104.0
498.58,100.0
498.64,96.0
498.71,88.0
498.77,87.0
498.83,93.0
498.9,74.0
498.96,87.0
499.02,67.0
499.09,69.0
499.15,93.0
499.21,80.0
499.27,81.0
499.34,100.0
499.4,92.0
499.46,89.0
499.53,89.0
499.59,96.0
499.65,69.0
499.72,72.0
499.78,70.0
499.84,57.0
499.9,57.0
499.97,86.0
500.03,79.0
500.09,54.0
500.16,44.0
500.22,51.0
500.28,59.0
500.35,39.0
500.41,59.0
500.47,59.0
500.53,39.0
500.6,61.0
500.66,35.0
500.72,49.0
500.79,34.0
500.85,45.0
500.91,51.0
500.98,16.0
501.04,46.0
501.1,37.0
501.16,21.0
501.23,7.0
501.29,38.0
501.35,38.0
501.42,23.0
501.48,44.0
501.54,43.0
501.61,16.0
501.67,35.0
501.73,61.0
501.79,48.0
501.86,64.0
501.92,80.0
501.98,60.0
502.05,87.0
502.11,73.0
502.17,65.0
502.24,76.0
502.3,90.0
502.36,111.0
502.42,104.0
502.49,85.0
502.55,68.0
502.61,77.0
502.68,78.0
502.74,98.0
502.8,99.0
502.87,78.0
502.93,99.0
502.99,99.0
503.05,74.0
503.12,86.0
503.18,111.0
503.24,98.0
503.31,98.0
503.37,93.0
503.43,114.0
503.5,113.0
503.56,87.0
503.62,83.0
503.68,102.0
503.75,80.0
503.81,90.0
503.87,85.0
503.94,81.0
504.0,84.0
504.06,100.0
504.13,106.0
504.19,106.0
504.25,102.0
504.31,93.0
504.38,110.0
504.44,96.0
504.5,82.0
504.57,60.0
504.63,87.0
504.69,89.0
504.76,92.0
504.82,92.0
504.88,103.0
504.94,98.0
505.01,83.0
505.07,115.0
505.13,108.0
505.2,111.0
505.26,96.0
505.32,100.0
505.39,106.0
505.45,125.0
505.51,108.0
505.57,127.0
505.64,117.0
505.7,115.0
505.76,120.0
505.83,122.0
505.89,122.0
505.95,116.0
506.02,108.0
506.08,114.0
506.14,117.0
506.2,138.0
506.27,137.0
506.33,137.0
506.39,144.0
506.46,163.0
506.52,134.0
506.58,125.0
506.65,149.0
506.71,127.0
506.77,140.0
506.83,149.0
506.9,154.0
506.96,132.0
507.02,131.0
507.09,139.0
507.15,130.0
507.21,135.0
507.28,135.0
507.34,139.0
507.4,140.0
507.46,136.0
507.53,133.0
507.59,138.0
507.65,122.0
507.72,125.0
507.78,127.0
507.84,121.0
507.91,124.0
507.97,128.0
508.03,152.0
508.09,138.0
508.16,137.0
508.22,140.0
508.28,128.0
508.35,155.0
508.41,142.0
508.47,137.0
508.54,131.0
508.6,126.0
508.66,113.0
508.72,109.0
508.79,109.0
508.85,100.0
508.91,101.0
508.98,107.0
509.04,89.0
509.1,107.0
509.17,86.0
509.23,81.0
509.29,71.0
509.35,86.0
509.42,86.0
509.48,88.0
509.54,71.0
509.61,78.0
509.67,101.0
509.73,72.0
509.8,61.0
509.86,67.0
509.92,57.0
509.98,67.0
510.05,60.0
510.11,87.0
510.17,85.0
510.24,65.0
510.3,60.0
510.36,66.0
510.43,71.0
510.49,59.0
510.55,60.0
510.61,46.0
510.68,48.0
510.74,59.0
510.8,65.0
510.87,67.0
510.93,62.0
510.99,84.0
511.06,82.0
511.12,90.0
511.18,73.0
511.24,56.0
511.31,54.0
511.37,57.0
511.43,78.0
511.5,41.0
511.56,33.0
511.62,46.0
511.69,67.0
511.75,67.0
511.81,49.0
511.87,56.0
511.94,62.0
512.0,54.0
512.06,63.0
512.13,56.0
512.19,63.0
512.25,79.0
512.32,71.0
512.38,70.0
512.44,40.0
512.5,73.0
512.57,73.0
512.63,67.0
512.69,93.0
512.76,86.0
512.82,73.0
512.88,92.0
512.95,97.0
513.01,108.0
513.07,89.0
513.13,103.0
513.2,111.0
513.26,120.0
513.32,119.0
513.39,119.0
513.45,122.0
513.51,107.0
513.58,132.0
513.64,117.0
513.7,120.0
513.76,107.0
513.83,106.0
513.89,114.0
513.95,101.0
514.02,74.0
514.08,86.0
514.14,87.0
514.21,71.0
514.27,70.0
514.33,71.0
514.39,76.0
514.46,80.0
514.52,73.0
514.58,60.0
514.65,52.0
514.71,67.0
514.77,87.0
514.84,81.0
514.9,63.0
514.96,78.0
515.02,74.0
515.09,69.0
515.15,63.0
515.21,53.0
515.28,86.0
515.34,90.0
515.4,69.0
515.47,56.0
515.53,71.0
515.59,76.0
515.65,49.0
515.72,43.0
515.78,62.0
515.84,60.0
515.91,54.0
515.97,55.0
516.03,51.0
516.1,40.0
516.16,45.0
516.22,40.0
516.28,67.0
516.35,59.0
516.41,64.0
516.47,49.0
516.54,51.0
516.6,60.0
516.66,53.0
516.73,40.0
516.79,76.0
516.85,68.0
516.91,54.0
516.98,38.0
517.04,29.0
517.1,52.0
517.17,31.0
517.23,31.0
517.29,39.0
517.36,51.0
517.42,46.0
517.48,21.0
517.54,40.0
517.61,26.0
517.67,38.0
517.73,35.0
517.8,35.0
517.86,77.0
517.92,60.0
517.99,53.0
518.05,48.0
518.11,24.0
518.17,23.0
518.24,21.0
518.3,17.0
518.36,43.0
518.43,45.0
518.49,38.0
518.55,34.0
518.62,40.0
518.68,40.0
518.74,42.0
518.8,62.0
518.87,69.0
518.93,45.0
518.99,44.0
519.06,43.0
519.12,54.0
519.18,32.0
519.25,34.0
519.31,49.0
519.37,31.0
519.43,32.0
519.5,54.0
519.56,53.0
519.62,40.0
519.69,57.0
519.75,56.0
519.81,34.0
519.88,36.0
519.94,53.0
520.0,70.0
520.06,72.0
520.13,52.0
520.19,52.0
520.25,64.0
520.32,68.0
520.38,57.0
520.44,62.0
520.51,43.0
520.57,49.0
520.63,39.0
520.69,34.0
520.76,45.0
520.82,40.0
520.88,39.0
520.95,46.0
521.01,33.0
521.07,35.0
521.14,27.0
521.2,40.0
521.26,40.0
521.32,52.0
521.39,45.0
521.45,49.0
521.51,41.0
521.58,32.0
521.64,21.0
521.7,32.0
521.77,49.0
521.83,47.0
521.89,50.0
521.95,59.0
522.02,38.0
522.08,49.0
522.14,49.0
522.21,72.0
522.27,77.0
522.33,78.0
522.4,78.0
522.46,67.0
522.52,61.0
522.58,54.0
522.65,64.0
522.71,67.0
522.77,51.0
522.84,67.0
522.9,75.0
522.96,81.0
523.03,47.0
523.09,52.0
523.15,80.0
523.21,64.0
523.28,65.0
523.34,60.0
523.4,76.0
523.47,48.0
523.53,49.0
523.59,55.0
523.66,51.0
523.72,71.0
523.78,67.0
523.84,55.0
523.91,65.0
523.97,45.0
524.03,51.0
524.1,57.0
524.16,53.0
524.22,60.0
524.29,77.0
524.35,80.0
524.41,87.0
524.47,82.0
524.54,67.0
524.6,75.0
524.66,78.0
524.73,66.0
524.79,65.0
524.85,43.0
524.92,46.0
524.98,42.0
525.04,59.0
525.1,64.0
525.17,57.0
525.23,60.0
525.29,65.0
525.36,71.0
525.42,54.0
525.48,27.0
525.55,41.0
525.61,19.0
525.67,26.0
525.73,25.0
525.8,24.0
525.86,48.0
525.92,41.0
525.99,58.0
526.05,53.0
526.11,39.0
526.18,45.0
526.24,52.0
526.3,43.0
526.36,43.0
526.43,38.0
526.49,29.0
526.55,52.0
526.62,52.0
526.68,30.0
526.74,28.0
526.81,38.0
526.87,21.0
526.93,27.0
526.99,31.0
527.06,31.0
527.12,24.0
527.18,27.0
527.25,38.0
527.31,1.0
527.37,-3.0
527.44,18.0
527.5,31.0
527.56,29.0
527.62,8.0
527.69,28.0
527.75,37.0
527.81,22.0
527.88,9.0
527.94,8.0
528.0,32.0
528.07,14.0
528.13,5.0
528.19,19.0
528.25,4.0
528.32,22.0
528.38,30.0
528.44,30.0
528.51,41.0
528.57,37.0
528.63,47.0
528.7,57.0
528.76,50.0
528.82,46.0
528.88,48.0
528.95,44.0
529.01,36.0
529.07,40.0
529.14,68.0
529.2,65.0
529.26,43.0
529.33,40.0
529.39,63.0
529.45,72.0
529.51,80.0
529.58,90.0
529.64,63.0
529.7,68.0
529.77,74.0
529.83,90.0
529.89,91.0
529.96,77.0
530.02,88.0
530.08,92.0
530.14,104.0
530.21,109.0
530.27,112.0
530.33,98.0
530.4,110.0
530.46,124.0
530.52,135.0
530.59,150.0
530.65,113.0
530.71,129.0
530.77,128.0
530.84,140.0
530.9,144.0
530.96,143.0
531.03,151.0
531.09,142.0
531.15,127.0
531.22,132.0
531.28,137.0
531.34,145.0
531.4,126.0
531.47,154.0
531.53,155.0
531.59,134.0
531.66,140.0
531.72,118.0
531.78,153.0
531.85,140.0
531.91,150.0
531.97,143.0
532.03,151.0
532.1,136.0
532.16,143.0
532.22,140.0
532.29,141.0
532.35,147.0
532.41,144.0
532.48,131.0
532.54,125.0
532.6,132.0
532.66,137.0
532.73,148.0
532.79,128.0
532.85,132.0
532.92,147.0
532.98,154.0
533.04,137.0
533.11,127.0
533.17,137.0
533.23,145.0
533.29,154.0
533.36,153.0
533.42,134.0
533.48,125.0
533.55,129.0
533.61,140.0
533.67,126.0
533.74,147.0
533.8,148.0
533.86,161.0
533.92,151.0
533.99,135.0
534.05,147.0
534.11,143.0
534.18,139.0
534.24,124.0
534.3,105.0
534.37,118.0
534.43,134.0
534.49,140.0
534.55,139.0
534.62,136.0
534.68,150.0
534.74,126.0
534.81,105.0
534.87,121.0
534.93,126.0
535.0,130.0
535.06,136.0
535.12,140.0
535.18,131.0
535.25,122.0
535.31,121.0
535.37,129.0
535.44,119.0
535.5,130.0
535.56,132.0
535.63,129.0
535.69,131.0
535.75,119.0
535.81,122.0
535.88,117.0
535.94,114.0
536.0,135.0
536.07,120.0
536.13,100.0
536.19,102.0
536.26,94.0
536.32,96.0
536.38,92.0
536.44,103.0
536.51,108.0
536.57,100.0
536.63,107.0
536.7,107.0
536.76,103.0
536.82,116.0
536.89,107.0
536.95,110.0
537.01,121.0
537.07,117.0
537.14,107.0
537.2,99.0
537.26,106.0
537.33,110.0
537.39,108.0
537.45,105.0
537.52,107.0
537.58,103.0
537.64,112.0
537.7,101.0
537.77,103.0
537.83,100.0
537.89,115.0
537.96,109.0
538.02,118.0
538.08,116.0
538.15,120.0
538.21,137.0
538.27,128.0
538.33,125.0
538.4,126.0
538.46,111.0
538.52,112.0
538.59,112.0
538.65,123.0
538.71,125.0
538.78,113.0
538.84,128.0
538.9,122.0
538.96,120.0
539.03,103.0
539.09,101.0
539.15,98.0
539.22,93.0
539.28,100.0
539.34,98.0
539.41,110.0
539.47,96.0
539.53,84.0
539.59,94.0
539.66,106.0
539.72,92.0
539.78,87.0
539.85,107.0
539.91,122.0
539.97,109.0
540.04,131.0
540.1,110.0
540.16,114.0
540.22,83.0
540.29,71.0
540.35,103.0
540.41,96.0
540.48,78.0
540.54,107.0
540.6,92.0
540.67,93.0
540.73,81.0
540.79,77.0
540.85,96.0
540.92,91.0
540.98,85.0
541.04,84.0
541.11,85.0
541.17,89.0
541.23,96.0
541.3,89.0
541.36,80.0
541.42,86.0
541.48,92.0
541.55,112.0
541.61,94.0
541.67,101.0
541.74,98.0
541.8,95.0
541.86,89.0
541.93,90.0
541.99,95.0
542.05,81.0
542.11,106.0
542.18,89.0
542.24,89.0
542.3,84.0
542.37,90.0
542.43,89.0
542.49,79.0
542.56,63.0
542.62,73.0
542.68,70.0
542.74,54.0
542.81,46.0
542.87,39.0
542.93,56.0
543.0,56.0
543.06,48.0
543.12,50.0
543.19,50.0
543.25,46.0
543.31,39.0
543.37,48.0
543.44,37.0
543.5,44.0
543.56,35.0
543.63,40.0
543.69,45.0
543.75,36.0
543.82,31.0
543.88,35.0
543.94,24.0
544.0,19.0
544.07,32.0
544.13,22.0
544.19,14.0
544.26,-4.0
544.32,29.0
544.38,32.0
544.45,29.0
544.51,25.0
544.57,44.0
544.63,22.0
544.7,35.0
544.76,-2.0
544.82,21.0
544.89,15.0
544.95,25.0
545.01,36.0
545.08,36.0
545.14,38.0
545.2,35.0
545.26,50.0
545.33,58.0
545.39,54.0
545.45,46.0
545.52,53.0
545.58,47.0
545.64,29.0
545.71,36.0
545.77,58.0
545.83,40.0
545.89,49.0
545.96,40.0
546.02,48.0
546.08,72.0
546.15,82.0
546.21,69.0
546.27,87.0
546.34,84.0
546.4,61.0
546.46,79.0
546.52,75.0
546.59,71.0
546.65,69.0
546.71,76.0
546.78,91.0
546.84,79.0
546.9,72.0
546.97,63.0
547.03,59.0
547.09,64.0
547.15,65.0
547.22,65.0
547.28,78.0
547.34,70.0
547.41,86.0
547.47,72.0
547.53,83.0
547.6,94.0
547.66,85.0
547.72,92.0
547.78,65.0
547.85,84.0
547.91,91.0
547.97,93.0
548.04,88.0
548.1,87.0
548.16,84.0
548.23,62.0
548.29,61.0
548.35,65.0
548.41,52.0
548.48,55.0
548.54,47.0
548.6,61.0
548.67,68.0
548.73,49.0
548.79,56.0
548.86,58.0
548.92,40.0
548.98,79.0
549.04,87.0
549.11,65.0
549.17,93.0
549.23,71.0
549.3,79.0
549.36,79.0
549.42,74.0
549.49,61.0
549.55,60.0
549.61,61.0
549.67,65.0
549.74,51.0
549.8,58.0
549.86,73.0
549.93,72.0
549.99,44.0
550.05,62.0
550.12,74.0
550.18,63.0
550.24,47.0
550.3,44.0
550.37,43.0
550.43,50.0
550.49,51.0
550.56,19.0
550.62,27.0
550.68,42.0
550.75,56.0
550.81,49.0
550.87,54.0
550.93,51.0
551.0,57.0
551.06,70.0
551.12,46.0
551.19,67.0
551.25,46.0
551.31,65.0
551.38,61.0
551.44,50.0
551.5,58.0
551.56,58.0
551.63,69.0
551.69,62.0
551.75,61.0
551.82,56.0
551.88,25.0
551.94,30.0
552.01,45.0
552.07,45.0
552.13,31.0
552.19,32.0
552.26,39.0
552.32,46.0
552.38,43.0
552.45,45.0
552.51,60.0
552.57,28.0
552.64,49.0
552.7,41.0
552.76,60.0
552.82,57.0
552.89,36.0
552.95,45.0
553.01,56.0
553.08,61.0
553.14,56.0
553.2,50.0
553.27,71.0
553.33,67.0
553.39,56.0
553.45,54.0
553.52,63.0
553.58,61.0
553.64,60.0
553.71,44.0
553.77,52.0
553.83,55.0
553.9,39.0
553.96,54.0
554.02,46.0
554.08,66.0
554.15,54.0
554.21,54.0
554.27,44.0
554.34,60.0
554.4,57.0
554.46,48.0
554.53,36.0
554.59,43.0
554.65,40.0
554.71,58.0
554.78,70.0
554.84,49.0
554.9,55.0
554.97,76.0
555.03,68.0
555.09,53.0
555.16,54.0
555.22,74.0
555.28,57.0
555.34,57.0
555.41,54.0
555.47,61.0
555.53,48.0
555.6,54.0
555.66,95.0
555.72,83.0
555.79,85.0
555.85,82.0
555.91,81.0
555.97,107.0
556.04,101.0
556.1,90.0
556.16,76.0
556.23,90.0
556.29,110.0
556.35,99.0
556.42,107.0
556.48,119.0
556.54,129.0
556.6,124.0
556.67,137.0
556.73,136.0
556.79,157.0
556.86,148.0
556.92,149.0
556.98,161.0
557.05,153.0
557.11,121.0
557.17,124.0
557.23,130.0
557.3,128.0
557.36,132.0
557.42,148.0
557.49,144.0
557.55,130.0
557.61,149.0
557.68,114.0
557.74,109.0
557.8,113.0
557.86,113.0
557.93,124.0
557.99,140.0
558.05,120.0
558.12,142.0
558.18,131.0
558.24,113.0
558.31,127.0
558.37,110.0
558.43,123.0
558.49,123.0
558.56,132.0
558.62,141.0
558.68,134.0
558.75,121.0
558.81,123.0
558.87,128.0
558.94,153.0
559.0,164.0
559.06,161.0
559.12,157.0
559.19,163.0
559.25,144.0
559.31,133.0
559.38,126.0
559.44,138.0
559.5,147.0
559.57,142.0
559.63,124.0
559.69,125.0
559.75,123.0
559.82,139.0
559.88,135.0
559.94,133.0
560.01,122.0
560.07,149.0
560.13,128.0
560.2,117.0
560.26,124.0
560.32,117.0
560.38,112.0
560.45,100.0
560.51,96.0
560.57,116.0
560.64,112.0
560.7,112.0
560.76,121.0
560.83,109.0
560.89,114.0
560.95,128.0
561.01,99.0
561.08,104.0
561.14,85.0
561.2,100.0
561.27,116.0
561.33,108.0
561.39,87.0
561.46,85.0
561.52,76.0
561.58,63.0
561.64,66.0
561.71,73.0
561.77,80.0
561.83,83.0
561.9,79.0
561.96,58.0
562.02,80.0
562.09,115.0
562.15,127.0
562.21,117.0
562.27,103.0
562.34,135.0
562.4,124.0
562.46,115.0
562.53,115.0
562.59,111.0
562.65,139.0
562.72,124.0
562.78,125.0
562.84,113.0
562.9,110.0
562.97,135.0
563.03,133.0
563.09,138.0
563.16,143.0
563.22,155.0
563.28,156.0
563.35,157.0
563.41,149.0
563.47,152.0
563.53,153.0
563.6,131.0
563.66,132.0
563.72,137.0
563.79,124.0
563.85,142.0
563.91,142.0
563.98,142.0
564.04,157.0
564.1,139.0
564.16,147.0
564.23,147.0
564.29,135.0
564.35,156.0
564.42,149.0
564.48,148.0
564.54,132.0
564.61,131.0
564.67,128.0
564.73,142.0
564.79,149.0
564.86,121.0
564.92,128.0
564.98,128.0
565.05,117.0
565.11,113.0
565.17,107.0
565.24,101.0
565.3,124.0
565.36,135.0
565.42,131.0
565.49,117.0
565.55,122.0
565.61,142.0
565.68,121.0
565.74,112.0
565.8,115.0
565.87,109.0
565.93,130.0
565.99,117.0
566.05,123.0
566.12,126.0
566.18,120.0
566.24,127.0
566.31,129.0
566.37,104.0
566.43,111.0
566.5,101.0
566.56,102.0
566.62,111.0
566.68,111.0
566.75,105.0
566.81,99.0
566.87,118.0
566.94,102.0
567.0,108.0
567.06,107.0
567.13,83.0
567.19,96.0
567.25,91.0
567.31,87.0
567.38,80.0
567.44,84.0
567.5,88.0
567.57,90.0
567.63,106.0
567.69,89.0
567.76,88.0
567.82,84.0
567.88,76.0
567.94,86.0
568.01,68.0
568.07,58.0
568.13,69.0
568.2,65.0
568.26,53.0
568.32,63.0
568.39,71.0
568.45,52.0
568.51,50.0
568.57,45.0
568.64,43.0
568.7,32.0
568.76,28.0
568.83,38.0
568.89,32.0
568.95,28.0
569.02,38.0
569.08,30.0
569.14,9.0
569.2,25.0
569.27,19.0
569.33,16.0
569.39,-13.0
569.46,-19.0
569.52,10.0
569.58,-2.0
569.65,8.0
569.71,3.0
569.77,5.0
569.83,20.0
569.9,7.0
569.96,21.0
570.02,3.0
570.09,-14.0
570.15,-16.0
570.21,7.0
570.28,6.0
570.34,-18.0
570.4,-1.0
570.46,-6.0
570.53,26.0
570.59,32.0
570.65,35.0
570.72,27.0
570.78,36.0
570.84,37.0
570.91,50.0
570.97,41.0
571.03,41.0
571.09,55.0
571.16,53.0
571.22,48.0
571.28,48.0
571.35,41.0
571.41,34.0
571.47,24.0
571.54,24.0
571.6,30.0
571.66,37.0
571.72,34.0
571.79,40.0
571.85,56.0
571.91,59.0
571.98,57.0
572.04,53.0
572.1,56.0
572.17,47.0
572.23,66.0
572.29,71.0
572.35,43.0
572.42,58.0
572.48,70.0
572.54,96.0
572.61,93.0
572.67,95.0
572.73,71.0
572.8,50.0
572.86,67.0
572.92,60.0
572.98,69.0
573.05,82.0
573.11,72.0
573.17,51.0
573.24,55.0
573.3,64.0
573.36,63.0
573.43,64.0
573.49,69.0
573.55,85.0
573.61,70.0
573.68,78.0
573.74,85.0
573.8,67.0
573.87,77.0
573.93,70.0
573.99,67.0
574.06,82.0
574.12,90.0
574.18,82.0
574.24,102.0
574.31,84.0
574.37,85.0
574.43,125.0
574.5,104.0
574.56,97.0
574.62,120.0
574.69,128.0
574.75,122.0
574.81,121.0
574.87,115.0
574.94,119.0
575.0,113.0
575.06,100.0
575.13,92.0
575.19,109.0
575.25,97.0
575.32,100.0
575.38,91.0
575.44,108.0
575.5,109.0
575.57,80.0
575.63,64.0
575.69,69.0
575.76,60.0
575.82,61.0
575.88,60.0
575.95,65.0
576.01,25.0
576.07,31.0
576.13,5.0
576.2,30.0
576.26,8.0
576.32,20.0
576.39,33.0
576.45,37.0
576.51,46.0
576.58,33.0
576.64,26.0
576.7,9.0
576.76,55.0
576.83,53.0
576.89,34.0
576.95,32.0
577.02,41.0
577.08,40.0
577.14,29.0
577.21,15.0
577.27,15.0
577.33,12.0
577.39,12.0
577.46,20.0
577.52,13.0
577.58,10.0
577.65,15.0
577.71,18.0
577.77,15.0
577.84,-1.0
577.9,2.0
577.96,-14.0
578.02,1.0
578.09,1.0
578.15,-17.0
578.21,7.0
578.28,0.0
578.34,8.0
578.4,-2.0
578.47,-3.0
578.53,7.0
578.59,5.0
578.65,7.0
578.72,9.0
578.78,-5.0
578.84,-18.0
578.91,-1.0
578.97,-7.0
579.03,1.0
579.1,10.0
579.16,8.0
579.22,19.0
579.28,19.0
579.35,33.0
579.41,34.0
579.47,30.0
579.54,21.0
579.6,40.0
579.66,45.0
579.73,42.0
579.79,41.0
579.85,42.0
579.91,69.0
579.98,41.0
580.04,37.0
580.1,83.0
580.17,70.0
580.23,66.0
580.29,72.0
580.36,70.0
580.42,62.0
580.48,69.0
580.54,82.0
580.61,69.0
580.67,50.0
580.73,59.0
580.8,73.0
580.86,91.0
580.92,78.0
580.99,86.0
581.05,83.0
581.11,98.0
581.17,65.0
581.24,72.0
581.3,69.0
581.36,78.0
581.43,83.0
581.49,83.0
581.55,83.0
581.62,90.0
581.68,87.0
581.74,102.0
581.8,111.0
581.87,109.0
581.93,107.0
581.99,120.0
582.06,112.0
582.12,119.0
582.18,121.0
582.25,115.0
582.31,106.0
582.37,96.0
582.43,91.0
582.5,98.0
582.56,135.0
582.62,109.0
582.69,89.0
582.75,87.0
582.81,81.0
582.88,93.0
582.94,77.0
583.0,76.0
583.06,85.0
583.13,90.0
583.19,93.0
583.25,87.0
583.32,107.0
583.38,119.0
583.44,109.0
583.51,112.0
583.57,107.0
583.63,98.0
583.69,84.0
583.76,87.0
583.82,92.0
583.88,111.0
583.95,117.0
584.01,130.0
584.07,133.0
584.14,112.0
584.2,121.0
584.26,131.0
584.32,111.0
584.39,131.0
584.45,134.0
584.51,134.0
584.58,130.0
584.64,127.0
584.7,135.0
584.77,115.0
584.83,138.0
584.89,129.0
584.95,114.0
585.02,128.0
585.08,120.0
585.14,131.0
585.21,137.0
585.27,125.0
585.33,106.0
585.4,112.0
585.46,123.0
585.52,120.0
585.58,127.0
585.65,112.0
585.71,113.0
585.77,114.0
585.84,113.0
585.9,100.0
585.96,101.0
586.03,109.0
586.09,120.0
586.15,108.0
586.21,104.0
586.28,118.0
586.34,102.0
586.4,120.0
586.47,117.0
586.53,93.0
586.59,81.0
586.66,116.0
586.72,116.0
586.78,105.0
586.84,115.0
586.91,99.0
586.97,88.0
587.03,86.0
587.1,80.0
587.16,98.0
587.22,109.0
587.29,97.0
587.35,92.0
587.41,86.0
587.47,84.0
587.54,106.0
587.6,104.0
587.66,81.0
587.73,100.0
587.79,108.0
587.85,95.0
587.92,98.0
587.98,87.0
588.04,95.0
588.1,91.0
588.17,89.0
588.23,96.0
588.29,73.0
588.36,98.0
588.42,78.0
588.48,95.0
588.55,97.0
588.61,97.0
588.67,103.0
588.73,103.0
588.8,94.0
588.86,105.0
588.92,124.0
588.99,127.0
589.05,108.0
589.11,116.0
589.18,109.0
589.24,118.0
589.3,113.0
589.36,120.0
589.43,106.0
589.49,119.0
589.55,111.0
589.62,126.0
589.68,112.0
589.74,122.0
589.81,125.0
589.87,119.0
589.93,116.0
589.99,117.0
590.06,118.0
590.12,117.0
590.18,94.0
590.25,102.0
590.31,130.0
590.37,112.0
590.44,103.0
590.5,114.0
590.56,134.0
590.62,98.0
590.69,112.0
590.75,122.0
590.81,101.0
590.88,120.0
590.94,140.0
591.0,132.0
591.07,119.0
591.13,123.0
591.19,120.0
591.25,114.0
591.32,120.0
591.38,118.0
591.44,97.0
591.51,116.0
591.57,120.0
591.63,136.0
591.7,130.0
591.76,138.0
591.82,141.0
591.88,119.0
591.95,125.0
592.01,121.0
592.07,116.0
592.14,102.0
592.2,88.0
592.26,80.0
592.33,89.0
592.39,84.0
592.45,82.0
592.51,99.0
592.58,108.0
592.64,99.0
592.7,109.0
592.77,123.0
592.83,87.0
592.89,92.0
592.96,108.0
593.02,73.0
593.08,75.0
593.14,68.0
593.21,79.0
593.27,64.0
593.33,61.0
593.4,53.0
593.46,59.0
593.52,70.0
593.59,65.0
593.65,46.0
593.71,43.0
593.77,49.0
593.84,40.0
593.9,26.0
593.96,20.0
594.03,33.0
594.09,19.0
594.15,21.0
594.22,7.0
594.28,16.0
594.34,7.0
594.4,6.0
594.47,27.0
594.53,33.0
594.59,18.0
594.66,2.0
594.72,31.0
594.78,20.0
594.85,-3.0
594.91,15.0
594.97,8.0
595.03,-2.0
595.1,5.0
595.16,8.0
595.22,6.0
595.29,5.0
595.35,12.0
595.41,38.0
595.48,28.0
595.54,32.0
595.6,24.0
595.66,23.0
595.73,45.0
595.79,38.0
595.85,27.0
595.92,38.0
595.98,59.0
596.04,65.0
596.11,64.0
596.17,68.0
596.23,51.0
596.29,82.0
596.36,59.0
596.42,71.0
596.48,72.0
596.55,60.0
596.61,61.0
596.67,66.0
596.74,59.0
596.8,83.0
596.86,78.0
596.92,86.0
596.99,90.0
597.05,101.0
597.11,79.0
597.18,84.0
597.24,109.0
597.3,104.0
597.37,107.0
597.43,108.0
597.49,89.0
597.55,95.0
597.62,110.0
597.68,108.0
597.74,121.0
597.81,124.0
597.87,93.0
597.93,97.0
598.0,117.0
598.06,117.0
598.12,98.0
598.18,115.0
598.25,102.0
598.31,122.0
598.37,122.0
598.44,100.0
598.5,111.0
598.56,115.0
598.63,116.0
598.69,136.0
598.75,126.0
598.81,133.0
598.88,135.0
598.94,135.0
599.0,129.0
599.07,139.0
599.13,119.0
599.19,138.0
599.26,149.0
599.32,148.0
599.38,159.0
599.44,154.0
599.51,148.0
599.57,153.0
599.63,139.0
599.7,134.0
599.76,148.0
599.82,146.0
599.89,145.0
599.95,133.0
600.01,125.0
600.07,133.0
600.14,139.0
600.2,133.0
600.26,148.0
600.33,152.0
600.39,134.0
600.45,126.0
600.52,137.0
600.58,126.0
600.64,108.0
600.7,140.0
600.77,145.0
600.83,111.0
600.89,128.0
600.96,150.0
601.02,160.0
601.08,153.0
601.15,156.0
601.21,160.0
601.27,164.0
601.33,144.0
601.4,150.0
601.46,139.0
601.52,133.0
601.59,131.0
601.65,144.0
601.71,137.0
601.78,131.0
601.84,141.0
601.9,119.0
601.96,122.0
602.03,118.0
602.09,114.0
602.15,125.0
602.22,135.0
602.28,106.0
602.34,123.0
602.41,110.0
602.47,137.0
602.53,136.0
602.59,123.0
602.66,130.0
602.72,126.0
602.78,134.0
602.85,116.0
602.91,114.0
602.97,76.0
603.04,73.0
603.1,94.0
603.16,94.0
603.22,102.0
603.29,100.0
603.35,102.0
603.41,87.0
603.48,97.0
603.54,118.0
603.6,109.0
603.67,90.0
603.73,107.0
603.79,110.0
603.85,76.0
603.92,73.0
603.98,103.0
604.04,96.0
604.11,66.0
604.17,71.0
604.23,73.0
604.3,59.0
604.36,62.0
604.42,68.0
604.48,67.0
604.55,86.0
604.61,60.0
604.67,62.0
604.74,76.0
604.8,60.0
604.86,67.0
604.93,75.0
604.99,81.0
605.05,65.0
605.11,59.0
605.18,75.0
605.24,64.0
605.3,38.0
605.37,48.0
605.43,60.0
605.49,54.0
605.56,54.0
605.62,69.0
605.68,45.0
605.74,47.0
605.81,36.0
605.87,40.0
605.93,21.0
606.0,39.0
606.06,52.0
606.12,39.0
606.19,41.0
606.25,37.0
606.31,71.0
606.37,82.0
606.44,73.0
606.5,72.0
606.56,81.0
606.63,83.0
606.69,71.0
606.75,81.0
606.82,82.0
606.88,99.0
606.94,98.0
607.0,94.0
607.07,96.0
607.13,93.0
607.19,91.0
607.26,78.0
607.32,89.0
607.38,81.0
607.45,71.0
607.51,92.0
607.57,109.0
607.63,85.0
607.7,102.0
607.76,89.0
607.82,82.0
607.89,94.0
607.95,91.0
608.01,97.0
608.08,105.0
608.14,93.0
608.2,85.0
608.26,96.0
608.33,89.0
608.39,84.0
608.45,112.0
608.52,107.0
608.58,122.0
608.64,126.0
608.71,119.0
608.77,122.0
608.83,149.0
608.89,137.0
608.96,120.0
609.02,124.0
609.08,125.0
609.15,150.0
609.21,130.0
609.27,122.0
609.34,119.0
609.4,115.0
609.46,114.0
609.52,111.0
609.59,105.0
609.65,85.0
609.71,67.0
609.78,76.0
609.84,80.0
609.9,73.0
609.97,75.0
610.03,66.0
610.09,49.0
610.15,68.0
610.22,64.0
610.28,49.0
610.34,62.0
610.41,64.0
610.47,57.0
610.53,62.0
610.6,37.0
610.66,49.0
610.72,59.0
610.78,45.0
610.85,26.0
610.91,40.0
610.97,60.0
611.04,56.0
611.1,48.0
611.16,49.0
611.23,51.0
611.29,59.0
611.35,64.0
611.41,75.0
611.48,56.0
611.54,53.0
611.6,52.0
611.67,68.0
611.73,73.0
611.79,98.0
611.86,112.0
611.92,112.0
611.98,97.0
612.04,86.0
612.11,81.0
612.17,93.0
612.23,113.0
612.3,92.0
612.36,104.0
612.42,95.0
612.49,105.0
612.55,100.0
612.61,99.0
612.67,81.0
612.74,77.0
612.8,78.0
612.86,97.0
612.93,85.0
612.99,60.0
613.05,81.0
613.12,112.0
613.18,97.0
613.24,116.0
613.3,113.0
613.37,114.0
613.43,97.0
613.49,91.0
613.56,107.0
613.62,95.0
613.68,96.0
613.75,92.0
613.81,101.0
613.87,97.0
613.93,97.0
614.0,104.0
614.06,104.0
614.12,114.0
614.19,123.0
614.25,139.0
614.31,125.0
614.38,121.0
614.44,151.0
614.5,160.0
614.56,177.0
614.63,179.0
614.69,172.0
614.75,181.0
614.82,187.0
614.88,199.0
614.94,188.0
615.01,178.0
615.07,183.0
615.13,180.0
615.19,166.0
615.26,171.0
615.32,161.0
615.38,179.0
615.45,160.0
615.51,150.0
615.57,150.0
615.64,147.0
615.7,148.0
615.76,154.0
615.82,175.0
615.89,175.0
615.95,156.0
616.01,174.0
616.08,185.0
616.14,160.0
616.2,167.0
616.27,165.0
616.33,156.0
616.39,159.0
616.45,172.0
616.52,177.0
616.58,162.0
616.64,159.0
616.71,163.0
616.77,162.0
616.83,174.0
616.9,192.0
616.96,187.0
617.02,182.0
617.08,177.0
617.15,179.0
617.21,186.0
617.27,181.0
617.34,169.0
617.4,168.0
617.46,167.0
617.53,175.0
617.59,166.0
617.65,163.0
617.71,164.0
617.78,166.0
617.84,158.0
617.9,168.0
617.97,163.0
618.03,161.0
618.09,153.0
618.16,168.0
618.22,161.0
618.28,138.0
618.34,152.0
618.41,149.0
618.47,147.0
618.53,143.0
618.6,133.0
618.66,138.0
618.72,137.0
618.79,128.0
618.85,141.0
618.91,111.0
618.97,96.0
619.04,95.0
619.1,97.0
619.16,114.0
619.23,103.0
619.29,93.0
619.35,100.0
619.42,83.0
619.48,97.0
619.54,103.0
619.6,88.0
619.67,70.0
619.73,86.0
619.79,75.0
619.86,65.0
619.92,95.0
619.98,100.0
620.05,84.0
620.11,73.0
620.17,79.0
620.23,77.0
620.3,79.0
620.36,83.0
620.42,65.0
620.49,64.0
620.55,67.0
620.61,68.0
620.68,55.0
620.74,9.0
620.8,38.0
620.86,33.0
620.93,16.0
620.99,27.0
621.05,31.0
621.12,38.0
621.18,41.0
621.24,6.0
621.31,29.0
621.37,30.0
621.43,29.0
621.49,17.0
621.56,26.0
621.62,47.0
621.68,56.0
621.75,47.0
621.81,56.0
621.87,47.0
621.94,43.0
622.0,57.0
622.06,54.0
622.12,46.0
622.19,48.0
622.25,59.0
622.31,57.0
622.38,73.0
622.44,61.0
622.5,66.0
622.57,69.0
622.63,58.0
622.69,65.0
622.75,61.0
622.82,83.0
622.88,72.0
622.94,74.0
623.01,81.0
623.07,93.0
623.13,98.0
623.2,82.0
623.26,93.0
623.32,105.0
623.38,100.0
623.45,89.0
623.51,104.0
623.57,117.0
623.64,99.0
623.7,79.0
623.76,100.0
623.83,95.0
623.89,89.0
623.95,92.0
624.01,87.0
624.08,90.0
624.14,80.0
624.2,92.0
624.27,86.0
624.33,101.0
624.39,111.0
624.46,93.0
624.52,110.0
624.58,84.0
624.64,74.0
624.71,99.0
624.77,79.0
624.83,64.0
624.9,71.0
624.96,85.0
625.02,88.0
625.09,70.0
625.15,83.0
625.21,72.0
625.27,75.0
625.34,80.0
625.4,93.0
625.46,91.0
625.53,95.0
625.59,90.0
625.65,87.0
625.72,93.0
625.78,67.0
625.84,62.0
625.9,76.0
625.97,65.0
626.03,81.0
626.09,75.0
626.16,72.0
626.22,66.0
626.28,67.0
626.35,68.0
626.41,45.0
626.47,71.0
626.53,85.0
626.6,65.0
626.66,80.0
626.72,82.0
626.79,76.0
626.85,90.0
626.91,78.0
626.98,68.0
627.04,85.0
627.1,46.0
627.16,77.0
627.23,49.0
627.29,40.0
627.35,56.0
627.42,50.0
627.48,58.0
627.54,57.0
627.61,57.0
627.67,61.0
627.73,68.0
627.79,66.0
627.86,38.0
627.92,39.0
627.98,43.0
628.05,40.0
628.11,26.0
628.17,23.0
628.24,22.0
628.3,13.0
628.36,21.0
628.42,10.0
628.49,14.0
628.55,15.0
628.61,13.0
628.68,12.0
628.74,2.0
628.8,-1.0
628.87,5.0
628.93,7.0
628.99,-10.0
629.05,-11.0
629.12,-19.0
629.18,-22.0
629.24,-13.0
629.31,11.0
629.37,19.0
629.43,16.0
629.5,10.0
629.56,0.0
629.62,10.0
629.68,3.0
629.75,0.0
629.81,8.0
629.87,0.0
629.94,6.0
630.0,8.0
630.06,18.0
630.13,1.0
630.19,-3.0
630.25,15.0
630.31,30.0
630.38,45.0
630.44,39.0
630.5,83.0
630.57,62.0
630.63,47.0
630.69,55.0
630.76,40.0
630.82,45.0
630.88,36.0
630.94,54.0
631.01,32.0
631.07,53.0
631.13,58.0
631.2,66.0
631.26,67.0
631.32,51.0
631.39,73.0
631.45,69.0
631.51,66.0
631.57,67.0
631.64,76.0
631.7,83.0
631.76,84.0
631.83,85.0
631.89,79.0
631.95,96.0
632.02,89.0
632.08,113.0
632.14,135.0
632.2,111.0
632.27,105.0
632.33,85.0
632.39,92.0
632.46,79.0
632.52,81.0
632.58,88.0
632.65,60.0
632.71,67.0
632.77,101.0
632.83,77.0
632.9,93.0
632.96,107.0
633.02,95.0
633.09,110.0
633.15,103.0
633.21,99.0
633.28,124.0
633.34,104.0
633.4,91.0
633.46,111.0
633.53,116.0
633.59,106.0
633.65,103.0
633.72,94.0
633.78,88.0
633.84,91.0
633.91,88.0
633.97,92.0
634.03,120.0
634.09,116.0
634.16,120.0
634.22,105.0
634.28,122.0
634.35,110.0
634.41,111.0
634.47,109.0
634.54,115.0
634.6,121.0
634.66,105.0
634.72,102.0
634.79,111.0
634.85,94.0
634.91,116.0
634.98,107.0
635.04,101.0
635.1,109.0
635.17,114.0
635.23,119.0
635.29,124.0
635.35,110.0
635.42,111.0
635.48,133.0
635.54,116.0
635.61,105.0
635.67,103.0
635.73,107.0
635.8,133.0
635.86,105.0
635.92,95.0
635.98,95.0
636.05,111.0
636.11,124.0
636.17,102.0
636.24,94.0
636.3,96.0
636.36,65.0
636.43,70.0
636.49,76.0
636.55,50.0
636.61,34.0
636.68,75.0
636.74,68.0
636.8,56.0
636.87,54.0
636.93,55.0
636.99,44.0
637.06,40.0
637.12,31.0
637.18,40.0
637.24,40.0
637.31,44.0
637.37,36.0
637.43,36.0
637.5,44.0
637.56,34.0
637.62,11.0
637.69,30.0
637.75,31.0
637.81,39.0
637.87,38.0
637.94,35.0
638.0,48.0
638.06,53.0
638.13,38.0
638.19,47.0
638.25,47.0
638.32,43.0
638.38,59.0
638.44,64.0
638.5,64.0
638.57,61.0
638.63,61.0
638.69,68.0
638.76,66.0
638.82,66.0
638.88,76.0
638.95,92.0
639.01,85.0
639.07,65.0
639.13,69.0
639.2,66.0
639.26,59.0
639.32,70.0
639.39,68.0
639.45,61.0
639.51,55.0
639.58,71.0
639.64,80.0
639.7,88.0
639.76,125.0
639.83,103.0
639.89,99.0
639.95,90.0
640.02,77.0
640.08,79.0
640.14,65.0
640.21,95.0
640.27,85.0
640.33,94.0
640.39,106.0
640.46,106.0
640.52,108.0
640.58,109.0
640.65,102.0
640.71,122.0
640.77,116.0
640.84,98.0
640.9,125.0
640.96,105.0
641.02,88.0
641.09,100.0
641.15,108.0
641.21,133.0
641.28,122.0
641.34,127.0
641.4,128.0
641.47,128.0
641.53,114.0
641.59,126.0
641.65,137.0
641.72,124.0
641.78,123.0
641.84,127.0
641.91,114.0
641.97,118.0
642.03,147.0
642.1,157.0
642.16,144.0
642.22,146.0
642.28,151.0
642.35,155.0
642.41,145.0
642.47,146.0
642.54,128.0
642.6,149.0
642.66,138.0
642.73,134.0
642.79,136.0
642.85,140.0
642.91,163.0
642.98,158.0
643.04,141.0
643.1,129.0
643.17,139.0
643.23,151.0
643.29,141.0
643.36,140.0
643.42,129.0
643.48,136.0
643.54,132.0
643.61,139.0
643.67,129.0
643.73,125.0
643.8,121.0
643.86,109.0
643.92,113.0
643.99,93.0
644.05,99.0
644.11,84.0
644.17,86.0
644.24,85.0
644.3,77.0
644.36,48.0
644.43,58.0
644.49,64.0
644.55,57.0
644.62,65.0
644.68,55.0
644.74,53.0
644.8,88.0
644.87,66.0
644.93,48.0
644.99,61.0
645.06,77.0
645.12,51.0
645.18,41.0
645.25,57.0
645.31,61.0
645.37,37.0
645.43,41.0
645.5,40.0
645.56,37.0
645.62,39.0
645.69,37.0
645.75,29.0
645.81,36.0
645.88,23.0
645.94,0.0
646.0,18.0
646.06,-7.0
646.13,-7.0
646.19,1.0
646.25,18.0
646.32,7.0
646.38,-1.0
646.44,4.0
646.51,4.0
646.57,20.0
646.63,2.0
646.69,6.0
646.76,33.0
646.82,32.0
646.88,13.0
646.95,35.0
647.01,33.0
647.07,41.0
647.14,34.0
647.2,23.0
647.26,26.0
647.32,32.0
647.39,28.0
647.45,33.0
647.51,49.0
647.58,52.0
647.64,39.0
647.7,52.0
647.77,62.0
647.83,46.0
647.89,33.0
647.95,55.0
648.02,64.0
648.08,59.0
648.14,50.0
648.21,59.0
648.27,63.0
648.33,81.0
648.4,75.0
648.46,78.0
648.52,90.0
648.58,99.0
648.65,85.0
648.71,86.0
648.77,102.0
648.84,106.0
648.9,115.0
648.96,97.0
649.03,80.0
649.09,78.0
649.15,70.0
649.21,86.0
649.28,62.0
649.34,64.0
649.4,64.0
649.47,62.0
649.53,79.0
649.59,71.0
649.66,63.0
649.72,54.0
649.78,79.0
649.84,62.0
649.91,77.0
649.97,92.0
650.03,90.0
650.1,99.0
650.16,89.0
650.22,90.0
650.29,75.0
650.35,101.0
650.41,109.0
650.47,97.0
650.54,96.0
650.6,87.0
650.66,97.0
650.73,67.0
650.79,90.0
650.85,76.0
650.92,84.0
650.98,76.0
651.04,67.0
651.1,91.0
651.17,73.0
651.23,73.0
651.29,60.0
651.36,51.0
651.42,62.0
651.48,73.0
651.55,81.0
651.61,76.0
651.67,57.0
651.73,81.0
651.8,85.0
651.86,46.0
651.92,79.0
651.99,90.0
652.05,81.0
652.11,74.0
652.18,94.0
652.24,108.0
652.3,132.0
652.36,120.0
652.43,103.0
652.49,134.0
652.55,111.0
652.62,111.0
652.68,128.0
652.74,112.0
652.81,104.0
652.87,90.0
652.93,103.0
652.99,96.0
653.06,113.0
653.12,89.0
653.18,87.0
653.25,110.0
653.31,101.0
653.37,81.0
653.44,100.0
653.5,99.0
653.56,87.0
653.62,95.0
653.69,73.0
653.75,79.0
653.81,104.0
653.88,82.0
653.94,91.0
654.0,75.0
654.07,73.0
654.13,68.0
654.19,90.0
654.25,82.0
654.32,70.0
654.38,81.0
654.44,55.0
654.51,56.0
654.57,75.0
654.63,62.0
654.7,66.0
654.76,57.0
654.82,79.0
654.88,79.0
654.95,62.0
655.01,57.0
655.07,46.0
655.14,53.0
655.2,68.0
655.26,65.0
655.33,31.0
655.39,36.0
655.45,35.0
655.51,27.0
655.58,44.0
655.64,54.0
655.7,53.0
655.77,55.0
655.83,45.0
655.89,43.0
655.96,67.0
656.02,68.0
656.08,78.0
656.14,77.0
656.21,61.0
656.27,59.0
656.33,59.0
656.4,83.0
656.46,65.0
656.52,70.0
656.59,85.0
656.65,92.0
656.71,117.0
656.77,87.0
656.84,91.0
656.9,92.0
656.96,112.0
657.03,109.0
657.09,91.0
657.15,99.0
657.22,91.0
657.28,107.0
657.34,116.0
657.4,109.0
657.47,103.0
657.53,107.0
657.59,129.0
657.66,123.0
657.72,135.0
657.78,151.0
657.85,145.0
657.91,135.0
657.97,146.0
658.03,163.0
658.1,156.0
658.16,126.0
658.22,134.0
658.29,134.0
658.35,131.0
658.41,131.0
658.48,123.0
658.54,119.0
658.6,125.0
658.66,115.0
658.73,126.0
658.79,124.0
658.85,120.0
658.92,123.0
658.98,115.0
659.04,119.0
659.11,105.0
659.17,108.0
659.23,116.0
659.29,111.0
659.36,111.0
659.42,92.0
659.48,98.0
659.55,101.0
659.61,95.0
659.67,96.0
659.74,122.0
659.8,113.0
659.86,118.0
659.92,110.0
659.99,98.0
660.05,89.0
660.11,98.0
660.18,111.0
660.24,110.0
660.3,110.0
660.37,100.0
660.43,106.0
660.49,112.0
660.55,109.0
660.62,100.0
660.68,121.0
660.74,104.0
660.81,105.0
660.87,106.0
660.93,90.0
661.0,101.0
661.06,101.0
661.12,87.0
661.18,89.0
661.25,80.0
661.31,95.0
661.37,93.0
661.44,87.0
661.5,86.0
661.56,80.0
661.63,66.0
661.69,74.0
661.75,70.0
661.81,72.0
661.88,84.0
661.94,78.0
662.0,90.0
662.07,98.0
662.13,79.0
662.19,73.0
662.26,90.0
662.32,89.0
662.38,94.0
662.44,108.0
662.51,90.0
662.57,98.0
662.63,97.0
662.7,95.0
662.76,84.0
662.82,87.0
662.89,88.0
662.95,98.0
663.01,70.0
663.07,76.0
663.14,79.0
663.2,80.0
663.26,82.0
663.33,47.0
663.39,79.0
663.45,95.0
663.52,85.0
663.58,85.0
663.64,89.0
663.7,94.0
663.77,84.0
663.83,100.0
663.89,97.0
663.96,84.0
664.02,103.0
664.08,109.0
664.15,118.0
664.21,119.0
664.27,127.0
664.33,141.0
664.4,130.0
664.46,123.0
664.52,133.0
664.59,132.0
664.65,141.0
664.71,138.0
664.78,133.0
664.84,116.0
664.9,105.0
664.96,100.0
665.03,111.0
665.09,104.0
665.15,109.0
665.22,131.0
665.28,106.0
665.34,112.0
665.41,122.0
665.47,107.0
665.53,90.0
665.59,85.0
665.66,111.0
665.72,114.0
665.78,116.0
665.85,111.0
665.91,107.0
665.97,125.0
666.04,120.0
666.1,127.0
666.16,122.0
666.22,104.0
666.29,116.0
666.35,121.0
666.41,148.0
666.48,145.0
666.54,159.0
666.6,153.0
666.67,158.0
666.73,156.0
666.79,150.0
666.85,152.0
666.92,155.0
666.98,171.0
667.04,174.0
667.11,165.0
667.17,160.0
667.23,176.0
667.3,179.0
667.36,185.0
667.42,179.0
667.48,169.0
667.55,181.0
667.61,165.0
667.67,181.0
667.74,177.0
667.8,188.0
667.86,168.0
667.93,182.0
667.99,178.0
668.05,175.0
668.11,180.0
668.18,185.0
668.24,169.0
668.3,167.0
668.37,185.0
668.43,193.0
668.49,168.0
668.56,172.0
668.62,178.0
668.68,178.0
668.74,180.0
668.81,167.0
668.87,170.0
668.93,189.0
669.0,164.0
669.06,169.0
669.12,185.0
669.19,180.0
669.25,182.0
669.31,191.0
669.37,187.0
669.44,183.0
669.5,178.0
669.56,164.0
669.63,162.0
669.69,166.0
669.75,181.0
669.82,142.0
669.88,141.0
669.94,167.0
670.0,167.0
670.07,164.0
670.13,160.0
670.19,155.0
670.26,133.0
670.32,139.0
670.38,147.0
670.45,123.0
670.51,131.0
670.57,120.0
670.63,120.0
670.7,111.0
670.76,107.0
670.82,118.0
670.89,122.0
670.95,114.0
671.01,111.0
671.08,94.0
671.14,93.0
671.2,110.0
671.26,95.0
671.33,65.0
671.39,88.0
671.45,99.0
671.52,92.0
671.58,109.0
671.64,112.0
671.71,93.0
671.77,100.0
671.83,95.0
671.89,104.0
671.96,119.0
672.02,107.0
672.08,104.0
672.15,101.0
672.21,88.0
672.27,90.0
672.34,59.0
672.4,79.0
672.46,75.0
672.52,79.0
672.59,71.0
672.65,75.0
672.71,94.0
672.78,81.0
672.84,92.0
672.9,94.0
672.97,92.0
673.03,92.0
673.09,97.0
673.15,101.0
673.22,79.0
673.28,82.0
673.34,78.0
673.41,69.0
673.47,76.0
673.53,84.0
673.6,93.0
673.66,88.0
673.72,59.0
673.78,73.0
673.85,82.0
673.91,71.0
673.97,76.0
674.04,81.0
674.1,79.0
674.16,75.0
674.23,95.0
674.29,77.0
674.35,70.0
674.41,74.0
674.48,72.0
674.54,82.0
674.6,90.0
674.67,106.0
674.73,109.0
674.79,113.0
674.86,101.0
674.92,97.0
674.98,128.0
675.04,103.0
675.11,108.0
675.17,113.0
675.23,106.0
675.3,112.0
675.36,91.0
675.42,101.0
675.49,89.0
675.55,87.0
675.61,100.0
675.67,92.0
675.74,100.0
675.8,86.0
675.86,81.0
675.93,82.0
675.99,98.0
676.05,89.0
676.12,77.0
676.18,84.0
676.24,106.0
676.3,80.0
676.37,62.0
676.43,76.0
676.49,83.0
676.56,95.0
676.62,99.0
676.68,86.0
676.75,89.0
676.81,83.0
676.87,75.0
676.93,92.0
677.0,78.0
677.06,79.0
677.12,79.0
677.19,72.0
677.25,61.0
677.31,54.0
677.38,69.0
677.44,59.0
677.5,52.0
677.56,46.0
677.63,48.0
677.69,60.0
677.75,43.0
677.82,46.0
677.88,34.0
677.94,51.0
678.01,60.0
678.07,36.0
678.13,46.0
678.19,42.0
678.26,16.0
678.32,10.0
678.38,36.0
678.45,21.0
678.51,20.0
678.57,28.0
678.64,31.0
678.7,29.0
678.76,27.0
678.82,30.0
678.89,12.0
678.95,5.0
679.01,8.0
679.08,26.0
679.14,45.0
679.2,68.0
679.27,75.0
679.33,60.0
679.39,60.0
679.45,48.0
679.52,31.0
679.58,32.0
679.64,43.0
679.71,47.0
679.77,52.0
679.83,50.0
679.9,64.0
679.96,80.0
680.02,55.0
680.08,57.0
680.15,53.0
680.21,62.0
680.27,48.0
680.34,57.0
680.4,58.0
680.46,56.0
680.53,63.0
680.59,45.0
680.65,42.0
680.71,32.0
680.78,27.0
680.84,24.0
680.9,34.0
680.97,39.0
681.03,55.0
681.09,42.0
681.16,35.0
681.22,25.0
681.28,25.0
681.34,29.0
681.41,20.0
681.47,46.0
681.53,34.0
681.6,25.0
681.66,12.0
681.72,18.0
681.79,42.0
681.85,40.0
681.91,20.0
681.97,13.0
682.04,20.0
682.1,17.0
682.16,11.0
682.23,34.0
682.29,46.0
682.35,57.0
682.42,63.0
682.48,66.0
682.54,53.0
682.6,38.0
682.67,43.0
682.73,77.0
682.79,74.0
682.86,38.0
682.92,75.0
682.98,70.0
683.05,64.0
683.11,44.0
683.17,66.0
683.23,60.0
683.3,54.0
683.36,44.0
683.42,59.0
683.49,51.0
683.55,67.0
683.61,87.0
683.68,57.0
683.74,71.0
683.8,78.0
683.86,71.0
683.93,70.0
683.99,70.0
684.05,66.0
684.12,70.0
684.18,83.0
684.24,45.0
684.31,72.0
684.37,71.0
684.43,42.0
684.49,60.0
684.56,44.0
684.62,45.0
684.68,59.0
684.75,57.0
684.81,54.0
684.87,64.0
684.94,70.0
685.0,61.0
685.06,70.0
685.12,59.0
685.19,62.0
685.25,65.0
685.31,78.0
685.38,88.0
685.44,82.0
685.5,81.0
685.57,85.0
685.63,75.0
685.69,87.0
685.75,78.0
685.82,94.0
685.88,76.0
685.94,77.0
686.01,71.0
686.07,90.0
686.13,72.0
686.2,58.0
686.26,46.0
686.32,62.0
686.38,39.0
686.45,36.0
686.51,39.0
686.57,38.0
686.64,42.0
686.7,27.0
686.76,21.0
686.83,26.0
686.89,36.0
686.95,24.0
687.01,11.0
687.08,12.0
687.14,38.0
687.2,31.0
687.27,34.0
687.33,25.0
687.39,5.0
687.46,7.0
687.52,29.0
687.58,29.0
687.64,31.0
687.71,35.0
687.77,50.0
687.83,53.0
687.9,34.0
687.96,23.0
688.02,43.0
688.09,43.0
688.15,38.0
688.21,51.0
688.27,34.0
688.34,42.0
688.4,53.0
688.46,46.0
688.53,28.0
688.59,35.0
688.65,45.0
688.72,48.0
688.78,43.0
688.84,41.0
688.9,37.0
688.97,39.0
689.03,42.0
689.09,46.0
689.16,44.0
689.22,47.0
689.28,26.0
689.35,50.0
689.41,68.0
689.47,56.0
689.53,59.0
689.6,62.0
689.66,64.0
689.72,58.0
689.79,52.0
689.85,44.0
689.91,69.0
689.98,85.0
690.04,83.0
690.1,97.0
690.16,82.0
690.23,102.0
690.29,99.0
690.35,84.0
690.42,79.0
690.48,83.0
690.54,103.0
690.61,90.0
690.67,89.0
690.73,85.0
690.79,89.0
690.86,98.0
690.92,95.0
690.98,101.0
691.05,105.0
691.11,102.0
691.17,106.0
691.24,100.0
691.3,104.0
691.36,101.0
691.42,115.0
691.49,120.0
691.55,110.0
691.61,102.0
691.68,148.0
691.74,139.0
691.8,159.0
691.87,147.0
691.93,141.0
691.99,147.0
692.05,167.0
692.12,150.0
692.18,159.0
692.24,148.0
692.31,144.0
692.37,160.0
692.43,165.0
692.5,159.0
692.56,157.0
692.62,167.0
692.68,149.0
692.75,149.0
692.81,142.0
692.87,145.0
692.94,154.0
693.0,156.0
693.06,153.0
693.13,159.0
693.19,161.0
693.25,181.0
693.31,153.0
693.38,161.0
693.44,148.0
693.5,141.0
693.57,154.0
693.63,159.0
693.69,163.0
693.76,169.0
693.82,161.0
693.88,165.0
693.94,149.0
694.01,159.0
694.07,176.0
694.13,188.0
694.2,189.0
694.26,166.0
694.32,168.0
694.39,162.0
694.45,162.0
694.51,174.0
694.57,177.0
694.64,167.0
694.7,175.0
694.76,172.0
694.83,189.0
694.89,173.0
694.95,156.0
695.02,166.0
695.08,155.0
695.14,145.0
695.2,161.0
695.27,166.0
695.33,134.0
695.39,151.0
695.46,114.0
695.52,119.0
695.58,133.0
695.65,138.0
695.71,133.0
695.77,133.0
695.83,135.0
695.9,128.0
695.96,125.0
696.02,124.0
696.09,134.0
696.15,139.0
696.21,113.0
696.28,109.0
696.34,116.0
696.4,115.0
696.46,106.0
696.53,100.0
696.59,112.0
696.65,102.0
696.72,117.0
696.78,111.0
696.84,115.0
696.91,116.0
696.97,106.0
697.03,105.0
697.09,117.0
697.16,97.0
697.22,104.0
697.28,108.0
697.35,99.0
697.41,111.0
697.47,105.0
697.54,119.0
697.6,123.0
697.66,130.0
697.72,121.0
697.79,138.0
697.85,115.0
697.91,128.0
697.98,134.0
698.04,120.0
698.1,120.0
698.17,120.0
698.23,101.0
698.29,87.0
698.35,102.0
698.42,122.0
698.48,109.0
698.54,108.0
698.61,100.0
698.67,109.0
698.73,78.0
698.8,99.0
698.86,112.0
698.92,93.0
698.98,95.0
699.05,105.0
699.11,119.0
699.17,113.0
699.24,113.0
699.3,120.0
699.36,118.0
699.43,134.0
699.49,126.0
699.55,124.0
699.61,129.0
699.68,140.0
699.74,145.0
699.8,126.0
699.87,142.0
699.93,146.0
699.99,141.0
700.06,125.0
700.12,121.0
700.18,132.0
700.24,112.0
700.31,126.0
700.37,147.0
700.43,124.0
700.5,114.0
700.56,112.0
700.62,105.0
700.69,113.0
700.75,107.0
700.81,108.0
700.87,120.0
700.94,119.0
701.0,108.0
701.06,85.0
701.13,108.0
701.19,116.0
701.25,92.0
701.32,94.0
701.38,106.0
701.44,120.0
701.5,117.0
701.57,134.0
701.63,119.0
701.69,117.0
701.76,119.0
701.82,113.0
701.88,141.0
701.95,126.0
702.01,122.0
702.07,137.0
702.13,134.0
702.2,130.0
702.26,129.0
702.32,151.0
702.39,145.0
702.45,150.0
702.51,144.0
702.58,137.0
702.64,126.0
702.7,109.0
702.76,127.0
702.83,115.0
702.89,114.0
702.95,113.0
703.02,120.0
703.08,111.0
703.14,95.0
703.21,105.0
703.27,105.0
703.33,96.0
703.39,87.0
703.46,80.0
703.52,78.0
703.58,81.0
703.65,85.0
703.71,81.0
703.77,71.0
703.84,63.0
703.9,42.0
703.96,53.0
704.02,57.0
704.09,80.0
704.15,79.0
704.21,78.0
704.28,77.0
704.34,72.0
704.4,97.0
704.47,78.0
704.53,57.0
704.59,60.0
704.65,90.0
704.72,90.0
704.78,86.0
704.84,54.0
704.91,49.0
704.97,53.0
705.03,71.0
705.1,51.0
705.16,56.0
705.22,66.0
705.28,37.0
705.35,38.0
705.41,48.0
705.47,38.0
705.54,52.0
705.6,38.0
705.66,31.0
705.73,47.0
705.79,34.0
705.85,65.0
705.91,76.0
705.98,76.0
706.04,62.0
706.1,79.0
706.17,50.0
706.23,80.0
706.29,91.0
706.36,74.0
706.42,76.0
706.48,58.0
706.54,50.0
706.61,37.0
706.67,34.0
706.73,44.0
706.8,50.0
706.86,43.0
706.92,35.0
706.99,24.0
707.05,25.0
707.11,31.0
707.17,16.0
707.24,45.0
707.3,36.0
707.36,15.0
707.43,38.0
707.49,51.0
707.55,35.0
707.62,35.0
707.68,40.0
707.74,48.0
707.8,67.0
707.87,73.0
707.93,68.0
707.99,68.0
708.06,78.0
708.12,80.0
708.18,90.0
708.25,77.0
708.31,79.0
708.37,78.0
708.43,76.0
708.5,85.0
708.56,78.0
708.62,78.0
708.69,63.0
708.75,48.0
708.81,43.0
708.88,48.0
708.94,60.0
709.0,81.0
709.06,57.0
709.13,42.0
709.19,57.0
709.25,57.0
709.32,51.0
709.38,57.0
709.44,69.0
709.51,81.0
709.57,76.0
709.63,81.0
709.69,89.0
709.76,83.0
709.82,89.0
709.88,97.0
709.95,63.0
710.01,86.0
710.07,90.0
710.14,81.0
710.2,86.0
710.26,70.0
710.32,76.0
710.39,88.0
710.45,86.0
710.51,68.0
710.58,84.0
710.64,83.0
710.7,80.0
710.77,83.0
710.83,98.0
710.89,98.0
710.95,85.0
711.02,100.0
711.08,89.0
711.14,85.0
711.21,81.0
711.27,81.0
711.33,61.0
711.4,58.0
711.46,53.0
711.52,49.0
711.58,62.0
711.65,52.0
711.71,31.0
711.77,15.0
711.84,25.0
711.9,14.0
711.96,1.0
712.03,12.0
712.09,0.0
712.15,12.0
712.21,4.0
712.28,3.0
712.34,19.0
712.4,22.0
712.47,22.0
712.53,20.0
712.59,35.0
712.66,27.0
712.72,20.0
712.78,21.0
712.84,21.0
712.91,27.0
712.97,20.0
713.03,29.0
713.1,15.0
713.16,17.0
713.22,31.0
713.29,40.0
713.35,42.0
713.41,42.0
713.47,40.0
713.54,46.0
713.6,54.0
713.66,53.0
713.73,64.0
713.79,63.0
713.85,73.0
713.92,59.0
713.98,76.0
714.04,88.0
714.1,76.0
714.17,80.0
714.23,77.0
714.29,78.0
714.36,75.0
714.42,87.0
714.48,76.0
714.55,80.0
714.61,96.0
714.67,80.0
714.73,74.0
714.8,78.0
714.86,90.0
714.92,97.0
714.99,101.0
715.05,73.0
715.11,76.0
715.18,118.0
715.24,85.0
715.3,105.0
715.36,102.0
715.43,82.0
715.49,119.0
715.55,96.0
715.62,113.0
715.68,121.0
715.74,112.0
715.81,105.0
715.87,98.0
715.93,97.0
715.99,101.0
716.06,95.0
716.12,97.0
716.18,90.0
716.25,106.0
716.31,93.0
716.37,90.0
716.44,100.0
716.5,112.0
716.56,90.0
716.62,91.0
716.69,108.0
716.75,96.0
716.81,97.0
716.88,108.0
716.94,103.0
717.0,112.0
717.07,99.0
717.13,98.0
717.19,111.0
717.25,108.0
717.32,115.0
717.38,140.0
717.44,115.0
717.51,122.0
717.57,117.0
717.63,141.0
717.7,137.0
717.76,163.0
717.82,148.0
717.88,138.0
717.95,152.0
718.01,164.0
718.07,154.0
718.14,151.0
718.2,145.0
718.26,153.0
718.33,155.0
718.39,134.0
718.45,140.0
718.51,123.0
718.58,131.0
718.64,136.0
718.7,134.0
718.77,135.0
718.83,130.0
718.89,113.0
718.96,108.0
719.02,135.0
719.08,135.0
719.14,141.0
719.21,140.0
719.27,141.0
719.33,148.0
719.4,154.0
719.46,163.0
719.52,168.0
719.59,145.0
719.65,156.0
719.71,160.0
719.77,169.0
719.84,156.0
719.9,154.0
719.96,177.0
720.03,171.0
720.09,159.0
720.15,161.0
720.22,152.0
720.28,143.0
720.34,144.0
720.4,147.0
720.47,142.0
720.53,134.0
720.59,141.0
720.66,137.0
720.72,125.0
720.78,127.0
720.85,125.0
720.91,113.0
720.97,126.0
721.03,147.0
721.1,140.0
721.16,125.0
721.22,112.0
721.29,120.0
721.35,111.0
721.41,126.0
721.48,122.0
721.54,117.0
721.6,126.0
721.66,114.0
721.73,106.0
721.79,112.0
721.85,128.0
721.92,127.0
721.98,129.0
722.04,133.0
722.11,117.0
722.17,89.0
722.23,112.0
722.29,103.0
722.36,107.0
722.42,107.0
722.48,101.0
722.55,86.0
722.61,87.0
722.67,67.0
722.74,75.0
722.8,46.0
722.86,93.0
722.92,99.0
722.99,97.0
723.05,84.0
723.11,61.0
723.18,86.0
723.24,90.0
723.3,76.0
723.37,90.0
723.43,94.0
723.49,84.0
723.55,77.0
723.62,77.0
723.68,87.0
723.74,88.0
723.81,100.0
723.87,103.0
723.93,123.0
724.0,112.0
724.06,119.0
724.12,119.0
724.18,101.0
724.25,105.0
724.31,81.0
724.37,100.0
724.44,93.0
724.5,91.0
724.56,125.0
724.63,110.0
724.69,108.0
724.75,112.0
724.81,105.0
724.88,108.0
724.94,109.0
725.0,99.0
725.07,108.0
725.13,107.0
725.19,100.0
725.26,119.0
725.32,128.0
725.38,120.0
725.44,126.0
725.51,119.0
725.57,105.0
725.63,107.0
725.7,128.0
725.76,117.0
725.82,114.0
725.89,87.0
725.95,97.0
726.01,100.0
726.07,91.0
726.14,91.0
726.2,112.0
726.26,105.0
726.33,122.0
726.39,132.0
726.45,94.0
726.52,79.0
726.58,96.0
726.64,84.0
726.7,75.0
726.77,95.0
726.83,101.0
726.89,83.0
726.96,75.0
727.02,75.0
727.08,75.0
727.15,93.0
727.21,66.0
727.27,65.0
727.33,75.0
727.4,76.0
727.46,97.0
727.52,82.0
727.59,82.0
727.65,81.0
727.71,79.0
727.78,99.0
727.84,95.0
727.9,95.0
727.96,84.0
728.03,78.0
728.09,88.0
728.15,88.0
728.22,94.0
728.28,82.0
728.34,79.0
728.41,81.0
728.47,59.0
728.53,71.0
728.59,64.0
728.66,49.0
728.72,41.0
728.78,36.0
728.85,41.0
728.91,40.0
728.97,38.0
729.04,16.0
729.1,28.0
729.16,21.0
729.22,27.0
729.29,35.0
729.35,32.0
729.41,26.0
729.48,27.0
729.54,36.0
729.6,16.0
729.67,28.0
729.73,28.0
729.79,21.0
729.85,17.0
729.92,27.0
729.98,42.0
730.04,18.0
730.11,31.0
730.17,26.0
730.23,52.0
730.3,40.0
730.36,43.0
730.42,69.0
730.48,69.0
730.55,76.0
730.61,45.0
730.67,60.0
730.74,81.0
730.8,79.0
730.86,69.0
730.93,77.0
730.99,64.0
731.05,61.0
731.11,57.0
731.18,75.0
731.24,95.0
731.3,68.0
731.37,73.0
731.43,79.0
731.49,88.0
731.56,77.0
731.62,64.0
731.68,62.0
731.74,82.0
731.81,68.0
731.87,95.0
731.93,83.0
732.0,69.0
732.06,72.0
732.12,79.0
732.19,73.0
732.25,57.0
732.31,91.0
732.37,76.0
732.44,90.0
732.5,80.0
732.56,93.0
732.63,100.0
732.69,90.0
732.75,101.0
732.82,101.0
732.88,103.0
732.94,90.0
733.0,100.0
733.07,98.0
733.13,86.0
733.19,65.0
733.26,86.0
733.32,79.0
733.38,101.0
733.45,95.0
733.51,84.0
733.57,95.0
733.63,103.0
733.7,106.0
733.76,93.0
733.82,91.0
733.89,81.0
733.95,83.0
734.01,79.0
734.08,45.0
734.14,61.0
734.2,57.0
734.26,57.0
734.33,56.0
734.39,38.0
734.45,45.0
734.52,59.0
734.58,68.0
734.64,66.0
734.71,68.0
734.77,75.0
734.83,77.0
734.89,72.0
734.96,93.0
735.02,96.0
735.08,91.0
735.15,74.0
735.21,48.0
735.27,81.0
735.34,81.0
735.4,69.0
735.46,70.0
735.52,61.0
735.59,65.0
735.65,61.0
735.71,64.0
735.78,58.0
735.84,49.0
735.9,61.0
735.97,64.0
736.03,65.0
736.09,67.0
736.15,73.0
736.22,67.0
736.28,73.0
736.34,88.0
736.41,89.0
736.47,85.0
736.53,62.0
736.6,70.0
736.66,77.0
736.72,74.0
736.78,94.0
736.85,79.0
736.91,79.0
736.97,79.0
737.04,75.0
737.1,51.0
737.16,54.0
737.23,48.0
737.29,42.0
737.35,45.0
737.41,63.0
737.48,54.0
737.54,50.0
737.6,35.0
737.67,24.0
737.73,50.0
737.79,50.0
737.86,25.0
737.92,16.0
737.98,23.0
738.04,28.0
738.11,28.0
738.17,24.0
738.23,15.0
738.3,18.0
738.36,14.0
738.42,15.0
738.49,24.0
738.55,21.0
738.61,27.0
738.67,19.0
738.74,15.0
738.8,8.0
738.86,-1.0
738.93,27.0
738.99,29.0
739.05,16.0
739.12,28.0
739.18,25.0
739.24,28.0
739.3,14.0
739.37,16.0
739.43,16.0
739.49,26.0
739.56,34.0
739.62,41.0
739.68,42.0
739.75,44.0
739.81,43.0
739.87,44.0
739.93,59.0
740.0,40.0
740.06,39.0
740.12,29.0
740.19,42.0
740.25,46.0
740.31,36.0
740.38,40.0
740.44,43.0
740.5,40.0
740.56,47.0
740.63,48.0
740.69,57.0
740.75,55.0
740.82,55.0
740.88,56.0
740.94,57.0
741.01,46.0
741.07,67.0
741.13,60.0
741.19,67.0
741.26,65.0
741.32,63.0
741.38,87.0
741.45,86.0
741.51,71.0
741.57,91.0
741.64,121.0
741.7,99.0
741.76,91.0
741.82,87.0
741.89,87.0
741.95,77.0
742.01,71.0
742.08,71.0
742.14,73.0
742.2,76.0
742.27,78.0
742.33,85.0
742.39,92.0
742.45,104.0
742.52,98.0
742.58,89.0
742.64,67.0
742.71,63.0
742.77,56.0
742.83,57.0
742.9,71.0
742.96,88.0
743.02,89.0
743.08,101.0
743.15,92.0
743.21,87.0
743.27,101.0
743.34,89.0
743.4,84.0
743.46,82.0
743.53,101.0
743.59,96.0
743.65,106.0
743.71,93.0
743.78,94.0
743.84,98.0
743.9,114.0
743.97,97.0
744.03,96.0
744.09,111.0
744.16,123.0
744.22,120.0
744.28,106.0
744.34,121.0
744.41,128.0
744.47,137.0
744.53,130.0
744.6,117.0
744.66,103.0
744.72,96.0
744.79,111.0
744.85,122.0
744.91,118.0
744.97,113.0
745.04,122.0
745.1,101.0
745.16,101.0
745.23,119.0
745.29,120.0
745.35,115.0
745.42,129.0
745.48,117.0
745.54,110.0
745.6,131.0
745.67,119.0
745.73,134.0
745.79,133.0
745.86,126.0
745.92,135.0
745.98,115.0
746.05,112.0
746.11,100.0
746.17,95.0
746.23,115.0
746.3,113.0
746.36,97.0
746.42,90.0
746.49,106.0
746.55,126.0
746.61,128.0
746.68,130.0
746.74,128.0
746.8,115.0
746.86,111.0
746.93,98.0
746.99,124.0
747.05,117.0
747.12,120.0
747.18,119.0
747.24,122.0
747.31,116.0
747.37,112.0
747.43,122.0
747.49,133.0
747.56,137.0
747.62,134.0
747.68,149.0
747.75,140.0
747.81,155.0
747.87,140.0
747.94,130.0
748.0,120.0
748.06,140.0
748.12,153.0
748.19,155.0
748.25,143.0
748.31,127.0
748.38,118.0
748.44,115.0
748.5,125.0
748.57,131.0
748.63,117.0
748.69,119.0
748.75,100.0
748.82,107.0
748.88,136.0
748.94,128.0
749.01,122.0
749.07,114.0
749.13,123.0
749.2,126.0
749.26,129.0
749.32,119.0
749.38,127.0
749.45,126.0
749.51,114.0
749.57,118.0
749.64,123.0
749.7,128.0
749.76,121.0
749.83,125.0
749.89,134.0
749.95,106.0
750.01,116.0
750.08,135.0
750.14,138.0
750.2,134.0
750.27,155.0
750.33,131.0
750.39,145.0
750.46,145.0
750.52,141.0
750.58,158.0
750.64,159.0
750.71,144.0
750.77,142.0
750.83,155.0
750.9,128.0
750.96,122.0
751.02,131.0
751.09,124.0
751.15,134.0
751.21,122.0
751.27,113.0
751.34,116.0
751.4,117.0
751.46,110.0
751.53,131.0
751.59,119.0
751.65,121.0
751.72,119.0
751.78,102.0
751.84,118.0
751.9,141.0
751.97,119.0
752.03,137.0
752.09,139.0
752.16,140.0
752.22,132.0
752.28,136.0
752.35,136.0
752.41,131.0
752.47,126.0
752.53,141.0
752.6,144.0
752.66,165.0
752.72,155.0
752.79,142.0
752.85,151.0
752.91,137.0
752.98,162.0
753.04,167.0
753.1,139.0
753.16,128.0
753.23,151.0
753.29,155.0
753.35,136.0
753.42,126.0
753.48,132.0
753.54,123.0
753.61,121.0
753.67,121.0
753.73,114.0
753.79,111.0
753.86,111.0
753.92,105.0
753.98,106.0
754.05,130.0
754.11,109.0
754.17,105.0
754.24,103.0
754.3,100.0
754.36,110.0
754.42,113.0
754.49,108.0
754.55,110.0
754.61,128.0
754.68,115.0
754.74,100.0
754.8,87.0
754.87,91.0
754.93,101.0
754.99,104.0
755.05,107.0
755.12,96.0
755.18,96.0
755.24,93.0
755.31,107.0
755.37,92.0
755.43,78.0
755.5,93.0
755.56,104.0
755.62,101.0
755.68,84.0
755.75,78.0
755.81,78.0
755.87,80.0
755.94,89.0
756.0,85.0
756.06,89.0
756.13,100.0
756.19,89.0
756.25,88.0
756.31,95.0
756.38,97.0
756.44,93.0
756.5,89.0
756.57,118.0
756.63,120.0
756.69,89.0
756.76,88.0
756.82,107.0
756.88,86.0
756.94,64.0
757.01,112.0
757.07,104.0
757.13,85.0
757.2,103.0
757.26,93.0
757.32,108.0
757.39,111.0
757.45,108.0
757.51,100.0
757.57,118.0
757.64,122.0
757.7,100.0
757.76,112.0
757.83,139.0
757.89,116.0
757.95,121.0
758.02,112.0
758.08,96.0
758.14,80.0
758.2,82.0
758.27,103.0
758.33,99.0
758.39,104.0
758.46,98.0
758.52,117.0
758.58,108.0
758.65,109.0
758.71,130.0
758.77,121.0
758.83,104.0
758.9,97.0
758.96,103.0
759.02,98.0
759.09,107.0
759.15,103.0
759.21,100.0
759.28,95.0
759.34,84.0
759.4,94.0
759.46,113.0
759.53,114.0
759.59,114.0
759.65,118.0
759.72,105.0
759.78,114.0
759.84,99.0
759.91,83.0
759.97,96.0
760.03,101.0
760.09,98.0
760.16,94.0
760.22,104.0
760.28,95.0
760.35,98.0
760.41,82.0
760.47,93.0
760.54,93.0
760.6,87.0
760.66,89.0
760.72,87.0
760.79,103.0
760.85,78.0
760.91,91.0
760.98,98.0
761.04,78.0
761.1,80.0
761.17,90.0
761.23,103.0
761.29,93.0
761.35,93.0
761.42,93.0
761.48,82.0
761.54,74.0
761.61,103.0
761.67,114.0
761.73,110.0
761.8,97.0
761.86,101.0
761.92,107.0
761.98,89.0
762.05,100.0
762.11,107.0
762.17,96.0
762.24,93.0
762.3,78.0
762.36,75.0
762.43,96.0
762.49,95.0
762.55,72.0
762.61,85.0
762.68,82.0
762.74,67.0
762.8,83.0
762.87,70.0
762.93,62.0
762.99,79.0
763.06,61.0
763.12,64.0
763.18,59.0
763.24,55.0
763.31,76.0
763.37,62.0
763.43,65.0
763.5,59.0
763.56,65.0
763.62,62.0
763.69,54.0
763.75,70.0
763.81,75.0
763.87,76.0
763.94,71.0
764.0,83.0
764.06,83.0
764.13,66.0
764.19,77.0
764.25,54.0
764.32,45.0
764.38,67.0
764.44,74.0
764.5,92.0
764.57,71.0
764.63,62.0
764.69,85.0
764.76,101.0
764.82,113.0
764.88,109.0
764.95,116.0
765.01,96.0
765.07,91.0
765.13,106.0
765.2,89.0
765.26,102.0
765.32,105.0
765.39,99.0
765.45,87.0
765.51,92.0
765.58,96.0
765.64,108.0
765.7,120.0
765.76,115.0
765.83,100.0
765.89,109.0
765.95,125.0
766.02,97.0
766.08,98.0
766.14,104.0
766.21,114.0
766.27,108.0
766.33,99.0
766.39,112.0
766.46,117.0
766.52,115.0
766.58,94.0
766.65,106.0
766.71,95.0
766.77,98.0
766.84,89.0
766.9,84.0
766.96,65.0
767.02,45.0
767.09,62.0
767.15,69.0
767.21,66.0
767.28,78.0
767.34,60.0
767.4,79.0
767.47,71.0
767.53,84.0
767.59,84.0
767.65,86.0
767.72,93.0
767.78,89.0
767.84,85.0
767.91,108.0
767.97,94.0
768.03,101.0
768.1,96.0
768.16,103.0
768.22,117.0
768.28,104.0
768.35,91.0
768.41,95.0
768.47,83.0
768.54,69.0
768.6,70.0
768.66,80.0
768.73,83.0
768.79,74.0
768.85,98.0
768.91,104.0
768.98,104.0
769.04,107.0
769.1,106.0
769.17,92.0
769.23,91.0
769.29,98.0
769.36,115.0
769.42,120.0
769.48,115.0
769.54,116.0
769.61,123.0
769.67,108.0
769.73,105.0
769.8,103.0
769.86,125.0
769.92,123.0
769.99,107.0
770.05,100.0
770.11,109.0
770.17,120.0
770.24,116.0
770.3,114.0
770.36,95.0
770.43,106.0
770.49,103.0
770.55,114.0
770.62,119.0
770.68,103.0
770.74,98.0
770.8,102.0
770.87,101.0
770.93,89.0
770.99,101.0
771.06,99.0
771.12,78.0
771.18,92.0
771.25,104.0
771.31,103.0
771.37,93.0
771.43,82.0
771.5,85.0
771.56,77.0
771.62,96.0
771.69,117.0
771.75,90.0
771.81,93.0
771.88,85.0
771.94,85.0
772.0,87.0
772.06,77.0
772.13,75.0
772.19,97.0
772.25,81.0
772.32,68.0
772.38,75.0
772.44,89.0
772.51,87.0
772.57,105.0
772.63,96.0
772.69,108.0
772.76,98.0
772.82,110.0
772.88,115.0
772.95,100.0
773.01,102.0
773.07,98.0
773.14,119.0
773.2,110.0
773.26,111.0
773.32,101.0
773.39,92.0
773.45,130.0
773.51,125.0
773.58,122.0
773.64,118.0
773.7,102.0
773.77,89.0
773.83,106.0
773.89,106.0
773.95,129.0
774.02,113.0
774.08,130.0
774.14,140.0
774.21,129.0
774.27,118.0
774.33,125.0
774.4,119.0
774.46,123.0
774.52,135.0
774.58,131.0
774.65,139.0
774.71,145.0
774.77,137.0
774.84,115.0
774.9,115.0
774.96,135.0
775.03,114.0
775.09,132.0
775.15,133.0
775.21,137.0
775.28,134.0
775.34,131.0
775.4,119.0
775.47,128.0
775.53,116.0
775.59,98.0
775.66,108.0
775.72,104.0
775.78,109.0
775.84,107.0
775.91,107.0
775.97,110.0
776.03,123.0
776.1,134.0
776.16,139.0
776.22,141.0
776.29,128.0
776.35,115.0
776.41,118.0
776.47,123.0
776.54,114.0
776.6,121.0
776.66,87.0
776.73,103.0
776.79,97.0
776.85,101.0
776.92,100.0
776.98,98.0
777.04,101.0
777.1,86.0
777.17,101.0
777.23,110.0
777.29,114.0
777.36,105.0
777.42,114.0
777.48,116.0
777.55,115.0
777.61,123.0
777.67,114.0
777.73,96.0
777.8,116.0
777.86,104.0
777.92,79.0
777.99,97.0
778.05,88.0
778.11,91.0
778.18,81.0
778.24,72.0
778.3,95.0
778.36,76.0
778.43,84.0
778.49,87.0
778.55,71.0
778.62,68.0
778.68,76.0
778.74,92.0
778.81,77.0
778.87,79.0
778.93,56.0
778.99,78.0
779.06,71.0
779.12,76.0
779.18,68.0
779.25,73.0
779.31,67.0
779.37,63.0
779.44,62.0
779.5,56.0
779.56,57.0
779.62,49.0
779.69,80.0
779.75,85.0
779.81,86.0
779.88,75.0
779.94,72.0
780.0,87.0
780.07,93.0
780.13,94.0
780.19,89.0
780.25,60.0
780.32,60.0
780.38,88.0
780.44,70.0
780.51,72.0
780.57,64.0
780.63,64.0
780.7,78.0
780.76,71.0
780.82,66.0
780.88,89.0
780.95,79.0
781.01,52.0
781.07,49.0
781.14,58.0
781.2,70.0
781.26,76.0
781.33,66.0
781.39,67.0
781.45,55.0
781.51,39.0
781.58,41.0
781.64,53.0
781.7,60.0
781.77,45.0
781.83,51.0
781.89,41.0
781.96,38.0
782.02,39.0
782.08,44.0
782.14,42.0
782.21,53.0
782.27,71.0
782.33,64.0
782.4,64.0
782.46,65.0
782.52,58.0
782.59,34.0
782.65,58.0
782.71,62.0
782.77,34.0
782.84,64.0
782.9,56.0
782.96,66.0
783.03,83.0
783.09,69.0
783.15,84.0
783.22,67.0
783.28,75.0
783.34,63.0
783.4,49.0
783.47,63.0
783.53,60.0
783.59,52.0
783.66,38.0
783.72,38.0
783.78,41.0
783.85,38.0
783.91,41.0
783.97,47.0
784.03,38.0
784.1,27.0
784.16,56.0
784.22,45.0
784.29,30.0
784.35,61.0
784.41,47.0
784.48,38.0
784.54,51.0
784.6,32.0
784.66,47.0
784.73,60.0
784.79,48.0
784.85,54.0
784.92,64.0
784.98,59.0
785.04,75.0
785.11,71.0
785.17,74.0
785.23,62.0
785.29,62.0
785.36,71.0
785.42,71.0
785.48,85.0
785.55,85.0
785.61,65.0
785.67,74.0
785.74,65.0
785.8,73.0
785.86,74.0
785.92,62.0
785.99,59.0
786.05,65.0
786.11,84.0
786.18,65.0
786.24,75.0
786.3,56.0
786.37,66.0
786.43,77.0
786.49,88.0
786.55,99.0
786.62,93.0
786.68,89.0
786.74,93.0
786.81,90.0
786.87,93.0
786.93,90.0
787.0,87.0
787.06,89.0
787.12,84.0
787.18,99.0
787.25,88.0
787.31,61.0
787.37,58.0
787.44,75.0
787.5,72.0
787.56,74.0
787.63,70.0
787.69,81.0
787.75,73.0
787.81,68.0
787.88,73.0
787.94,61.0
788.0,68.0
788.07,64.0
788.13,42.0
788.19,61.0
788.26,68.0
788.32,62.0
788.38,56.0
788.44,40.0
788.51,63.0
788.57,81.0
788.63,75.0
788.7,75.0
788.76,82.0
788.82,88.0
788.89,88.0
788.95,89.0
789.01,94.0
789.07,84.0
789.14,85.0
789.2,84.0
789.26,89.0
789.33,69.0
789.39,84.0
789.45,74.0
789.52,65.0
789.58,71.0
789.64,81.0
789.7,82.0
789.77,65.0
789.83,74.0
789.89,62.0
789.96,80.0
790.02,78.0
790.08,81.0
790.15,70.0
790.21,64.0
790.27,71.0
790.33,60.0
790.4,57.0
790.46,50.0
790.52,50.0
790.59,38.0
790.65,24.0
790.71,32.0
790.78,43.0
790.84,45.0
790.9,38.0
790.96,41.0
791.03,55.0
791.09,73.0
791.15,65.0
791.22,65.0
791.28,49.0
791.34,46.0
791.41,48.0
791.47,50.0
791.53,53.0
791.59,56.0
791.66,46.0
791.72,34.0
791.78,30.0
791.85,43.0
791.91,64.0
791.97,56.0
792.04,46.0
792.1,38.0
792.16,54.0
792.22,62.0
792.29,47.0
792.35,60.0
792.41,65.0
792.48,71.0
792.54,74.0
792.6,82.0
792.67,60.0
792.73,63.0
792.79,72.0
792.85,62.0
792.92,56.0
792.98,48.0
793.04,56.0
793.11,82.0
793.17,56.0
793.23,65.0
793.3,68.0
793.36,58.0
793.42,41.0
793.48,28.0
793.55,30.0
793.61,32.0
793.67,43.0
793.74,49.0
793.8,62.0
793.86,67.0
793.93,62.0
793.99,68.0
794.05,56.0
794.11,69.0
794.18,74.0
794.24,63.0
794.3,62.0
794.37,56.0
794.43,47.0
794.49,52.0
794.56,48.0
794.62,49.0
794.68,60.0
794.74,71.0
794.81,84.0
794.87,67.0
794.93,65.0
795.0,74.0
795.06,74.0
795.12,75.0
795.19,78.0
795.25,82.0
795.31,68.0
795.37,70.0
795.44,80.0
795.5,86.0
795.56,70.0
795.63,42.0
795.69,61.0
795.75,70.0
795.82,63.0
795.88,66.0
795.94,59.0
796.0,58.0
796.07,77.0
796.13,74.0
796.19,75.0
796.26,79.0
796.32,78.0
796.38,86.0
796.45,68.0
796.51,67.0
796.57,79.0
796.63,83.0
796.7,81.0
796.76,102.0
796.82,97.0
796.89,106.0
796.95,86.0
797.01,90.0
797.08,87.0
797.14,78.0
797.2,101.0
797.26,94.0
797.33,85.0
797.39,100.0
797.45,95.0
797.52,115.0
797.58,102.0
797.64,120.0
797.71,151.0
797.77,136.0
797.83,117.0
797.89,139.0
797.96,122.0
798.02,110.0
798.08,136.0
798.15,123.0
798.21,125.0
798.27,122.0
798.34,108.0
798.4,96.0
798.46,121.0
798.52,138.0
798.59,144.0
798.65,136.0
798.71,140.0
798.78,139.0
798.84,114.0
798.9,97.0
798.97,118.0
799.03,130.0
799.09,124.0
799.15,118.0
799.22,114.0
799.28,100.0
799.34,118.0
799.41,111.0
799.47,110.0
799.53,136.0
799.6,133.0
799.66,129.0
799.72,140.0
799.78,143.0
799.85,158.0
799.91,134.0
799.97,134.0
800.04,146.0
800.1,131.0
800.16,134.0
800.23,120.0
800.29,145.0
800.35,147.0
800.41,151.0
800.48,159.0
800.54,165.0
800.6,155.0
800.67,142.0
800.73,137.0
800.79,136.0
800.86,128.0
800.92,151.0
800.98,143.0
801.04,123.0
801.11,126.0
801.17,119.0
801.23,140.0
801.3,140.0
801.36,124.0
801.42,128.0
801.49,131.0
801.55,151.0
801.61,157.0
801.67,165.0
801.74,166.0
801.8,151.0
801.86,156.0
801.93,153.0
801.99,145.0
802.05,155.0
802.12,145.0
802.18,154.0
802.24,149.0
802.3,157.0
802.37,152.0
802.43,157.0
802.49,184.0
802.56,155.0
802.62,162.0
802.68,169.0
802.75,165.0
802.81,178.0
802.87,158.0
802.93,158.0
803.0,176.0
803.06,168.0
803.12,162.0
803.19,166.0
803.25,170.0
803.31,154.0
803.38,170.0
803.44,165.0
803.5,177.0
803.56,170.0
803.63,160.0
803.69,188.0
803.75,153.0
803.82,161.0
803.88,165.0
803.94,143.0
804.01,150.0
804.07,151.0
804.13,166.0
804.19,171.0
804.26,150.0
804.32,163.0
804.38,156.0
804.45,152.0
804.51,136.0
804.57,138.0
804.64,151.0
804.7,152.0
804.76,143.0
804.82,143.0
804.89,136.0
804.95,134.0
805.01,122.0
805.08,126.0
805.14,137.0
805.2,134.0
805.27,129.0
805.33,143.0
805.39,138.0
805.45,118.0
805.52,129.0
805.58,128.0
805.64,119.0
805.71,132.0
805.77,141.0
805.83,138.0
805.9,143.0
805.96,140.0
806.02,155.0
806.08,154.0
806.15,127.0
806.21,155.0
806.27,152.0
806.34,147.0
806.4,131.0
806.46,118.0
806.53,123.0
806.59,126.0
806.65,126.0
806.71,113.0
806.78,130.0
806.84,122.0
806.9,126.0
806.97,112.0
807.03,116.0
807.09,107.0
807.16,111.0
807.22,119.0
807.28,112.0
807.34,113.0
807.41,141.0
807.47,127.0
807.53,113.0
807.6,118.0
807.66,102.0
807.72,94.0
807.79,96.0
807.85,93.0
807.91,93.0
807.97,82.0
808.04,85.0
808.1,108.0
808.16,102.0
808.23,96.0
808.29,125.0
808.35,131.0
808.42,122.0
808.48,123.0
808.54,127.0
808.6,120.0
808.67,108.0
808.73,108.0
808.79,111.0
808.86,93.0
808.92,92.0
808.98,110.0
809.05,98.0
809.11,87.0
809.17,102.0
809.23,100.0
809.3,94.0
809.36,109.0
809.42,107.0
809.49,118.0
809.55,94.0
809.61,103.0
809.68,84.0
809.74,72.0
809.8,79.0
809.86,87.0
809.93,89.0
809.99,81.0
810.05,77.0
810.12,83.0
810.18,67.0
810.24,61.0
810.31,70.0
810.37,57.0
810.43,50.0
810.49,60.0
810.56,60.0
810.62,74.0
810.68,63.0
810.75,49.0
810.81,58.0
810.87,63.0
810.94,80.0
811.0,65.0
811.06,82.0
811.12,60.0
811.19,64.0
811.25,71.0
811.31,48.0
811.38,40.0
811.44,30.0
811.5,33.0
811.57,46.0
811.63,49.0
811.69,65.0
811.75,57.0
811.82,58.0
811.88,49.0
811.94,77.0
812.01,59.0
812.07,49.0
812.13,56.0
812.2,41.0
812.26,33.0
812.32,31.0
812.38,54.0
812.45,38.0
812.51,52.0
812.57,48.0
812.64,30.0
812.7,48.0
812.76,51.0
812.83,47.0
812.89,59.0
812.95,67.0
813.01,69.0
813.08,86.0
813.14,74.0
813.2,74.0
813.27,66.0
813.33,71.0
813.39,75.0
813.46,65.0
813.52,89.0
813.58,78.0
813.64,87.0
813.71,90.0
813.77,66.0
813.83,65.0
813.9,62.0
813.96,71.0
814.02,76.0
814.09,74.0
814.15,74.0
814.21,58.0
814.27,67.0
814.34,73.0
814.4,67.0
814.46,68.0
814.53,66.0
814.59,56.0
814.65,60.0
814.72,60.0
814.78,60.0
814.84,67.0
814.9,65.0
814.97,87.0
815.03,74.0
815.09,59.0
815.16,56.0
815.22,67.0
815.28,71.0
815.35,60.0
815.41,81.0
815.47,69.0
815.53,93.0
815.6,82.0
815.66,87.0
815.72,93.0
815.79,71.0
815.85,65.0
815.91,71.0
815.98,56.0
816.04,62.0
816.1,60.0
816.16,46.0
816.23,58.0
816.29,56.0
816.35,54.0
816.42,49.0
816.48,58.0
816.54,74.0
816.61,81.0
816.67,60.0
816.73,71.0
816.79,75.0
816.86,81.0
816.92,112.0
816.98,100.0
817.05,83.0
817.11,90.0
817.17,90.0
817.24,105.0
817.3,84.0
817.36,78.0
817.42,93.0
817.49,102.0
817.55,105.0
817.61,95.0
817.68,89.0
817.74,87.0
817.8,105.0
817.87,100.0
817.93,88.0
817.99,67.0
818.05,72.0
818.12,79.0
818.18,37.0
818.24,57.0
818.31,63.0
818.37,59.0
818.43,63.0
818.5,79.0
818.56,77.0
818.62,60.0
818.68,56.0
818.75,71.0
818.81,71.0
818.87,80.0
818.94,72.0
819.0,90.0
819.06,66.0
819.13,62.0
819.19,75.0
819.25,60.0
819.31,74.0
819.38,73.0
819.44,65.0
819.5,89.0
819.57,92.0
819.63,80.0
819.69,65.0
819.76,63.0
819.82,58.0
819.88,66.0
819.94,95.0
820.01,84.0
820.07,90.0
820.13,120.0
820.2,96.0
820.26,82.0
820.32,74.0
820.39,84.0
820.45,91.0
820.51,76.0
820.57,90.0
820.64,103.0
820.7,106.0
820.76,95.0
820.83,106.0
820.89,102.0
820.95,94.0
821.02,99.0
821.08,78.0
821.14,82.0
821.2,87.0
821.27,90.0
821.33,103.0
821.39,108.0
821.46,99.0
821.52,107.0
821.58,89.0
821.65,79.0
821.71,75.0
821.77,81.0
821.83,77.0
821.9,84.0
821.96,92.0
822.02,86.0
822.09,102.0
822.15,86.0
822.21,93.0
822.28,93.0
822.34,68.0
822.4,84.0
822.46,100.0
822.53,92.0
822.59,104.0
822.65,111.0
822.72,108.0
822.78,111.0
822.84,104.0
822.91,114.0
822.97,111.0
823.03,109.0
823.09,113.0
823.16,102.0
823.22,111.0
823.28,109.0
823.35,118.0
823.41,116.0
823.47,122.0
823.54,118.0
823.6,124.0
823.66,115.0
823.72,137.0
823.79,136.0
823.85,137.0
823.91,143.0
823.98,144.0
824.04,161.0
824.1,153.0
824.17,144.0
824.23,133.0
824.29,147.0
824.35,146.0
824.42,130.0
824.48,128.0
824.54,134.0
824.61,127.0
824.67,116.0
824.73,123.0
824.8,128.0
824.86,125.0
824.92,120.0
824.98,137.0
825.05,124.0
825.11,114.0
825.17,136.0
825.24,137.0
825.3,119.0
825.36,121.0
825.43,133.0
825.49,141.0
825.55,137.0
825.61,156.0
825.68,159.0
825.74,150.0
825.8,134.0
825.87,133.0
825.93,123.0
825.99,131.0
826.06,111.0
826.12,126.0
826.18,123.0
826.24,132.0
826.31,122.0
826.37,138.0
826.43,131.0
826.5,117.0
826.56,118.0
826.62,129.0
826.69,125.0
826.75,111.0
826.81,103.0
826.87,111.0
826.94,106.0
827.0,109.0
827.06,116.0
827.13,104.0
827.19,114.0
827.25,94.0
827.32,103.0
827.38,115.0
827.44,92.0
827.5,90.0
827.57,92.0
827.63,111.0
827.69,119.0
827.76,101.0
827.82,101.0
827.88,106.0
827.95,115.0
828.01,104.0
828.07,90.0
828.13,90.0
828.2,110.0
828.26,145.0
828.32,115.0
828.39,151.0
828.45,127.0
828.51,95.0
828.58,109.0
828.64,122.0
828.7,136.0
828.76,143.0
828.83,128.0
828.89,122.0
828.95,125.0
829.02,108.0
829.08,103.0
829.14,111.0
829.21,85.0
829.27,87.0
829.33,102.0
829.39,83.0
829.46,79.0
829.52,82.0
829.58,70.0
829.65,62.0
829.71,78.0
829.77,68.0
829.84,67.0
829.9,65.0
829.96,63.0
830.02,71.0
830.09,63.0
830.15,79.0
830.21,65.0
830.28,74.0
830.34,76.0
830.4,66.0
830.47,74.0
830.53,63.0
830.59,63.0
830.65,68.0
830.72,72.0
830.78,72.0
830.84,82.0
830.91,75.0
830.97,82.0
831.03,78.0
831.1,88.0
831.16,75.0
831.22,85.0
831.28,95.0
831.35,90.0
831.41,101.0
831.47,103.0
831.54,111.0
831.6,104.0
831.66,99.0
831.73,101.0
831.79,95.0
831.85,100.0
831.91,82.0
831.98,96.0
832.04,103.0
832.1,95.0
832.17,111.0
832.23,100.0
832.29,102.0
832.36,104.0
832.42,107.0
832.48,112.0
832.54,100.0
832.61,104.0
832.67,87.0
832.73,91.0
832.8,101.0
832.86,87.0
832.92,99.0
832.99,95.0
833.05,100.0
833.11,82.0
833.17,96.0
833.24,109.0
833.3,98.0
833.36,95.0
833.43,75.0
833.49,82.0
833.55,93.0
833.62,99.0
833.68,101.0
833.74,104.0
833.8,86.0
833.87,104.0
833.93,84.0
833.99,93.0
834.06,110.0
834.12,124.0
834.18,98.0
834.25,83.0
834.31,75.0
834.37,80.0
834.43,93.0
834.5,63.0
834.56,59.0
834.62,40.0
834.69,65.0
834.75,62.0
834.81,47.0
834.88,51.0
834.94,45.0
835.0,55.0
835.06,45.0
835.13,51.0
835.19,51.0
835.25,71.0
835.32,60.0
835.38,71.0
835.44,67.0
835.51,69.0
835.57,56.0
835.63,38.0
835.69,60.0
835.76,53.0
835.82,44.0
835.88,52.0
835.95,53.0
836.01,67.0
836.07,58.0
836.14,53.0
836.2,62.0
836.26,75.0
836.32,88.0
836.39,87.0
836.45,72.0
836.51,58.0
836.58,54.0
836.64,61.0
836.7,38.0
836.77,64.0
836.83,61.0
836.89,44.0
836.95,62.0
837.02,59.0
837.08,73.0
837.14,58.0
837.21,62.0
837.27,58.0
837.33,57.0
837.4,56.0
837.46,59.0
837.52,63.0
837.58,56.0
837.65,60.0
837.71,62.0
837.77,56.0
837.84,66.0
837.9,68.0
837.96,52.0
838.03,49.0
838.09,57.0
838.15,49.0
838.21,41.0
838.28,49.0
838.34,49.0
838.4,25.0
838.47,41.0
838.53,53.0
838.59,39.0
838.66,27.0
838.72,41.0
838.78,49.0
838.84,51.0
838.91,57.0
838.97,52.0
839.03,63.0
839.1,49.0
839.16,53.0
839.22,54.0
839.29,27.0
839.35,43.0
839.41,51.0
839.47,47.0
839.54,41.0
839.6,73.0
839.66,67.0
839.73,72.0
839.79,67.0
839.85,75.0
839.92,89.0
839.98,99.0
840.04,91.0
840.1,87.0
840.17,81.0
840.23,84.0
840.29,99.0
840.36,97.0
840.42,79.0
840.48,81.0
840.55,90.0
840.61,93.0
840.67,96.0
840.73,100.0
840.8,99.0
840.86,100.0
840.92,90.0
840.99,100.0
841.05,92.0
841.11,73.0
841.18,79.0
841.24,72.0
841.3,83.0
841.36,74.0
841.43,58.0
841.49,83.0
841.55,95.0
841.62,89.0
841.68,92.0
841.74,92.0
841.81,78.0
841.87,60.0
841.93,71.0
841.99,64.0
842.06,82.0
842.12,89.0
842.18,88.0
842.25,74.0
842.31,84.0
842.37,91.0
842.44,101.0
842.5,76.0
842.56,73.0
842.62,75.0
842.69,76.0
842.75,72.0
842.81,74.0
842.88,74.0
842.94,76.0
843.0,54.0
843.07,54.0
843.13,66.0
843.19,72.0
843.25,56.0
843.32,66.0
843.38,62.0
843.44,33.0
843.51,60.0
843.57,51.0
843.63,45.0
843.7,59.0
843.76,51.0
843.82,56.0
843.88,46.0
843.95,37.0
844.01,41.0
844.07,35.0
844.14,43.0
844.2,41.0
844.26,49.0
844.33,56.0
844.39,44.0
844.45,40.0
844.51,35.0
844.58,38.0
844.64,46.0
844.7,49.0
844.77,20.0
844.83,20.0
844.89,23.0
844.96,27.0
845.02,24.0
845.08,16.0
845.14,9.0
845.21,4.0
845.27,-10.0
845.33,13.0
845.4,11.0
845.46,9.0
845.52,15.0
845.59,-2.0
845.65,3.0
845.71,-3.0
845.77,-15.0
845.84,6.0
845.9,-15.0
845.96,-11.0
846.03,-11.0
846.09,-21.0
846.15,-10.0
846.22,-14.0
846.28,-5.0
846.34,9.0
846.4,8.0
846.47,-6.0
846.53,8.0
846.59,35.0
846.66,34.0
846.72,38.0
846.78,20.0
846.85,3.0
846.91,10.0
846.97,38.0
847.03,35.0
847.1,31.0
847.16,30.0
847.22,42.0
847.29,33.0
847.35,17.0
847.41,43.0
847.48,45.0
847.54,54.0
847.6,55.0
847.66,59.0
847.73,54.0
847.79,50.0
847.85,69.0
847.92,65.0
847.98,70.0
848.04,50.0
848.11,81.0
848.17,57.0
848.23,51.0
848.29,82.0
848.36,73.0
848.42,71.0
848.48,53.0
848.55,84.0
848.61,77.0
848.67,77.0
848.74,81.0
848.8,70.0
848.86,68.0
848.92,57.0
848.99,64.0
849.05,59.0
849.11,51.0
849.18,26.0
849.24,39.0
849.3,48.0
849.37,42.0
849.43,45.0
849.49,69.0
849.55,63.0
849.62,60.0
849.68,68.0
849.74,67.0
849.81,64.0
849.87,65.0
849.93,59.0
850.0,82.0
850.06,57.0
850.12,58.0
850.18,65.0
850.25,82.0
850.31,72.0
850.37,80.0
850.44,81.0
850.5,77.0
850.56,90.0
850.63,74.0
850.69,91.0
850.75,100.0
850.81,88.0
850.88,84.0
850.94,84.0
851.0,106.0
851.07,101.0
851.13,97.0
851.19,104.0
851.26,93.0
851.32,90.0
851.38,76.0
851.44,88.0
851.51,85.0
851.57,87.0
851.63,92.0
851.7,95.0
851.76,115.0
851.82,111.0
851.89,101.0
851.95,109.0
852.01,107.0
852.07,120.0
852.14,111.0
852.2,107.0
852.26,123.0
852.33,112.0
852.39,106.0
852.45,116.0
852.52,105.0
852.58,97.0
852.64,83.0
852.7,101.0
852.77,84.0
852.83,101.0
852.89,108.0
852.96,105.0
853.02,107.0
853.08,107.0
853.15,130.0
853.21,128.0
853.27,153.0
853.33,140.0
853.4,166.0
853.46,153.0
853.52,156.0
853.59,149.0
853.65,148.0
853.71,159.0
853.78,151.0
853.84,172.0
853.9,163.0
853.96,170.0
854.03,161.0
854.09,159.0
854.15,158.0
854.22,173.0
854.28,183.0
854.34,159.0
854.41,150.0
854.47,156.0
854.53,175.0
854.59,175.0
854.66,174.0
854.72,170.0
854.78,167.0
854.85,171.0
854.91,180.0
854.97,155.0
855.04,169.0
855.1,184.0
855.16,160.0
855.22,159.0
855.29,178.0
855.35,163.0
855.41,159.0
855.48,172.0
855.54,171.0
855.6,162.0
855.67,182.0
855.73,175.0
855.79,177.0
855.85,152.0
855.92,164.0
855.98,180.0
856.04,188.0
856.11,155.0
856.17,157.0
856.23,158.0
856.3,155.0
856.36,140.0
856.42,132.0
856.48,137.0
856.55,145.0
856.61,150.0
856.67,147.0
856.74,142.0
856.8,152.0
856.86,147.0
856.93,139.0
856.99,127.0
857.05,121.0
857.11,145.0
857.18,165.0
857.24,126.0
857.3,119.0
857.37,153.0
857.43,163.0
857.49,163.0
857.56,151.0
857.62,165.0
857.68,139.0
857.74,138.0
857.81,134.0
857.87,149.0
857.93,155.0
858.0,161.0
858.06,152.0
858.12,154.0
858.19,177.0
858.25,168.0
858.31,155.0
858.37,140.0
858.44,157.0
858.5,180.0
858.56,173.0
858.63,156.0
858.69,171.0
858.75,169.0
858.82,164.0
858.88,161.0
858.94,154.0
859.0,140.0
859.07,165.0
859.13,163.0
859.19,144.0
859.26,148.0
859.32,155.0
859.38,166.0
859.45,176.0
859.51,159.0
859.57,149.0
859.63,163.0
859.7,162.0
859.76,171.0
859.82,158.0
859.89,143.0
859.95,148.0
860.01,158.0
860.08,162.0
860.14,156.0
860.2,181.0
860.26,158.0
860.33,165.0
860.39,156.0
860.45,151.0
860.52,135.0
860.58,132.0
860.64,131.0
860.71,102.0
860.77,101.0
860.83,121.0
860.89,117.0
860.96,122.0
861.02,128.0
861.08,129.0
861.15,121.0
861.21,108.0
861.27,103.0
861.34,104.0
861.4,82.0
861.46,112.0
861.52,102.0
861.59,104.0
861.65,76.0
861.71,72.0
861.78,83.0
861.84,103.0
861.9,111.0
861.97,88.0
862.03,83.0
862.09,100.0
862.15,97.0
862.22,74.0
862.28,55.0
862.34,72.0
862.41,56.0
862.47,73.0
862.53,60.0
862.6,70.0
862.66,76.0
862.72,64.0
862.78,92.0
862.85,59.0
862.91,63.0
862.97,63.0
863.04,41.0
863.1,67.0
863.16,64.0
863.23,52.0
863.29,43.0
863.35,44.0
863.41,43.0
863.48,36.0
863.54,41.0
863.6,19.0
863.67,41.0
863.73,38.0
863.79,41.0
863.86,51.0
863.92,33.0
863.98,35.0
864.04,29.0
864.11,36.0
864.17,48.0
864.23,41.0
864.3,29.0
864.36,48.0
864.42,38.0
864.49,43.0
864.55,65.0
864.61,44.0
864.67,49.0
864.74,29.0
864.8,34.0
864.86,44.0
864.93,42.0
864.99,43.0
865.05,43.0
865.12,37.0
865.18,52.0
865.24,58.0
865.3,74.0
865.37,89.0
865.43,73.0
865.49,71.0
865.56,76.0
865.62,70.0
865.68,73.0
865.75,47.0
865.81,54.0
865.87,82.0
865.93,78.0
866.0,83.0
866.06,54.0
866.12,78.0
866.19,59.0
866.25,76.0
866.31,66.0
866.38,58.0
866.44,65.0
866.5,56.0
866.56,70.0
866.63,91.0
866.69,78.0
866.75,74.0
866.82,72.0
866.88,78.0
866.94,84.0
867.01,74.0
867.07,58.0
867.13,77.0
867.19,59.0
867.26,55.0
867.32,63.0
867.38,61.0
867.45,52.0
867.51,74.0
867.57,63.0
867.64,59.0
867.7,49.0
867.76,50.0
867.82,55.0
867.89,44.0
867.95,54.0
868.01,75.0
868.08,61.0
868.14,64.0
868.2,67.0
868.27,59.0
868.33,68.0
868.39,59.0
868.45,34.0
868.52,29.0
868.58,62.0
868.64,68.0
868.71,76.0
868.77,66.0
868.83,85.0
868.9,97.0
868.96,70.0
869.02,71.0
869.08,68.0
869.15,62.0
869.21,67.0
869.27,52.0
869.34,57.0
869.4,58.0
869.46,53.0
869.53,63.0
869.59,77.0
869.65,76.0
869.71,81.0
869.78,82.0
869.84,85.0
869.9,89.0
869.97,79.0
870.03,82.0
870.09,80.0
870.16,82.0
870.22,87.0
870.28,76.0
870.34,77.0
870.41,95.0
870.47,86.0
870.53,89.0
870.6,76.0
870.66,81.0
870.72,83.0
870.79,78.0
870.85,73.0
870.91,53.0
870.97,52.0
871.04,73.0
871.1,89.0
871.16,94.0
871.23,74.0
871.29,63.0
871.35,62.0
871.42,48.0
871.48,70.0
871.54,80.0
871.6,40.0
871.67,62.0
871.73,49.0
871.79,55.0
871.86,66.0
871.92,51.0
871.98,74.0
872.05,61.0
872.11,70.0
872.17,62.0
872.23,55.0
872.3,59.0
872.36,46.0
872.42,78.0
872.49,74.0
872.55,70.0
872.61,88.0
872.68,97.0
872.74,86.0
872.8,93.0
872.86,101.0
872.93,101.0
872.99,93.0
873.05,110.0
873.12,100.0
873.18,100.0
873.24,102.0
873.31,94.0
873.37,107.0
873.43,111.0
873.49,118.0
873.56,114.0
873.62,119.0
873.68,107.0
873.75,110.0
873.81,102.0
873.87,87.0
873.94,87.0
874.0,99.0
874.06,92.0
874.12,87.0
874.19,72.0
874.25,99.0
874.31,105.0
874.38,103.0
874.44,113.0
874.5,88.0
874.57,101.0
874.63,117.0
874.69,105.0
874.75,107.0
874.82,118.0
874.88,107.0
874.94,107.0
875.01,125.0
875.07,118.0
875.13,124.0
875.2,106.0
875.26,111.0
875.32,126.0
875.38,111.0
875.45,111.0
875.51,120.0
875.57,130.0
875.64,135.0
875.7,123.0
875.76,116.0
875.83,129.0
875.89,135.0
875.95,122.0
876.01,127.0
876.08,146.0
876.14,151.0
876.2,140.0
876.27,155.0
876.33,173.0
876.39,143.0
876.46,146.0
876.52,142.0
876.58,132.0
876.64,130.0
876.71,123.0
876.77,132.0
876.83,124.0
876.9,146.0
876.96,139.0
877.02,128.0
877.09,126.0
877.15,129.0
877.21,129.0
877.27,120.0
877.34,136.0
877.4,114.0
877.46,106.0
877.53,100.0
877.59,108.0
877.65,128.0
877.72,118.0
877.78,113.0
877.84,110.0
877.9,121.0
877.97,98.0
878.03,95.0
878.09,92.0
878.16,96.0
878.22,101.0
878.28,87.0
878.35,81.0
878.41,85.0
878.47,75.0
878.53,83.0
878.6,84.0
878.66,95.0
878.72,89.0
878.79,90.0
878.85,103.0
878.91,94.0
878.98,88.0
879.04,100.0
879.1,106.0
879.16,87.0
879.23,79.0
879.29,84.0
879.35,101.0
879.42,81.0
879.48,92.0
879.54,99.0
879.61,97.0
879.67,79.0
879.73,81.0
879.79,71.0
879.86,92.0
879.92,91.0
879.98,93.0
880.05,100.0
880.11,84.0
880.17,81.0
880.24,63.0
880.3,81.0
880.36,108.0
880.42,104.0
880.49,111.0
880.55,101.0
880.61,99.0
880.68,89.0
880.74,74.0
880.8,80.0
880.87,95.0
880.93,109.0
880.99,114.0
881.05,134.0
881.12,134.0
881.18,120.0
881.24,118.0
881.31,112.0
881.37,132.0
881.43,131.0
881.5,136.0
881.56,145.0
881.62,137.0
881.68,133.0
881.75,129.0
881.81,144.0
881.87,142.0
881.94,125.0
882.0,122.0
882.06,142.0
882.13,131.0
882.19,143.0
882.25,140.0
882.31,146.0
882.38,150.0
882.44,118.0
882.5,113.0
882.57,127.0
882.63,138.0
882.69,139.0
882.76,143.0
882.82,161.0
882.88,155.0
882.94,162.0
883.01,154.0
883.07,147.0
883.13,154.0
883.2,137.0
883.26,144.0
883.32,152.0
883.39,159.0
883.45,145.0
883.51,162.0
883.57,162.0
883.64,151.0
883.7,177.0
883.76,173.0
883.83,162.0
883.89,182.0
883.95,166.0
884.02,153.0
884.08,154.0
884.14,140.0
884.2,147.0
884.27,154.0
884.33,133.0
884.39,159.0
884.46,135.0
884.52,148.0
884.58,124.0
884.65,129.0
884.71,120.0
884.77,120.0
884.83,105.0
884.9,88.0
884.96,92.0
885.02,96.0
885.09,88.0
885.15,89.0
885.21,103.0
885.28,117.0
885.34,111.0
885.4,111.0
885.46,103.0
885.53,92.0
885.59,98.0
885.65,114.0
885.72,109.0
885.78,105.0
885.84,99.0
885.91,118.0
885.97,104.0
886.03,100.0
886.09,109.0
886.16,101.0
886.22,107.0
886.28,84.0
886.35,85.0
886.41,82.0
886.47,90.0
886.54,71.0
886.6,81.0
886.66,104.0
886.72,101.0
886.79,95.0
886.85,92.0
886.91,84.0
886.98,93.0
887.04,111.0
887.1,98.0
887.17,91.0
887.23,93.0
887.29,98.0
887.35,114.0
887.42,112.0
887.48,98.0
887.54,109.0
887.61,95.0
887.67,72.0
887.73,90.0
887.8,73.0
887.86,60.0
887.92,58.0
887.98,58.0
888.05,55.0
888.11,60.0
888.17,50.0
888.24,43.0
888.3,38.0
888.36,37.0
888.43,35.0
888.49,27.0
888.55,22.0
888.61,30.0
888.68,32.0
888.74,13.0
888.8,32.0
888.87,24.0
888.93,30.0
888.99,24.0
889.06,34.0
889.12,52.0
889.18,46.0
889.24,55.0
889.31,52.0
889.37,52.0
889.43,40.0
889.5,35.0
889.56,59.0
889.62,62.0
889.69,62.0
889.75,65.0
889.81,75.0
889.87,55.0
889.94,66.0
890.0,66.0
890.06,57.0
890.13,76.0
890.19,70.0
890.25,79.0
890.32,75.0
890.38,80.0
890.44,85.0
890.5,76.0
890.57,70.0
890.63,59.0
890.69,89.0
890.76,81.0
890.82,77.0
890.88,99.0
890.95,86.0
891.01,84.0
891.07,81.0
891.13,65.0
891.2,76.0
891.26,91.0
891.32,82.0
891.39,81.0
891.45,96.0
891.51,90.0
891.58,92.0
891.64,92.0
891.7,104.0
891.76,99.0
891.83,95.0
891.89,104.0
891.95,98.0
892.02,87.0
892.08,93.0
892.14,98.0
892.21,107.0
892.27,121.0
892.33,90.0
892.39,101.0
892.46,106.0
892.52,94.0
892.58,84.0
892.65,87.0
892.71,76.0
892.77,81.0
892.84,88.0
892.9,84.0
892.96,72.0
893.02,71.0
893.09,62.0
893.15,59.0
893.21,52.0
893.28,62.0
893.34,58.0
893.4,79.0
893.47,45.0
893.53,41.0
893.59,50.0
893.65,51.0
893.72,42.0
893.78,34.0
893.84,50.0
893.91,40.0
893.97,43.0
894.03,48.0
894.1,46.0
894.16,54.0
894.22,52.0
894.28,49.0
894.35,54.0
894.41,63.0
894.47,48.0
894.54,36.0
894.6,42.0
894.66,53.0
894.73,62.0
894.79,73.0
894.85,57.0
894.91,57.0
894.98,79.0
895.04,66.0
895.1,60.0
895.17,64.0
895.23,77.0
895.29,66.0
895.36,46.0
895.42,59.0
895.48,66.0
895.54,66.0
895.61,59.0
895.67,51.0
895.73,62.0
895.8,48.0
895.86,81.0
895.92,81.0
895.99,74.0
896.05,76.0
896.11,74.0
896.17,57.0
896.24,57.0
896.3,66.0
896.36,61.0
896.43,55.0
896.49,36.0
896.55,42.0
896.62,51.0
896.68,34.0
896.74,35.0
896.8,50.0
896.87,33.0
896.93,58.0
896.99,43.0
897.06,46.0
897.12,30.0
897.18,21.0
897.25,15.0
897.31,22.0
897.37,36.0
897.43,21.0
897.5,28.0
897.56,37.0
897.62,39.0
897.69,48.0
897.75,26.0
897.81,32.0
897.88,40.0
897.94,47.0
898.0,59.0
898.06,46.0
898.13,60.0
898.19,74.0
898.25,92.0
898.32,73.0
898.38,57.0
898.44,52.0
898.51,81.0
898.57,85.0
898.63,107.0
898.69,108.0
898.76,100.0
898.82,107.0
898.88,100.0
898.95,103.0
899.01,100.0
899.07,100.0
899.14,95.0
899.2,86.0
899.26,92.0
899.32,79.0
899.39,57.0
899.45,63.0
899.51,58.0
899.58,63.0
899.64,48.0
899.7,56.0
899.77,52.0
899.83,62.0
899.89,57.0
899.95,48.0
900.02,54.0
900.08,58.0
900.14,69.0
900.21,60.0
900.27,70.0
900.33,79.0
900.4,78.0
900.46,88.0
900.52,109.0
900.58,99.0
900.65,92.0
900.71,111.0
900.77,92.0
900.84,99.0
900.9,99.0
900.96,97.0
901.03,85.0
901.09,107.0
901.15,122.0
901.21,123.0
901.28,126.0
901.34,114.0
901.4,110.0
901.47,110.0
901.53,120.0
901.59,105.0
901.66,126.0
901.72,126.0
901.78,120.0
901.84,137.0
901.91,124.0
901.97,109.0
902.03,104.0
902.1,115.0
902.16,117.0
902.22,120.0
902.29,109.0
902.35,107.0
902.41,131.0
902.47,126.0
902.54,128.0
902.6,141.0
902.66,126.0
902.73,117.0
902.79,121.0
902.85,113.0
902.92,134.0
902.98,141.0
903.04,129.0
903.1,156.0
903.17,156.0
903.23,149.0
903.29,117.0
903.36,129.0
903.42,132.0
903.48,135.0
903.55,142.0
903.61,135.0
903.67,99.0
903.73,125.0
903.8,135.0
903.86,128.0
903.92,146.0
903.99,159.0
904.05,143.0
904.11,145.0
904.18,150.0
904.24,156.0
904.3,169.0
904.36,164.0
904.43,160.0
904.49,151.0
904.55,146.0
904.62,152.0
904.68,151.0
904.74,152.0
904.81,160.0
904.87,167.0
904.93,169.0
904.99,153.0
905.06,160.0
905.12,114.0
905.18,142.0
905.25,140.0
905.31,129.0
905.37,157.0
905.44,121.0
905.5,126.0
905.56,144.0
905.62,149.0
905.69,151.0
905.75,128.0
905.81,141.0
905.88,143.0
905.94,145.0
906.0,162.0
906.07,144.0
906.13,159.0
906.19,152.0
906.25,143.0
906.32,154.0
906.38,171.0
906.44,170.0
906.51,169.0
906.57,158.0
906.63,188.0
906.7,184.0
906.76,164.0
906.82,181.0
906.88,184.0
906.95,197.0
907.01,199.0
907.07,221.0
907.14,198.0
907.2,206.0
907.26,194.0
907.33,188.0
907.39,209.0
907.45,205.0
907.51,219.0
907.58,198.0
907.64,194.0
907.7,189.0
907.77,177.0
907.83,208.0
907.89,195.0
907.96,158.0
908.02,171.0
908.08,156.0
908.14,187.0
908.21,187.0
908.27,172.0
908.33,189.0
908.4,181.0
908.46,178.0
908.52,171.0
908.59,188.0
908.65,184.0
908.71,175.0
908.77,181.0
908.84,157.0
908.9,176.0
908.96,169.0
909.03,181.0
909.09,193.0
909.15,199.0
909.22,189.0
909.28,203.0
909.34,193.0
909.4,191.0
909.47,199.0
909.53,183.0
909.59,196.0
909.66,197.0
909.72,205.0
909.78,186.0
909.85,160.0
909.91,172.0
909.97,165.0
910.03,169.0
910.1,183.0
910.16,185.0
910.22,179.0
910.29,175.0
910.35,150.0
910.41,151.0
910.48,160.0
910.54,160.0
910.6,171.0
910.66,156.0
910.73,154.0
910.79,174.0
910.85,162.0
910.92,158.0
910.98,152.0
911.04,147.0
911.11,151.0
911.17,148.0
911.23,125.0
911.29,139.0
911.36,106.0
911.42,106.0
911.48,106.0
911.55,120.0
911.61,129.0
911.67,114.0
911.74,111.0
911.8,110.0
911.86,109.0
911.92,115.0
911.99,107.0
912.05,106.0
912.11,97.0
912.18,98.0
912.24,93.0
912.3,73.0
912.37,85.0
912.43,84.0
912.49,78.0
912.55,88.0
912.62,94.0
912.68,99.0
912.74,67.0
912.81,62.0
912.87,75.0
912.93,81.0
913.0,91.0
913.06,107.0
913.12,95.0
913.18,72.0
913.25,92.0
913.31,94.0
913.37,80.0
913.44,81.0
913.5,66.0
913.56,74.0
913.63,75.0
913.69,65.0
913.75,59.0
913.81,82.0
913.88,74.0
913.94,78.0
914.0,83.0
914.07,87.0
914.13,88.0
914.19,62.0
914.26,50.0
914.32,70.0
914.38,73.0
914.44,50.0
914.51,59.0
914.57,56.0
914.63,37.0
914.7,39.0
914.76,51.0
914.82,40.0
914.89,28.0
914.95,56.0
915.01,43.0
915.07,41.0
915.14,49.0
915.2,26.0
915.26,28.0
915.33,39.0
915.39,46.0
915.45,56.0
915.52,44.0
915.58,20.0
915.64,33.0
915.7,36.0
915.77,42.0
915.83,40.0
915.89,20.0
915.96,35.0
916.02,30.0
916.08,53.0
916.15,59.0
916.21,36.0
916.27,64.0
916.33,53.0
916.4,85.0
916.46,84.0
916.52,57.0
916.59,67.0
916.65,55.0
916.71,48.0
916.78,53.0
916.84,59.0
916.9,58.0
916.96,56.0
917.03,51.0
917.09,70.0
917.15,51.0
917.22,52.0
917.28,56.0
917.34,56.0
917.41,42.0
917.47,44.0
917.53,58.0
917.59,41.0
917.66,36.0
917.72,52.0
917.78,51.0
917.85,79.0
917.91,57.0
917.97,60.0
918.04,74.0
918.1,78.0
918.16,70.0
918.22,74.0
918.29,73.0
918.35,61.0
918.41,52.0
918.48,47.0
918.54,44.0
918.6,34.0
918.67,37.0
918.73,15.0
918.79,37.0
918.85,50.0
918.92,13.0
918.98,17.0
919.04,25.0
919.11,46.0
919.17,53.0
919.23,57.0
919.3,44.0
919.36,52.0
919.42,46.0
919.48,32.0
919.55,41.0
919.61,48.0
919.67,58.0
919.74,49.0
919.8,54.0
919.86,54.0
919.93,49.0
919.99,46.0
920.05,59.0
920.11,63.0
920.18,56.0
920.24,56.0
920.3,90.0
920.37,74.0
920.43,55.0
920.49,68.0
920.56,63.0
920.62,53.0
920.68,46.0
920.74,49.0
920.81,58.0
920.87,80.0
920.93,66.0
921.0,70.0
921.06,71.0
921.12,57.0
921.19,63.0
921.25,54.0
921.31,55.0
921.37,51.0
921.44,45.0
921.5,32.0
921.56,29.0
921.63,23.0
921.69,43.0
921.75,58.0
921.82,54.0
921.88,54.0
921.94,52.0
922.0,43.0
922.07,51.0
922.13,44.0
922.19,32.0
922.26,59.0
922.32,44.0
922.38,64.0
922.45,49.0
922.51,56.0
922.57,44.0
922.63,54.0
922.7,58.0
922.76,23.0
922.82,24.0
922.89,35.0
922.95,35.0
923.01,51.0
923.08,67.0
923.14,59.0
923.2,51.0
923.26,64.0
923.33,70.0
923.39,74.0
923.45,66.0
923.52,65.0
923.58,73.0
923.64,62.0
923.71,52.0
923.77,76.0
923.83,76.0
923.89,81.0
923.96,67.0
924.02,65.0
924.08,60.0
924.15,54.0
924.21,63.0
924.27,74.0
924.34,77.0
924.4,56.0
924.46,59.0
924.52,69.0
924.59,63.0
924.65,85.0
924.71,79.0
924.78,89.0
924.84,85.0
924.9,66.0
924.97,79.0
925.03,84.0
925.09,85.0
925.15,85.0
925.22,96.0
925.28,89.0
925.34,82.0
925.41,103.0
925.47,95.0
925.53,83.0
925.6,94.0
925.66,98.0
925.72,85.0
925.78,65.0
925.85,76.0
925.91,66.0
925.97,84.0
926.04,109.0
926.1,100.0
926.16,108.0
926.23,117.0
926.29,118.0
926.35,120.0
926.41,114.0
926.48,93.0
926.54,96.0
926.6,120.0
926.67,95.0
926.73,92.0
926.79,92.0
926.86,98.0
926.92,95.0
926.98,92.0
927.04,90.0
927.11,68.0
927.17,85.0
927.23,109.0
927.3,114.0
927.36,96.0
927.42,116.0
927.49,116.0
927.55,101.0
927.61,81.0
927.67,90.0
927.74,98.0
927.8,93.0
927.86,99.0
927.93,104.0
927.99,74.0
928.05,72.0
928.12,95.0
928.18,82.0
928.24,103.0
928.3,103.0
928.37,103.0
928.43,121.0
928.49,104.0
928.56,113.0
928.62,97.0
928.68,73.0
928.75,85.0
928.81,79.0
928.87,84.0
928.93,82.0
929.0,71.0
929.06,76.0
929.12,95.0
929.19,88.0
929.25,77.0
929.31,69.0
929.38,74.0
929.44,74.0
929.5,52.0
929.56,64.0
929.63,84.0
929.69,92.0
929.75,86.0
929.82,70.0
929.88,67.0
929.94,85.0
930.01,81.0
930.07,80.0
930.13,65.0
930.19,88.0
930.26,103.0
930.32,82.0
930.38,73.0
930.45,79.0
930.51,78.0
930.57,88.0
930.64,92.0
930.7,90.0
930.76,81.0
930.82,77.0
930.89,77.0
930.95,100.0
931.01,107.0
931.08,96.0
931.14,118.0
931.2,120.0
931.27,108.0
931.33,109.0
931.39,116.0
931.45,106.0
931.52,132.0
931.58,114.0
931.64,120.0
931.71,124.0
931.77,98.0
931.83,110.0
931.9,127.0
931.96,89.0
932.02,97.0
932.08,131.0
932.15,120.0
932.21,111.0
932.27,101.0
932.34,98.0
932.4,118.0
932.46,119.0
932.53,123.0
932.59,119.0
932.65,119.0
932.71,99.0
932.78,114.0
932.84,115.0
932.9,118.0
932.97,129.0
933.03,113.0
933.09,112.0
933.16,121.0
933.22,132.0
933.28,129.0
933.34,135.0
933.41,136.0
933.47,142.0
933.53,141.0
933.6,127.0
933.66,112.0
933.72,111.0
933.79,108.0
933.85,114.0
933.91,112.0
933.97,121.0
934.04,110.0
934.1,134.0
934.16,119.0
934.23,125.0
934.29,139.0
934.35,117.0
934.42,114.0
934.48,111.0
934.54,115.0
934.6,139.0
934.67,128.0
934.73,136.0
934.79,125.0
934.86,123.0
934.92,130.0
934.98,133.0
935.05,145.0
935.11,128.0
935.17,123.0
935.23,136.0
935.3,138.0
935.36,133.0
935.42,140.0
935.49,140.0
935.55,136.0
935.61,148.0
935.68,140.0
935.74,133.0
935.8,131.0
935.86,134.0
935.93,122.0
935.99,137.0
936.05,148.0
936.12,131.0
936.18,139.0
936.24,127.0
936.31,113.0
936.37,108.0
936.43,125.0
936.49,120.0
936.56,130.0
936.62,136.0
936.68,117.0
936.75,119.0
936.81,133.0
936.87,131.0
936.94,118.0
937.0,114.0
937.06,111.0
937.12,95.0
937.19,110.0
937.25,124.0
937.31,102.0
937.38,103.0
937.44,101.0
937.5,114.0
937.57,114.0
937.63,123.0
937.69,133.0
937.75,129.0
937.82,112.0
937.88,96.0
937.94,133.0
938.01,110.0
938.07,110.0
938.13,114.0
938.2,131.0
938.26,107.0
938.32,104.0
938.38,109.0
938.45,107.0
938.51,92.0
938.57,92.0
938.64,90.0
938.7,88.0
938.76,94.0
938.83,94.0
938.89,77.0
938.95,83.0
939.01,92.0
939.08,80.0
939.14,86.0
939.2,67.0
939.27,60.0
939.33,71.0
939.39,54.0
939.46,52.0
939.52,72.0
939.58,70.0
939.64,59.0
939.71,88.0
939.77,74.0
939.83,70.0
939.9,59.0
939.96,52.0
940.02,78.0
940.09,85.0
940.15,89.0
940.21,61.0
940.27,59.0
940.34,63.0
940.4,78.0
940.46,91.0
940.53,91.0
940.59,92.0
940.65,104.0
940.72,100.0
940.78,90.0
940.84,124.0
940.9,90.0
940.97,84.0
941.03,91.0
941.09,90.0
941.16,97.0
941.22,104.0
941.28,106.0
941.35,99.0
941.41,81.0
941.47,110.0
941.53,82.0
941.6,88.0
941.66,95.0
941.72,99.0
941.79,91.0
941.85,93.0
941.91,113.0
941.98,91.0
942.04,118.0
942.1,102.0
942.16,103.0
942.23,112.0
942.29,125.0
942.35,112.0
942.42,122.0
942.48,138.0
942.54,139.0
942.61,129.0
942.67,124.0
942.73,127.0
942.79,125.0
942.86,126.0
942.92,135.0
942.98,143.0
943.05,144.0
943.11,135.0
943.17,144.0
943.24,137.0
943.3,123.0
943.36,117.0
943.42,128.0
943.49,122.0
943.55,141.0
943.61,133.0
943.68,122.0
943.74,111.0
943.8,90.0
943.87,103.0
943.93,88.0
943.99,82.0
944.05,90.0
944.12,89.0
944.18,89.0
944.24,70.0
944.31,74.0
944.37,76.0
944.43,84.0
944.5,85.0
944.56,92.0
944.62,89.0
944.68,94.0
944.75,79.0
944.81,92.0
944.87,78.0
944.94,56.0
945.0,60.0
945.06,59.0
945.13,70.0
945.19,64.0
945.25,65.0
945.31,67.0
945.38,68.0
945.44,70.0
945.5,87.0
945.57,75.0
945.63,59.0
945.69,40.0
945.76,37.0
945.82,26.0
945.88,29.0
945.94,30.0
946.01,34.0
946.07,34.0
946.13,12.0
946.2,26.0
946.26,36.0
946.32,36.0
946.39,49.0
946.45,28.0
946.51,32.0
946.57,47.0
946.64,57.0
946.7,34.0
946.76,38.0
946.83,40.0
946.89,24.0
946.95,34.0
947.02,23.0
947.08,33.0
947.14,15.0
947.2,34.0
947.27,26.0
947.33,11.0
947.39,11.0
947.46,23.0
947.52,39.0
947.58,36.0
947.65,40.0
947.71,49.0
947.77,45.0
947.83,30.0
947.9,41.0
947.96,30.0
948.02,34.0
948.09,56.0
948.15,44.0
948.21,41.0
948.28,61.0
948.34,34.0
948.4,42.0
948.46,18.0
948.53,42.0
948.59,40.0
948.65,46.0
948.72,29.0
948.78,26.0
948.84,51.0
948.91,68.0
948.97,44.0
949.03,42.0
949.09,64.0
949.16,42.0
949.22,40.0
949.28,45.0
949.35,51.0
949.41,45.0
949.47,37.0
949.54,25.0
949.6,44.0
949.66,52.0
949.72,41.0
949.79,54.0
949.85,67.0
949.91,73.0
949.98,61.0
950.04,73.0
950.1,68.0
950.17,70.0
950.23,67.0
950.29,67.0
950.35,66.0
950.42,88.0
950.48,76.0
950.54,78.0
950.61,74.0
950.67,76.0
950.73,78.0
950.8,69.0
950.86,69.0
950.92,74.0
950.98,68.0
951.05,63.0
951.11,70.0
951.17,59.0
951.24,67.0
951.3,52.0
951.36,67.0
951.43,70.0
951.49,87.0
951.55,85.0
951.61,74.0
951.68,106.0
951.74,100.0
951.8,86.0
951.87,94.0
951.93,91.0
951.99,101.0
952.06,111.0
952.12,93.0
952.18,100.0
952.24,102.0
952.31,116.0
952.37,98.0
952.43,100.0
952.5,96.0
952.56,93.0
952.62,109.0
952.69,88.0
952.75,98.0
952.81,88.0
952.87,85.0
952.94,104.0
953.0,94.0
953.06,93.0
953.13,105.0
953.19,104.0
953.25,107.0
953.32,125.0
953.38,103.0
953.44,106.0
953.5,112.0
953.57,105.0
953.63,119.0
953.69,134.0
953.76,120.0
953.82,108.0
953.88,131.0
953.95,127.0
954.01,126.0
954.07,144.0
954.13,129.0
954.2,109.0
954.26,107.0
954.32,126.0
954.39,126.0
954.45,129.0
954.51,110.0
954.58,99.0
954.64,112.0
954.7,123.0
954.76,115.0
954.83,116.0
954.89,113.0
954.95,105.0
955.02,109.0
955.08,93.0
955.14,97.0
955.21,90.0
955.27,84.0
955.33,75.0
955.39,102.0
955.46,125.0
955.52,104.0
955.58,119.0
955.65,89.0
955.71,109.0
955.77,105.0
955.84,103.0
955.9,118.0
955.96,99.0
956.02,86.0
956.09,87.0
956.15,99.0
956.21,98.0
956.28,79.0
956.34,101.0
956.4,111.0
956.47,105.0
956.53,88.0
956.59,101.0
956.65,125.0
956.72,120.0
956.78,124.0
956.84,100.0
956.91,101.0
956.97,105.0
957.03,117.0
957.1,108.0
957.16,92.0
957.22,106.0
957.28,110.0
957.35,129.0
957.41,120.0
957.47,117.0
957.54,124.0
957.6,110.0
957.66,120.0
957.73,140.0
957.79,145.0
957.85,160.0
957.91,140.0
957.98,153.0
958.04,158.0
958.1,155.0
958.17,145.0
958.23,150.0
958.29,162.0
958.36,159.0
958.42,162.0
958.48,165.0
958.54,173.0
958.61,155.0
958.67,168.0
958.73,170.0
958.8,174.0
958.86,154.0
958.92,139.0
958.99,168.0
959.05,161.0
959.11,157.0
959.17,169.0
959.24,169.0
959.3,156.0
959.36,161.0
959.43,155.0
959.49,147.0
959.55,147.0
959.62,177.0
959.68,157.0
959.74,162.0
959.8,170.0
959.87,141.0
959.93,170.0
959.99,189.0
960.06,158.0
960.12,150.0
960.18,156.0
960.25,159.0
960.31,157.0
960.37,166.0
960.43,154.0
960.5,140.0
960.56,157.0
960.62,143.0
960.69,136.0
960.75,151.0
960.81,120.0
960.88,139.0
960.94,142.0
961.0,136.0
961.06,151.0
961.13,144.0
961.19,160.0
961.25,157.0
961.32,158.0
961.38,135.0
961.44,180.0
961.51,175.0
961.57,162.0
961.63,176.0
961.69,162.0
961.76,166.0
961.82,151.0
961.88,184.0
961.95,189.0
962.01,175.0
962.07,176.0
962.14,180.0
962.2,173.0
962.26,166.0
962.32,161.0
962.39,148.0
962.45,142.0
962.51,129.0
962.58,122.0
962.64,144.0
962.7,146.0
962.77,128.0
962.83,129.0
962.89,134.0
962.95,123.0
963.02,132.0
963.08,127.0
963.14,142.0
963.21,144.0
963.27,118.0
963.33,120.0
963.4,109.0
963.46,119.0
963.52,115.0
963.58,99.0
963.65,111.0
963.71,91.0
963.77,84.0
963.84,103.0
963.9,114.0
963.96,114.0
964.03,101.0
964.09,121.0
964.15,125.0
964.21,112.0
964.28,126.0
964.34,122.0
964.4,92.0
964.47,100.0
964.53,111.0
964.59,113.0
964.66,104.0
964.72,98.0
964.78,107.0
964.84,110.0
964.91,120.0
964.97,107.0
965.03,95.0
965.1,96.0
965.16,95.0
965.22,84.0
965.29,96.0
965.35,77.0
965.41,72.0
965.47,87.0
965.54,97.0
965.6,101.0
965.66,91.0
965.73,89.0
965.79,79.0
965.85,82.0
965.92,87.0
965.98,87.0
966.04,101.0
966.1,66.0
966.17,80.0
966.23,83.0
966.29,93.0
966.36,93.0
966.42,88.0
966.48,95.0
966.55,104.0
966.61,80.0
966.67,92.0
966.73,97.0
966.8,93.0
966.86,88.0
966.92,95.0
966.99,100.0
967.05,84.0
967.11,97.0
967.18,78.0
967.24,89.0
967.3,83.0
967.36,97.0
967.43,92.0
967.49,70.0
967.55,63.0
967.62,67.0
967.68,60.0
967.74,64.0
967.81,80.0
967.87,78.0
967.93,101.0
967.99,92.0
968.06,108.0
968.12,115.0
968.18,93.0
968.25,98.0
968.31,96.0
968.37,107.0
968.44,118.0
968.5,125.0
968.56,120.0
968.62,125.0
968.69,135.0
968.75,103.0
968.81,112.0
968.88,101.0
968.94,84.0
969.0,86.0
969.07,68.0
969.13,97.0
969.19,104.0
969.25,122.0
969.32,109.0
969.38,96.0
969.44,114.0
969.51,118.0
969.57,113.0
969.63,108.0
969.7,95.0
969.76,121.0
969.82,119.0
969.88,114.0
969.95,121.0
970.01,126.0
970.07,114.0
970.14,121.0
970.2,110.0
970.26,111.0
970.33,92.0
970.39,84.0
970.45,122.0
970.51,93.0
970.58,89.0
970.64,102.0
970.7,107.0
970.77,110.0
970.83,78.0
970.89,81.0
970.96,84.0
971.02,80.0
971.08,81.0
971.14,85.0
971.21,88.0
971.27,93.0
971.33,81.0
971.4,76.0
971.46,94.0
971.52,105.0
971.59,85.0
971.65,106.0
971.71,103.0
971.77,84.0
971.84,89.0
971.9,87.0
971.96,90.0
972.03,97.0
972.09,82.0
972.15,81.0
972.22,78.0
972.28,68.0
972.34,71.0
972.4,67.0
972.47,59.0
972.53,58.0
972.59,61.0
972.66,36.0
972.72,48.0
972.78,40.0
972.85,31.0
972.91,32.0
972.97,22.0
973.03,39.0
973.1,24.0
973.16,41.0
973.22,40.0
973.29,48.0
973.35,44.0
973.41,30.0
973.48,54.0
973.54,48.0
973.6,57.0
973.66,73.0
973.73,66.0
973.79,64.0
973.85,65.0
973.92,48.0
973.98,54.0
974.04,61.0
974.11,48.0
974.17,68.0
974.23,73.0
974.29,67.0
974.36,44.0
974.42,54.0
974.48,67.0
974.55,68.0
974.61,71.0
974.67,57.0
974.74,62.0
974.8,56.0
974.86,68.0
974.92,56.0
974.99,68.0
975.05,73.0
975.11,88.0
975.18,85.0
975.24,82.0
975.3,69.0
975.37,77.0
975.43,66.0
975.49,59.0
975.55,80.0
975.62,68.0
975.68,75.0
975.74,68.0
975.81,79.0
975.87,95.0
975.93,97.0
976.0,70.0
976.06,85.0
976.12,91.0
976.18,82.0
976.25,106.0
976.31,101.0
976.37,113.0
976.44,132.0
976.5,116.0
976.56,120.0
976.63,125.0
976.69,118.0
976.75,95.0
976.81,107.0
976.88,110.0
976.94,110.0
977.0,110.0
977.07,98.0
977.13,97.0
977.19,107.0
977.26,111.0
977.32,97.0
977.38,102.0
977.44,111.0
977.51,114.0
977.57,101.0
977.63,110.0
977.7,93.0
977.76,114.0
977.82,105.0
977.89,91.0
977.95,83.0
978.01,74.0
978.07,87.0
978.14,85.0
978.2,89.0
978.26,89.0
978.33,79.0
978.39,57.0
978.45,70.0
978.52,82.0
978.58,100.0
978.64,87.0
978.7,94.0
978.77,96.0
978.83,108.0
978.89,90.0
978.96,88.0
979.02,95.0
979.08,88.0
979.15,84.0
979.21,98.0
979.27,100.0
979.33,114.0
979.4,94.0
979.46,71.0
979.52,99.0
979.59,107.0
979.65,112.0
979.71,116.0
979.78,101.0
979.84,89.0
979.9,88.0
979.96,104.0
980.03,84.0
980.09,95.0
980.15,96.0
980.22,100.0
980.28,91.0
980.34,74.0
980.41,87.0
980.47,78.0
980.53,59.0
980.59,51.0
980.66,40.0
980.72,37.0
980.78,50.0
980.85,31.0
980.91,44.0
980.97,41.0
981.04,26.0
981.1,43.0
981.16,40.0
981.22,56.0
981.29,57.0
981.35,62.0
981.41,59.0
981.48,62.0
981.54,71.0
981.6,81.0
981.67,71.0
981.73,56.0
981.79,48.0
981.85,79.0
981.92,65.0
981.98,59.0
982.04,43.0
982.11,43.0
982.17,54.0
982.23,54.0
982.3,55.0
982.36,30.0
982.42,34.0
982.48,46.0
982.55,52.0
982.61,45.0
982.67,42.0
982.74,41.0
982.8,51.0
982.86,36.0
982.93,36.0
982.99,22.0
983.05,23.0
983.11,35.0
983.18,35.0
983.24,39.0
983.3,43.0
983.37,51.0
983.43,61.0
983.49,66.0
983.56,55.0
983.62,62.0
983.68,86.0
983.74,80.0
983.81,87.0
983.87,92.0
983.93,111.0
984.0,119.0
984.06,108.0
984.12,103.0
984.19,100.0
984.25,98.0
984.31,119.0
984.37,140.0
984.44,106.0
984.5,112.0
984.56,121.0
984.63,118.0
984.69,125.0
984.75,118.0
984.82,124.0
984.88,121.0
984.94,97.0
985.0,115.0
985.07,97.0
985.13,102.0
985.19,86.0
985.26,103.0
985.32,101.0
985.38,100.0
985.45,81.0
985.51,101.0
985.57,107.0
985.63,98.0
985.7,107.0
985.76,103.0
985.82,108.0
985.89,104.0
985.95,89.0
986.01,96.0
986.08,102.0
986.14,95.0
986.2,86.0
986.26,92.0
986.33,94.0
986.39,110.0
986.45,96.0
986.52,89.0
986.58,92.0
986.64,107.0
986.71,119.0
986.77,115.0
986.83,115.0
986.89,106.0
986.96,111.0
987.02,122.0
987.08,100.0
987.15,109.0
987.21,114.0
987.27,87.0
987.34,101.0
987.4,109.0
987.46,97.0
987.52,78.0
987.59,71.0
987.65,87.0
987.71,87.0
987.78,91.0
987.84,80.0
987.9,77.0
987.97,87.0
988.03,86.0
988.09,92.0
988.15,76.0
988.22,75.0
988.28,86.0
988.34,82.0
988.41,91.0
988.47,98.0
988.53,84.0
988.6,78.0
988.66,91.0
988.72,74.0
988.78,86.0
988.85,96.0
988.91,92.0
988.97,106.0
989.04,97.0
989.1,86.0
989.16,96.0
989.23,96.0
989.29,85.0
989.35,92.0
989.41,74.0
989.48,81.0
989.54,83.0
989.6,75.0
989.67,73.0
989.73,74.0
989.79,63.0
989.86,63.0
989.92,71.0
989.98,60.0
990.04,47.0
990.11,74.0
990.17,46.0
990.23,57.0
990.3,48.0
990.36,39.0
990.42,60.0
990.49,59.0
990.55,61.0
990.61,62.0
990.67,84.0
990.74,83.0
990.8,78.0
990.86,76.0
990.93,90.0
990.99,95.0
991.05,75.0
991.12,66.0
991.18,63.0
991.24,81.0
991.3,88.0
991.37,81.0
991.43,73.0
991.49,65.0
991.56,66.0
991.62,63.0
991.68,56.0
991.75,60.0
991.81,61.0
991.87,74.0
991.93,82.0
992.0,112.0
992.06,103.0
992.12,104.0
992.19,104.0
992.25,110.0
992.31,99.0
992.38,100.0
992.44,125.0
992.5,126.0
992.56,133.0
992.63,114.0
992.69,123.0
992.75,131.0
992.82,126.0
992.88,123.0
992.94,135.0
993.01,118.0
993.07,126.0
993.13,126.0
993.19,127.0
993.26,139.0
993.32,136.0
993.38,128.0
993.45,121.0
993.51,114.0
993.57,107.0
993.64,114.0
993.7,118.0
993.76,127.0
993.82,123.0
993.89,115.0
993.95,92.0
994.01,85.0
994.08,101.0
994.14,103.0
994.2,95.0
994.27,99.0
994.33,133.0
994.39,112.0
994.45,125.0
994.52,126.0
994.58,134.0
994.64,129.0
994.71,133.0
994.77,107.0
994.83,107.0
994.9,117.0
994.96,105.0
995.02,95.0
995.08,77.0
995.15,104.0
995.21,108.0
995.27,86.0
995.34,107.0
995.4,104.0
995.46,111.0
995.53,106.0
995.59,103.0
995.65,104.0
995.71,89.0
995.78,86.0
995.84,99.0
995.9,92.0
995.97,83.0
996.03,82.0
996.09,85.0
996.16,85.0
996.22,94.0
996.28,103.0
996.34,88.0
996.41,60.0
996.47,61.0
996.53,60.0
996.6,51.0
996.66,49.0
996.72,46.0
996.79,70.0
996.85,65.0
996.91,63.0
996.97,59.0
997.04,63.0
997.1,49.0
997.16,41.0
997.23,25.0
997.29,30.0
997.35,26.0
997.42,16.0
997.48,19.0
997.54,43.0
997.6,29.0
997.67,23.0
997.73,20.0
997.79,51.0
997.86,63.0
997.92,41.0
997.98,57.0
998.05,63.0
998.11,36.0
998.17,49.0
998.23,51.0
998.3,48.0
998.36,51.0
998.42,54.0
998.49,55.0
998.55,47.0
998.61,54.0
998.68,51.0
998.74,28.0
998.8,28.0
998.86,40.0
998.93,45.0
998.99,59.0
999.05,52.0
999.12,45.0
999.18,61.0
999.24,48.0
999.31,52.0
999.37,42.0
999.43,37.0
999.49,40.0
999.56,49.0
999.62,67.0
999.68,50.0
999.75,41.0
999.81,48.0
999.87,55.0
