timestamp,intensity
0,-268.0
0.06,-287.0
0.13,-271.0
0.19,-287.0
0.25,-292.0
0.32,-289.0
0.38,-273.0
0.44,-266.0
0.5,-283.0
0.57,-297.0
0.63,-307.0
0.69,-298.0
0.76,-302.0
0.82,-291.0
0.88,-289.0
0.94,-296.0
1.01,-294.0
1.07,-281.0
1.13,-261.0
1.2,-245.0
1.26,-254.0
1.32,-273.0
1.39,-268.0
1.45,-292.0
1.51,-282.0
1.57,-282.0
1.64,-284.0
1.7,-286.0
1.76,-294.0
1.83,-264.0
1.89,-278.0
1.95,-259.0
2.02,-252.0
2.08,-258.0
2.14,-240.0
2.2,-228.0
2.27,-259.0
2.33,-262.0
2.39,-246.0
2.46,-226.0
2.52,-240.0
2.58,-258.0
2.65,-267.0
2.71,-274.0
2.77,-271.0
2.84,-291.0
2.9,-282.0
2.96,-279.0
3.02,-271.0
3.09,-271.0
3.15,-263.0
3.21,-248.0
3.28,-247.0
3.34,-252.0
3.4,-243.0
3.47,-243.0
3.53,-244.0
3.59,-259.0
3.65,-268.0
3.72,-269.0
3.78,-262.0
3.84,-278.0
3.91,-231.0
3.97,-221.0
4.03,-219.0
4.1,-246.0
4.16,-236.0
4.22,-245.0
4.28,-245.0
4.35,-243.0
4.41,-240.0
4.47,-261.0
4.54,-252.0
4.6,-243.0
4.66,-279.0
4.73,-281.0
4.79,-283.0
4.85,-276.0
4.91,-263.0
4.98,-273.0
5.04,-285.0
5.1,-272.0
5.17,-269.0
5.23,-279.0
5.29,-280.0
5.35,-249.0
5.42,-238.0
5.48,-222.0
5.54,-238.0
5.61,-233.0
5.67,-217.0
5.73,-215.0
5.8,-224.0
5.86,-222.0
5.92,-233.0
5.98,-223.0
6.05,-227.0
6.11,-237.0
6.17,-235.0
6.24,-233.0
6.3,-238.0
6.36,-265.0
6.43,-248.0
6.49,-255.0
6.55,-250.0
6.61,-229.0
6.68,-244.0
6.74,-256.0
6.8,-252.0
6.87,-221.0
6.93,-227.0
6.99,-237.0
7.06,-231.0
7.12,-229.0
7.18,-232.0
7.24,-223.0
7.31,-200.0
7.37,-200.0
7.43,-202.0
7.5,-209.0
7.56,-205.0
7.62,-206.0
7.69,-211.0
7.75,-199.0
7.81,-201.0
7.87,-211.0
7.94,-201.0
8.0,-192.0
8.06,-187.0
8.13,-198.0
8.19,-186.0
8.25,-193.0
8.32,-188.0
8.38,-188.0
8.44,-181.0
8.5,-184.0
8.57,-189.0
8.63,-177.0
8.69,-188.0
8.76,-211.0
8.82,-211.0
8.88,-225.0
8.95,-213.0
9.01,-216.0
9.07,-222.0
9.13,-218.0
9.2,-217.0
9.26,-224.0
9.32,-217.0
9.39,-209.0
9.45,-203.0
9.51,-232.0
9.58,-227.0
9.64,-233.0
9.7,-218.0
9.77,-251.0
9.83,-244.0
9.89,-221.0
9.95,-242.0
10.02,-228.0
10.08,-233.0
10.14,-239.0
10.21,-253.0
10.27,-245.0
10.33,-257.0
10.4,-262.0
10.46,-273.0
10.52,-263.0
10.58,-259.0
10.65,-268.0
10.71,-267.0
10.77,-248.0
10.84,-245.0
10.9,-224.0
10.96,-228.0
11.03,-252.0
11.09,-255.0
11.15,-260.0
11.21,-250.0
11.28,-246.0
11.34,-257.0
11.4,-241.0
11.47,-242.0
11.53,-262.0
11.59,-274.0
11.66,-274.0
11.72,-297.0
11.78,-288.0
11.84,-263.0
11.91,-277.0
11.97,-287.0
12.03,-290.0
12.1,-264.0
12.16,-276.0
12.22,-289.0
12.29,-269.0
12.35,-254.0
12.41,-253.0
12.47,-259.0
12.54,-265.0
12.6,-262.0
12.66,-264.0
12.73,-262.0
12.79,-258.0
12.85,-247.0
12.92,-230.0
12.98,-257.0
13.04,-263.0
13.1,-239.0
13.17,-243.0
13.23,-231.0
13.29,-241.0
13.36,-245.0
13.42,-232.0
13.48,-232.0
13.55,-234.0
13.61,-236.0
13.67,-209.0
13.73,-205.0
13.8,-206.0
13.86,-191.0
13.92,-217.0
13.99,-207.0
14.05,-176.0
14.11,-185.0
14.18,-200.0
14.24,-194.0
14.3,-190.0
14.36,-183.0
14.43,-179.0
14.49,-186.0
14.55,-203.0
14.62,-211.0
14.68,-202.0
14.74,-219.0
14.81,-221.0
14.87,-206.0
14.93,-220.0
14.99,-234.0
15.06,-232.0
15.12,-230.0
15.18,-232.0
15.25,-243.0
15.31,-242.0
15.37,-239.0
15.44,-243.0
15.5,-262.0
15.56,-256.0
15.62,-254.0
15.69,-216.0
15.75,-228.0
15.81,-223.0
15.88,-201.0
15.94,-198.0
16.0,-185.0
16.07,-199.0
16.13,-225.0
16.19,-207.0
16.25,-223.0
16.32,-215.0
16.38,-198.0
16.44,-187.0
16.51,-198.0
16.57,-202.0
16.63,-185.0
16.7,-193.0
16.76,-179.0
16.82,-176.0
16.88,-183.0
16.95,-197.0
17.01,-208.0
17.07,-181.0
17.14,-177.0
17.2,-187.0
17.26,-180.0
17.33,-175.0
17.39,-174.0
17.45,-185.0
17.51,-187.0
17.58,-193.0
17.64,-185.0
17.7,-181.0
17.77,-191.0
17.83,-175.0
17.89,-180.0
17.96,-178.0
18.02,-173.0
18.08,-165.0
18.14,-177.0
18.21,-182.0
18.27,-189.0
18.33,-170.0
18.4,-151.0
18.46,-168.0
18.52,-160.0
18.59,-169.0
18.65,-154.0
18.71,-174.0
18.77,-172.0
18.84,-161.0
18.9,-175.0
18.96,-154.0
19.03,-136.0
19.09,-153.0
19.15,-165.0
19.22,-152.0
19.28,-123.0
19.34,-128.0
19.4,-144.0
19.47,-139.0
19.53,-134.0
19.59,-136.0
19.66,-125.0
19.72,-146.0
19.78,-137.0
19.84,-131.0
19.91,-148.0
19.97,-144.0
20.03,-134.0
20.1,-157.0
20.16,-160.0
20.22,-127.0
20.29,-153.0
20.35,-145.0
20.41,-137.0
20.47,-159.0
20.54,-138.0
20.6,-146.0
20.66,-151.0
20.73,-165.0
20.79,-163.0
20.85,-164.0
20.92,-183.0
20.98,-165.0
21.04,-166.0
21.1,-170.0
21.17,-180.0
21.23,-169.0
21.29,-164.0
21.36,-160.0
21.42,-161.0
21.48,-171.0
21.55,-181.0
21.61,-178.0
21.67,-167.0
21.73,-149.0
21.8,-123.0
21.86,-145.0
21.92,-163.0
21.99,-139.0
22.05,-149.0
22.11,-130.0
22.18,-172.0
22.24,-149.0
22.3,-127.0
22.36,-157.0
22.43,-135.0
22.49,-130.0
22.55,-152.0
22.62,-154.0
22.68,-120.0
22.74,-157.0
22.81,-140.0
22.87,-140.0
22.93,-139.0
22.99,-136.0
23.06,-137.0
23.12,-144.0
23.18,-162.0
23.25,-151.0
23.31,-138.0
23.37,-129.0
23.44,-160.0
23.5,-156.0
23.56,-132.0
23.62,-137.0
23.69,-135.0
23.75,-132.0
23.81,-135.0
23.88,-139.0
23.94,-145.0
24.0,-151.0
24.07,-143.0
24.13,-161.0
24.19,-167.0
24.25,-174.0
24.32,-174.0
24.38,-155.0
24.44,-153.0
24.51,-158.0
24.57,-164.0
24.63,-141.0
24.7,-145.0
24.76,-149.0
24.82,-154.0
24.88,-142.0
24.95,-154.0
25.01,-146.0
25.07,-149.0
25.14,-157.0
25.2,-159.0
25.26,-160.0
25.33,-154.0
25.39,-133.0
25.45,-148.0
25.51,-159.0
25.58,-152.0
25.64,-153.0
25.7,-152.0
25.77,-135.0
25.83,-160.0
25.89,-155.0
25.96,-149.0
26.02,-136.0
26.08,-145.0
26.14,-138.0
26.21,-145.0
26.27,-147.0
26.33,-143.0
26.4,-160.0
26.46,-172.0
26.52,-153.0
26.59,-145.0
26.65,-133.0
26.71,-151.0
26.77,-160.0
26.84,-165.0
26.9,-147.0
26.96,-133.0
27.03,-158.0
27.09,-149.0
27.15,-149.0
27.22,-140.0
27.28,-158.0
27.34,-133.0
27.4,-150.0
27.47,-138.0
27.53,-138.0
27.59,-137.0
27.66,-123.0
27.72,-131.0
27.78,-123.0
27.85,-137.0
27.91,-128.0
27.97,-136.0
28.03,-141.0
28.1,-140.0
28.16,-130.0
28.22,-120.0
28.29,-110.0
28.35,-136.0
28.41,-140.0
28.48,-125.0
28.54,-119.0
28.6,-134.0
28.66,-111.0
28.73,-121.0
28.79,-143.0
28.85,-123.0
28.92,-128.0
28.98,-130.0
29.04,-112.0
29.11,-129.0
29.17,-152.0
29.23,-125.0
29.29,-127.0
29.36,-132.0
29.42,-124.0
29.48,-112.0
29.55,-112.0
29.61,-115.0
29.67,-124.0
29.74,-132.0
29.8,-150.0
29.86,-140.0
29.92,-138.0
29.99,-169.0
30.05,-169.0
30.11,-152.0
30.18,-141.0
30.24,-138.0
30.3,-156.0
30.37,-138.0
30.43,-140.0
30.49,-121.0
30.55,-125.0
30.62,-142.0
30.68,-109.0
30.74,-114.0
30.81,-117.0
30.87,-112.0
30.93,-140.0
31.0,-132.0
31.06,-110.0
31.12,-131.0
31.18,-132.0
31.25,-131.0
31.31,-119.0
31.37,-113.0
31.44,-113.0
31.5,-110.0
31.56,-111.0
31.63,-130.0
31.69,-114.0
31.75,-115.0
31.81,-113.0
31.88,-125.0
31.94,-101.0
32.0,-105.0
32.07,-137.0
32.13,-124.0
32.19,-118.0
32.26,-110.0
32.32,-125.0
32.38,-117.0
32.44,-130.0
32.51,-137.0
32.57,-144.0
32.63,-153.0
32.7,-150.0
32.76,-145.0
32.82,-125.0
32.89,-147.0
32.95,-159.0
33.01,-151.0
33.07,-150.0
33.14,-141.0
33.2,-140.0
33.26,-147.0
33.33,-146.0
33.39,-120.0
33.45,-124.0
33.52,-128.0
33.58,-122.0
33.64,-126.0
33.7,-103.0
33.77,-114.0
33.83,-119.0
33.89,-126.0
33.96,-133.0
34.02,-139.0
34.08,-126.0
34.15,-145.0
34.21,-117.0
34.27,-151.0
34.33,-139.0
34.4,-124.0
34.46,-125.0
34.52,-127.0
34.59,-134.0
34.65,-154.0
34.71,-145.0
34.78,-166.0
34.84,-142.0
34.9,-143.0
34.96,-137.0
35.03,-133.0
35.09,-148.0
35.15,-125.0
35.22,-117.0
35.28,-141.0
35.34,-142.0
35.41,-141.0
35.47,-127.0
35.53,-164.0
35.59,-168.0
35.66,-140.0
35.72,-147.0
35.78,-168.0
35.85,-168.0
35.91,-150.0
35.97,-158.0
36.04,-159.0
36.1,-170.0
36.16,-166.0
36.22,-157.0
36.29,-176.0
36.35,-210.0
36.41,-204.0
36.48,-202.0
36.54,-209.0
36.6,-223.0
36.67,-198.0
36.73,-181.0
36.79,-186.0
36.85,-152.0
36.92,-179.0
36.98,-156.0
37.04,-163.0
37.11,-181.0
37.17,-164.0
37.23,-176.0
37.3,-152.0
37.36,-162.0
37.42,-175.0
37.48,-161.0
37.55,-167.0
37.61,-179.0
37.67,-204.0
37.74,-184.0
37.8,-179.0
37.86,-167.0
37.93,-173.0
37.99,-179.0
38.05,-165.0
38.12,-177.0
38.18,-182.0
38.24,-175.0
38.3,-157.0
38.37,-174.0
38.43,-167.0
38.49,-154.0
38.56,-160.0
38.62,-161.0
38.68,-167.0
38.75,-177.0
38.81,-195.0
38.87,-184.0
38.93,-165.0
39.0,-161.0
39.06,-173.0
39.12,-191.0
39.19,-175.0
39.25,-169.0
39.31,-186.0
39.38,-189.0
39.44,-182.0
39.5,-191.0
39.56,-164.0
39.63,-177.0
39.69,-177.0
39.75,-172.0
39.82,-175.0
39.88,-174.0
39.94,-190.0
40.01,-185.0
40.07,-183.0
40.13,-186.0
40.19,-192.0
40.26,-165.0
40.32,-171.0
40.38,-183.0
40.45,-176.0
40.51,-182.0
40.57,-173.0
40.64,-189.0
40.7,-186.0
40.76,-181.0
40.82,-211.0
40.89,-196.0
40.95,-169.0
41.01,-168.0
41.08,-171.0
41.14,-156.0
41.2,-133.0
41.27,-162.0
41.33,-137.0
41.39,-142.0
41.45,-128.0
41.52,-131.0
41.58,-142.0
41.64,-119.0
41.71,-138.0
41.77,-127.0
41.83,-155.0
41.9,-134.0
41.96,-130.0
42.02,-136.0
42.08,-121.0
42.15,-122.0
42.21,-135.0
42.27,-114.0
42.34,-116.0
42.4,-146.0
42.46,-138.0
42.53,-118.0
42.59,-124.0
42.65,-127.0
42.71,-123.0
42.78,-104.0
42.84,-101.0
42.9,-83.0
42.97,-94.0
43.03,-93.0
43.09,-112.0
43.16,-120.0
43.22,-106.0
43.28,-139.0
43.34,-135.0
43.41,-123.0
43.47,-128.0
43.53,-133.0
43.6,-129.0
43.66,-131.0
43.72,-148.0
43.79,-147.0
43.85,-146.0
43.91,-138.0
43.97,-136.0
44.04,-133.0
44.1,-136.0
44.16,-149.0
44.23,-147.0
44.29,-147.0
44.35,-145.0
44.42,-132.0
44.48,-116.0
44.54,-128.0
44.6,-121.0
44.67,-135.0
44.73,-128.0
44.79,-149.0
44.86,-141.0
44.92,-139.0
44.98,-113.0
45.05,-95.0
45.11,-116.0
45.17,-119.0
45.23,-98.0
45.3,-117.0
45.36,-99.0
45.42,-104.0
45.49,-110.0
45.55,-87.0
45.61,-81.0
45.68,-109.0
45.74,-104.0
45.8,-90.0
45.86,-86.0
45.93,-84.0
45.99,-107.0
46.05,-119.0
46.12,-100.0
46.18,-99.0
46.24,-91.0
46.31,-96.0
46.37,-96.0
46.43,-85.0
46.49,-93.0
46.56,-93.0
46.62,-91.0
46.68,-95.0
46.75,-89.0
46.81,-105.0
46.87,-98.0
46.94,-96.0
47.0,-92.0
47.06,-100.0
47.12,-85.0
47.19,-71.0
47.25,-75.0
47.31,-86.0
47.38,-85.0
47.44,-103.0
47.5,-88.0
47.57,-93.0
47.63,-90.0
47.69,-85.0
47.75,-84.0
47.82,-96.0
47.88,-93.0
47.94,-93.0
48.01,-108.0
48.07,-96.0
48.13,-108.0
48.2,-94.0
48.26,-86.0
48.32,-94.0
48.38,-122.0
48.45,-121.0
48.51,-104.0
48.57,-112.0
48.64,-131.0
48.7,-114.0
48.76,-127.0
48.83,-128.0
48.89,-93.0
48.95,-99.0
49.01,-119.0
49.08,-129.0
49.14,-107.0
49.2,-115.0
49.27,-88.0
49.33,-106.0
49.39,-108.0
49.46,-84.0
49.52,-95.0
49.58,-91.0
49.64,-84.0
49.71,-88.0
49.77,-79.0
49.83,-99.0
49.9,-86.0
49.96,-74.0
50.02,-59.0
50.09,-89.0
50.15,-91.0
50.21,-81.0
50.27,-89.0
50.34,-77.0
50.4,-90.0
50.46,-71.0
50.53,-71.0
50.59,-71.0
50.65,-64.0
50.72,-86.0
50.78,-97.0
50.84,-89.0
50.9,-82.0
50.97,-71.0
51.03,-62.0
51.09,-73.0
51.16,-63.0
51.22,-87.0
51.28,-94.0
51.35,-84.0
51.41,-89.0
51.47,-92.0
51.53,-92.0
51.6,-86.0
51.66,-114.0
51.72,-101.0
51.79,-83.0
51.85,-87.0
51.91,-93.0
51.98,-84.0
52.04,-72.0
52.1,-65.0
52.16,-87.0
52.23,-95.0
52.29,-75.0
52.35,-69.0
52.42,-72.0
52.48,-69.0
52.54,-81.0
52.61,-54.0
52.67,-54.0
52.73,-50.0
52.79,-87.0
52.86,-65.0
52.92,-64.0
52.98,-75.0
53.05,-83.0
53.11,-79.0
53.17,-77.0
53.24,-73.0
53.3,-100.0
53.36,-93.0
53.42,-93.0
53.49,-95.0
53.55,-92.0
53.61,-80.0
53.68,-89.0
53.74,-102.0
53.8,-79.0
53.87,-86.0
53.93,-81.0
53.99,-65.0
54.05,-71.0
54.12,-80.0
54.18,-88.0
54.24,-95.0
54.31,-92.0
54.37,-103.0
54.43,-98.0
54.5,-79.0
54.56,-71.0
54.62,-96.0
54.68,-86.0
54.75,-86.0
54.81,-92.0
54.87,-83.0
54.94,-83.0
55.0,-62.0
55.06,-74.0
55.13,-69.0
55.19,-57.0
55.25,-82.0
55.31,-77.0
55.38,-67.0
55.44,-63.0
55.5,-86.0
55.57,-111.0
55.63,-98.0
55.69,-89.0
55.76,-72.0
55.82,-83.0
55.88,-75.0
55.94,-68.0
56.01,-73.0
56.07,-85.0
56.13,-81.0
56.2,-89.0
56.26,-92.0
56.32,-63.0
56.39,-62.0
56.45,-67.0
56.51,-44.0
56.57,-54.0
56.64,-63.0
56.7,-62.0
56.76,-56.0
56.83,-59.0
56.89,-66.0
56.95,-57.0
57.02,-46.0
57.08,-62.0
57.14,-60.0
57.2,-85.0
57.27,-83.0
57.33,-85.0
57.39,-82.0
57.46,-94.0
57.52,-78.0
57.58,-86.0
57.65,-83.0
57.71,-67.0
57.77,-80.0
57.83,-45.0
57.9,-52.0
57.96,-70.0
58.02,-58.0
58.09,-80.0
58.15,-53.0
58.21,-73.0
58.28,-88.0
58.34,-80.0
58.4,-59.0
58.46,-39.0
58.53,-54.0
58.59,-53.0
58.65,-59.0
58.72,-47.0
58.78,-39.0
58.84,-48.0
58.91,-39.0
58.97,-38.0
59.03,-29.0
59.09,-61.0
59.16,-47.0
59.22,-31.0
59.28,-48.0
59.35,-46.0
59.41,-36.0
59.47,-48.0
59.54,-23.0
59.6,-29.0
59.66,-13.0
59.72,-10.0
59.79,-19.0
59.85,-10.0
59.91,-18.0
59.98,-33.0
60.04,-21.0
60.1,-48.0
60.17,-37.0
60.23,-33.0
60.29,-20.0
60.35,-12.0
60.42,-19.0
60.48,-17.0
60.54,-26.0
60.61,-26.0
60.67,-24.0
60.73,-30.0
60.8,-7.0
60.86,-27.0
60.92,-16.0
60.98,-22.0
61.05,-7.0
61.11,-9.0
61.17,-22.0
61.24,2.0
61.3,-4.0
61.36,-14.0
61.43,2.0
61.49,-9.0
61.55,-32.0
61.61,-13.0
61.68,-16.0
61.74,7.0
61.8,-1.0
61.87,1.0
61.93,2.0
61.99,-5.0
62.06,3.0
62.12,-27.0
62.18,-14.0
62.24,-1.0
62.31,-11.0
62.37,-2.0
62.43,0.0
62.5,4.0
62.56,-6.0
62.62,-4.0
62.69,-7.0
62.75,-5.0
62.81,-22.0
62.87,-12.0
62.94,7.0
63.0,-24.0
63.06,-17.0
63.13,-25.0
63.19,-19.0
63.25,-27.0
63.32,-31.0
63.38,-50.0
63.44,-45.0
63.5,-31.0
63.57,-13.0
63.63,2.0
63.69,-10.0
63.76,-40.0
63.82,10.0
63.88,12.0
63.95,7.0
64.01,20.0
64.07,0.0
64.13,-7.0
64.2,26.0
64.26,23.0
64.32,25.0
64.39,6.0
64.45,11.0
64.51,6.0
64.58,-5.0
64.64,27.0
64.7,22.0
64.76,4.0
64.83,-22.0
64.89,-22.0
64.95,-1.0
65.02,2.0
65.08,10.0
65.14,-1.0
65.21,17.0
65.27,16.0
65.33,20.0
65.39,-2.0
65.46,-12.0
65.52,6.0
65.58,0.0
65.65,-4.0
65.71,-37.0
65.77,-36.0
65.84,-10.0
65.9,0.0
65.96,-5.0
66.02,-14.0
66.09,-12.0
66.15,5.0
66.21,-12.0
66.28,-19.0
66.34,-11.0
66.4,-9.0
66.47,-12.0
66.53,-17.0
66.59,-21.0
66.65,-35.0
66.72,-36.0
66.78,-33.0
66.84,-34.0
66.91,-24.0
66.97,-14.0
67.03,-14.0
67.1,-5.0
67.16,-3.0
67.22,-7.0
67.28,11.0
67.35,5.0
67.41,5.0
67.47,6.0
67.54,10.0
67.6,-1.0
67.66,6.0
67.73,-1.0
67.79,12.0
67.85,12.0
67.91,10.0
67.98,19.0
68.04,18.0
68.1,29.0
68.17,18.0
68.23,21.0
68.29,42.0
68.36,40.0
68.42,24.0
68.48,30.0
68.54,29.0
68.61,47.0
68.67,44.0
68.73,20.0
68.8,31.0
68.86,37.0
68.92,32.0
68.99,46.0
69.05,28.0
69.11,45.0
69.17,66.0
69.24,13.0
69.3,44.0
69.36,60.0
69.43,37.0
69.49,33.0
69.55,33.0
69.62,36.0
69.68,55.0
69.74,54.0
69.8,62.0
69.87,59.0
69.93,26.0
69.99,33.0
70.06,28.0
70.12,17.0
70.18,18.0
70.25,5.0
70.31,-4.0
70.37,-3.0
70.43,2.0
70.5,-8.0
70.56,-7.0
70.62,13.0
70.69,9.0
70.75,10.0
70.81,10.0
70.88,6.0
70.94,-21.0
71.0,6.0
71.06,-2.0
71.13,3.0
71.19,-11.0
71.25,-42.0
71.32,-24.0
71.38,-3.0
71.44,-8.0
71.51,-17.0
71.57,-9.0
71.63,-19.0
71.69,-9.0
71.76,-7.0
71.82,11.0
71.88,-4.0
71.95,12.0
72.01,15.0
72.07,12.0
72.14,39.0
72.2,7.0
72.26,10.0
72.32,21.0
72.39,3.0
72.45,-19.0
72.51,-17.0
72.58,-21.0
72.64,6.0
72.7,-22.0
72.77,-1.0
72.83,-10.0
72.89,-4.0
72.95,5.0
73.02,-6.0
73.08,-1.0
73.14,7.0
73.21,-17.0
73.27,10.0
73.33,29.0
73.4,13.0
73.46,-5.0
73.52,-5.0
73.58,-19.0
73.65,-23.0
73.71,-14.0
73.77,-9.0
73.84,-31.0
73.9,-29.0
73.96,-37.0
74.03,-31.0
74.09,-22.0
74.15,-22.0
74.21,12.0
74.28,-5.0
74.34,-9.0
74.4,10.0
74.47,1.0
74.53,18.0
74.59,0.0
74.66,12.0
74.72,36.0
74.78,2.0
74.84,-8.0
74.91,1.0
74.97,19.0
75.03,7.0
75.1,9.0
75.16,8.0
75.22,-1.0
75.29,-15.0
75.35,5.0
75.41,10.0
75.47,12.0
75.54,29.0
75.6,23.0
75.66,26.0
75.73,44.0
75.79,41.0
75.85,25.0
75.92,52.0
75.98,48.0
76.04,46.0
76.1,49.0
76.17,50.0
76.23,40.0
76.29,51.0
76.36,71.0
76.42,35.0
76.48,34.0
76.55,29.0
76.61,34.0
76.67,46.0
76.73,19.0
76.8,30.0
76.86,43.0
76.92,38.0
76.99,36.0
77.05,38.0
77.11,35.0
77.18,49.0
77.24,46.0
77.3,38.0
77.36,29.0
77.43,21.0
77.49,38.0
77.55,23.0
77.62,23.0
77.68,34.0
77.74,16.0
77.81,35.0
77.87,33.0
77.93,25.0
77.99,26.0
78.06,27.0
78.12,4.0
78.18,4.0
78.25,26.0
78.31,32.0
78.37,24.0
78.44,24.0
78.5,20.0
78.56,1.0
78.62,10.0
78.69,-6.0
78.75,-6.0
78.81,-10.0
78.88,-1.0
78.94,-10.0
79.0,-10.0
79.07,3.0
79.13,10.0
79.19,15.0
79.25,2.0
79.32,-8.0
79.38,20.0
79.44,-5.0
79.51,25.0
79.57,30.0
79.63,1.0
79.7,9.0
79.76,35.0
79.82,47.0
79.88,41.0
79.95,32.0
80.01,29.0
80.07,35.0
80.14,37.0
80.2,39.0
80.26,15.0
80.33,20.0
80.39,19.0
80.45,30.0
80.51,47.0
80.58,33.0
80.64,17.0
80.7,-1.0
80.77,23.0
80.83,11.0
80.89,9.0
80.96,10.0
81.02,-6.0
81.08,-2.0
81.14,-17.0
81.21,12.0
81.27,9.0
81.33,32.0
81.4,0.0
81.46,-3.0
81.52,17.0
81.59,26.0
81.65,32.0
81.71,14.0
81.77,30.0
81.84,18.0
81.9,5.0
81.96,-9.0
82.03,-14.0
82.09,-22.0
82.15,-6.0
82.22,-8.0
82.28,-23.0
82.34,-13.0
82.4,-18.0
82.47,-23.0
82.53,-33.0
82.59,-40.0
82.66,-7.0
82.72,-27.0
82.78,-6.0
82.85,-21.0
82.91,0.0
82.97,-15.0
83.03,-12.0
83.1,-18.0
83.16,9.0
83.22,-3.0
83.29,-13.0
83.35,10.0
83.41,-11.0
83.48,-21.0
83.54,-9.0
83.6,-16.0
83.66,-20.0
83.73,-6.0
83.79,0.0
83.85,-2.0
83.92,-6.0
83.98,-13.0
84.04,-10.0
84.11,1.0
84.17,7.0
84.23,4.0
84.29,27.0
84.36,18.0
84.42,17.0
84.48,-3.0
84.55,7.0
84.61,0.0
84.67,-6.0
84.74,5.0
84.8,12.0
84.86,11.0
84.92,18.0
84.99,28.0
85.05,10.0
85.11,19.0
85.18,23.0
85.24,14.0
85.3,30.0
85.37,22.0
85.43,21.0
85.49,55.0
85.55,36.0
85.62,29.0
85.68,38.0
85.74,33.0
85.81,33.0
85.87,31.0
85.93,36.0
86.0,22.0
86.06,18.0
86.12,25.0
86.18,22.0
86.25,22.0
86.31,21.0
86.37,11.0
86.44,36.0
86.5,26.0
86.56,51.0
86.63,57.0
86.69,73.0
86.75,62.0
86.81,64.0
86.88,57.0
86.94,20.0
87.0,33.0
87.07,13.0
87.13,9.0
87.19,11.0
87.26,11.0
87.32,-6.0
87.38,-29.0
87.44,-19.0
87.51,-2.0
87.57,-14.0
87.63,-21.0
87.7,-29.0
87.76,-38.0
87.82,-35.0
87.89,-34.0
87.95,-49.0
88.01,-17.0
88.07,-22.0
88.14,-8.0
88.2,-2.0
88.26,-1.0
88.33,-29.0
88.39,-36.0
88.45,9.0
88.52,-10.0
88.58,-1.0
88.64,8.0
88.7,-10.0
88.77,26.0
88.83,38.0
88.89,24.0
88.96,8.0
89.02,1.0
89.08,19.0
89.15,21.0
89.21,15.0
89.27,12.0
89.33,29.0
89.4,15.0
89.46,24.0
89.52,14.0
89.59,18.0
89.65,0.0
89.71,12.0
89.78,25.0
89.84,-1.0
89.9,11.0
89.96,-19.0
90.03,-2.0
90.09,-23.0
90.15,-27.0
90.22,-24.0
90.28,-31.0
90.34,-38.0
90.41,-23.0
90.47,4.0
90.53,1.0
90.59,-24.0
90.66,-21.0
90.72,-18.0
90.78,-7.0
90.85,10.0
90.91,-9.0
90.97,5.0
91.04,8.0
91.1,28.0
91.16,14.0
91.22,5.0
91.29,18.0
91.35,24.0
91.41,12.0
91.48,18.0
91.54,22.0
91.6,21.0
91.67,13.0
91.73,-5.0
91.79,12.0
91.85,1.0
91.92,0.0
91.98,15.0
92.04,-4.0
92.11,1.0
92.17,-3.0
92.23,1.0
92.3,-2.0
92.36,3.0
92.42,10.0
92.48,22.0
92.55,1.0
92.61,1.0
92.67,0.0
92.74,-2.0
92.8,-2.0
92.86,4.0
92.93,23.0
92.99,8.0
93.05,-17.0
93.11,-39.0
93.18,-43.0
93.24,-24.0
93.3,-8.0
93.37,-22.0
93.43,-8.0
93.49,4.0
93.56,12.0
93.62,1.0
93.68,-10.0
93.74,3.0
93.81,-4.0
93.87,-7.0
93.93,4.0
94.0,6.0
94.06,4.0
94.12,-10.0
94.19,-10.0
94.25,-9.0
94.31,6.0
94.37,-1.0
94.44,12.0
94.5,18.0
94.56,33.0
94.63,23.0
94.69,14.0
94.75,44.0
94.82,42.0
94.88,40.0
94.94,33.0
95.0,32.0
95.07,25.0
95.13,21.0
95.19,6.0
95.26,15.0
95.32,1.0
95.38,-17.0
95.45,-24.0
95.51,-15.0
95.57,-3.0
95.63,-5.0
95.7,-10.0
95.76,-27.0
95.82,-36.0
95.89,-21.0
95.95,-28.0
96.01,-23.0
96.08,-4.0
96.14,-1.0
96.2,-1.0
96.26,1.0
96.33,2.0
96.39,-14.0
96.45,-11.0
96.52,-13.0
96.58,-22.0
96.64,-23.0
96.71,-27.0
96.77,-16.0
96.83,-21.0
96.89,-38.0
96.96,-27.0
97.02,-13.0
97.08,-10.0
97.15,-25.0
97.21,-8.0
97.27,-10.0
97.34,9.0
97.4,11.0
97.46,1.0
97.52,1.0
97.59,16.0
97.65,13.0
97.71,-2.0
97.78,8.0
97.84,13.0
97.9,26.0
97.97,36.0
98.03,14.0
98.09,13.0
98.15,17.0
98.22,-15.0
98.28,-21.0
98.34,0.0
98.41,2.0
98.47,-12.0
98.53,-19.0
98.6,2.0
98.66,2.0
98.72,13.0
98.78,-19.0
98.85,-32.0
98.91,-3.0
98.97,-25.0
99.04,-24.0
99.1,-12.0
99.16,-4.0
99.23,-8.0
99.29,-8.0
99.35,-4.0
99.41,2.0
99.48,1.0
99.54,9.0
99.6,-1.0
99.67,17.0
99.73,11.0
99.79,20.0
99.86,15.0
99.92,27.0
99.98,37.0
100.04,51.0
100.11,50.0
100.17,36.0
100.23,37.0
100.3,47.0
100.36,55.0
100.42,58.0
100.49,53.0
100.55,64.0
100.61,62.0
100.67,54.0
100.74,44.0
100.8,43.0
100.86,52.0
100.93,50.0
100.99,51.0
101.05,50.0
101.12,29.0
101.18,21.0
101.24,27.0
101.3,34.0
101.37,36.0
101.43,20.0
101.49,26.0
101.56,24.0
101.62,27.0
101.68,24.0
101.75,19.0
101.81,39.0
101.87,47.0
101.93,53.0
102.0,52.0
102.06,41.0
102.12,48.0
102.19,80.0
102.25,84.0
102.31,61.0
102.38,52.0
102.44,58.0
102.5,68.0
102.56,61.0
102.63,54.0
102.69,51.0
102.75,65.0
102.82,68.0
102.88,81.0
102.94,68.0
103.01,68.0
103.07,80.0
103.13,71.0
103.19,78.0
103.26,68.0
103.32,65.0
103.38,54.0
103.45,44.0
103.51,56.0
103.57,56.0
103.64,35.0
103.7,38.0
103.76,61.0
103.82,50.0
103.89,40.0
103.95,40.0
104.01,41.0
104.08,43.0
104.14,58.0
104.2,60.0
104.27,65.0
104.33,51.0
104.39,41.0
104.45,36.0
104.52,26.0
104.58,28.0
104.64,22.0
104.71,30.0
104.77,47.0
104.83,43.0
104.9,40.0
104.96,26.0
105.02,45.0
105.08,38.0
105.15,18.0
105.21,8.0
105.27,34.0
105.34,33.0
105.4,30.0
105.46,46.0
105.53,67.0
105.59,66.0
105.65,53.0
105.71,43.0
105.78,51.0
105.84,38.0
105.9,65.0
105.97,68.0
106.03,70.0
106.09,62.0
106.16,45.0
106.22,54.0
106.28,45.0
106.34,71.0
106.41,50.0
106.47,43.0
106.53,37.0
106.6,20.0
106.66,8.0
106.72,0.0
106.79,10.0
106.85,28.0
106.91,5.0
106.97,7.0
107.04,2.0
107.1,18.0
107.16,24.0
107.23,17.0
107.29,13.0
107.35,-5.0
107.42,11.0
107.48,25.0
107.54,22.0
107.6,26.0
107.67,19.0
107.73,14.0
107.79,16.0
107.86,10.0
107.92,30.0
107.98,13.0
108.05,-6.0
108.11,0.0
108.17,11.0
108.23,14.0
108.3,3.0
108.36,14.0
108.42,5.0
108.49,9.0
108.55,2.0
108.61,-8.0
108.68,19.0
108.74,1.0
108.8,8.0
108.86,15.0
108.93,14.0
108.99,32.0
109.05,34.0
109.12,33.0
109.18,27.0
109.24,33.0
109.31,42.0
109.37,57.0
109.43,47.0
109.49,44.0
109.56,36.0
109.62,44.0
109.68,54.0
109.75,53.0
109.81,50.0
109.87,53.0
109.94,58.0
110.0,79.0
110.06,73.0
110.12,73.0
110.19,82.0
110.25,58.0
110.31,43.0
110.38,57.0
110.44,53.0
110.5,29.0
110.57,40.0
110.63,42.0
110.69,43.0
110.75,20.0
110.82,27.0
110.88,37.0
110.94,36.0
111.01,44.0
111.07,19.0
111.13,29.0
111.2,28.0
111.26,38.0
111.32,47.0
111.38,45.0
111.45,49.0
111.51,47.0
111.57,47.0
111.64,57.0
111.7,55.0
111.76,56.0
111.83,67.0
111.89,68.0
111.95,52.0
112.01,50.0
112.08,36.0
112.14,52.0
112.2,33.0
112.27,43.0
112.33,39.0
112.39,45.0
112.46,44.0
112.52,79.0
112.58,89.0
112.64,70.0
112.71,55.0
112.77,78.0
112.83,81.0
112.9,86.0
112.96,72.0
113.02,45.0
113.09,51.0
113.15,37.0
113.21,41.0
113.27,98.0
113.34,81.0
113.4,82.0
113.46,86.0
113.53,80.0
113.59,60.0
113.65,61.0
113.72,69.0
113.78,89.0
113.84,91.0
113.9,69.0
113.97,54.0
114.03,45.0
114.09,72.0
114.16,54.0
114.22,41.0
114.28,51.0
114.35,52.0
114.41,72.0
114.47,61.0
114.53,72.0
114.6,82.0
114.66,81.0
114.72,92.0
114.79,83.0
114.85,63.0
114.91,51.0
114.98,75.0
115.04,69.0
115.1,86.0
115.16,55.0
115.23,67.0
115.29,76.0
115.35,61.0
115.42,70.0
115.48,63.0
115.54,67.0
115.61,52.0
115.67,62.0
115.73,51.0
115.79,55.0
115.86,43.0
115.92,52.0
115.98,50.0
116.05,70.0
116.11,59.0
116.17,56.0
116.24,65.0
116.3,58.0
116.36,69.0
116.42,66.0
116.49,72.0
116.55,69.0
116.61,73.0
116.68,74.0
116.74,90.0
116.8,87.0
116.87,107.0
116.93,92.0
116.99,75.0
117.05,45.0
117.12,38.0
117.18,60.0
117.24,59.0
117.31,45.0
117.37,50.0
117.43,58.0
117.5,69.0
117.56,86.0
117.62,83.0
117.68,90.0
117.75,74.0
117.81,84.0
117.87,78.0
117.94,74.0
118.0,73.0
118.06,56.0
118.13,62.0
118.19,60.0
118.25,61.0
118.31,56.0
118.38,39.0
118.44,34.0
118.5,39.0
118.57,56.0
118.63,50.0
118.69,60.0
118.76,51.0
118.82,67.0
118.88,56.0
118.94,77.0
119.01,63.0
119.07,49.0
119.13,53.0
119.2,58.0
119.26,41.0
119.32,34.0
119.39,63.0
119.45,56.0
119.51,51.0
119.57,52.0
119.64,53.0
119.7,57.0
119.76,56.0
119.83,65.0
119.89,59.0
119.95,47.0
120.02,69.0
120.08,60.0
120.14,63.0
120.2,80.0
120.27,64.0
120.33,70.0
120.39,74.0
120.46,77.0
120.52,66.0
120.58,75.0
120.65,83.0
120.71,82.0
120.77,74.0
120.83,79.0
120.9,60.0
120.96,74.0
121.02,91.0
121.09,101.0
121.15,92.0
121.21,98.0
121.28,78.0
121.34,84.0
121.4,104.0
121.46,88.0
121.53,78.0
121.59,56.0
121.65,58.0
121.72,69.0
121.78,63.0
121.84,63.0
121.91,64.0
121.97,56.0
122.03,38.0
122.09,30.0
122.16,41.0
122.22,33.0
122.28,39.0
122.35,42.0
122.41,39.0
122.47,41.0
122.54,48.0
122.6,49.0
122.66,60.0
122.72,55.0
122.79,76.0
122.85,64.0
122.91,55.0
122.98,64.0
123.04,49.0
123.1,47.0
123.17,35.0
123.23,56.0
123.29,51.0
123.35,60.0
123.42,72.0
123.48,67.0
123.54,73.0
123.61,58.0
123.67,53.0
123.73,68.0
123.8,61.0
123.86,52.0
123.92,47.0
123.98,39.0
124.05,33.0
124.11,37.0
124.17,40.0
124.24,30.0
124.3,42.0
124.36,19.0
124.43,9.0
124.49,30.0
124.55,45.0
124.61,36.0
124.68,27.0
124.74,49.0
124.8,45.0
124.87,61.0
124.93,60.0
124.99,37.0
125.06,52.0
125.12,58.0
125.18,53.0
125.24,63.0
125.31,56.0
125.37,56.0
125.43,75.0
125.5,61.0
125.56,58.0
125.62,89.0
125.69,84.0
125.75,80.0
125.81,69.0
125.87,57.0
125.94,67.0
126.0,61.0
126.06,68.0
126.13,63.0
126.19,44.0
126.25,60.0
126.32,72.0
126.38,71.0
126.44,83.0
126.5,57.0
126.57,64.0
126.63,79.0
126.69,74.0
126.76,91.0
126.82,63.0
126.88,63.0
126.95,69.0
127.01,73.0
127.07,76.0
127.13,94.0
127.2,111.0
127.26,87.0
127.32,86.0
127.39,109.0
127.45,93.0
127.51,83.0
127.58,91.0
127.64,85.0
127.7,93.0
127.76,78.0
127.83,70.0
127.89,82.0
127.95,74.0
128.02,89.0
128.08,85.0
128.14,92.0
128.21,97.0
128.27,75.0
128.33,99.0
128.39,67.0
128.46,74.0
128.52,76.0
128.58,88.0
128.65,96.0
128.71,78.0
128.77,76.0
128.84,82.0
128.9,89.0
128.96,77.0
129.02,90.0
129.09,91.0
129.15,75.0
129.21,56.0
129.28,64.0
129.34,53.0
129.4,75.0
129.47,71.0
129.53,34.0
129.59,35.0
129.65,30.0
129.72,69.0
129.78,70.0
129.84,48.0
129.91,51.0
129.97,37.0
130.03,38.0
130.1,45.0
130.16,49.0
130.22,44.0
130.28,23.0
130.35,28.0
130.41,34.0
130.47,38.0
130.54,34.0
130.6,50.0
130.66,63.0
130.73,58.0
130.79,50.0
130.85,48.0
130.91,43.0
130.98,50.0
131.04,38.0
131.1,23.0
131.17,16.0
131.23,40.0
131.29,41.0
131.36,23.0
131.42,20.0
131.48,36.0
131.54,17.0
131.61,23.0
131.67,20.0
131.73,2.0
131.8,24.0
131.86,20.0
131.92,14.0
131.99,16.0
132.05,11.0
132.11,6.0
132.17,4.0
132.24,2.0
132.3,17.0
132.36,1.0
132.43,3.0
132.49,11.0
132.55,8.0
132.62,1.0
132.68,-15.0
132.74,6.0
132.8,4.0
132.87,-14.0
132.93,-15.0
132.99,-32.0
133.06,-37.0
133.12,-17.0
133.18,-34.0
133.25,-15.0
133.31,-19.0
133.37,-41.0
133.43,3.0
133.5,-27.0
133.56,-27.0
133.62,-22.0
133.69,-24.0
133.75,-27.0
133.81,2.0
133.88,-16.0
133.94,-18.0
134.0,-17.0
134.06,-15.0
134.13,14.0
134.19,11.0
134.25,8.0
134.32,-11.0
134.38,-2.0
134.44,16.0
134.51,1.0
134.57,-6.0
134.63,12.0
134.69,15.0
134.76,16.0
134.82,20.0
134.88,23.0
134.95,22.0
135.01,-2.0
135.07,19.0
135.14,32.0
135.2,24.0
135.26,31.0
135.32,37.0
135.39,40.0
135.45,56.0
135.51,66.0
135.58,54.0
135.64,62.0
135.7,48.0
135.77,63.0
135.83,75.0
135.89,63.0
135.95,53.0
136.02,58.0
136.08,65.0
136.14,65.0
136.21,45.0
136.27,55.0
136.33,51.0
136.4,50.0
136.46,42.0
136.52,45.0
136.58,45.0
136.65,45.0
136.71,43.0
136.77,49.0
136.84,43.0
136.9,56.0
136.96,61.0
137.03,39.0
137.09,54.0
137.15,48.0
137.21,39.0
137.28,42.0
137.34,50.0
137.4,54.0
137.47,47.0
137.53,26.0
137.59,32.0
137.66,34.0
137.72,33.0
137.78,45.0
137.84,42.0
137.91,36.0
137.97,23.0
138.03,16.0
138.1,-5.0
138.16,18.0
138.22,27.0
138.29,34.0
138.35,-3.0
138.41,15.0
138.47,26.0
138.54,12.0
138.6,29.0
138.66,32.0
138.73,29.0
138.79,19.0
138.85,26.0
138.92,51.0
138.98,45.0
139.04,47.0
139.1,45.0
139.17,47.0
139.23,65.0
139.29,38.0
139.36,9.0
139.42,29.0
139.48,34.0
139.55,11.0
139.61,2.0
139.67,6.0
139.73,14.0
139.8,42.0
139.86,30.0
139.92,38.0
139.99,27.0
140.05,11.0
140.11,7.0
140.18,-2.0
140.24,39.0
140.3,34.0
140.36,4.0
140.43,9.0
140.49,2.0
140.55,15.0
140.62,2.0
140.68,7.0
140.74,24.0
140.81,27.0
140.87,25.0
140.93,36.0
140.99,37.0
141.06,40.0
141.12,37.0
141.18,32.0
141.25,18.0
141.31,15.0
141.37,-2.0
141.44,0.0
141.5,19.0
141.56,-2.0
141.62,29.0
141.69,12.0
141.75,5.0
141.81,22.0
141.88,15.0
141.94,31.0
142.0,30.0
142.07,54.0
142.13,44.0
142.19,38.0
142.25,50.0
142.32,59.0
142.38,53.0
142.44,53.0
142.51,71.0
142.57,48.0
142.63,64.0
142.7,71.0
142.76,56.0
142.82,51.0
142.88,74.0
142.95,72.0
143.01,67.0
143.07,67.0
143.14,55.0
143.2,70.0
143.26,68.0
143.33,75.0
143.39,82.0
143.45,80.0
143.51,54.0
143.58,55.0
143.64,71.0
143.7,80.0
143.77,89.0
143.83,85.0
143.89,88.0
143.96,76.0
144.02,71.0
144.08,64.0
144.14,68.0
144.21,48.0
144.27,70.0
144.33,57.0
144.4,54.0
144.46,79.0
144.52,74.0
144.59,60.0
144.65,62.0
144.71,71.0
144.77,79.0
144.84,65.0
144.9,49.0
144.96,55.0
145.03,57.0
145.09,70.0
145.15,60.0
145.22,59.0
145.28,60.0
145.34,76.0
145.4,44.0
145.47,55.0
145.53,44.0
145.59,46.0
145.66,57.0
145.72,42.0
145.78,43.0
145.85,37.0
145.91,37.0
145.97,44.0
146.03,29.0
146.1,36.0
146.16,45.0
146.22,26.0
146.29,36.0
146.35,44.0
146.41,16.0
146.47,40.0
146.54,46.0
146.6,48.0
146.66,40.0
146.73,15.0
146.79,34.0
146.85,26.0
146.92,26.0
146.98,26.0
147.04,35.0
147.1,23.0
147.17,30.0
147.23,33.0
147.29,40.0
147.36,32.0
147.42,8.0
147.48,30.0
147.55,32.0
147.61,40.0
147.67,38.0
147.73,40.0
147.8,17.0
147.86,14.0
147.92,21.0
147.99,25.0
148.05,0.0
148.11,11.0
148.18,17.0
148.24,8.0
148.3,13.0
148.36,5.0
148.43,10.0
148.49,11.0
148.55,5.0
148.62,19.0
148.68,4.0
148.74,-5.0
148.81,-25.0
148.87,-16.0
148.93,-8.0
148.99,-7.0
149.06,-9.0
149.12,-10.0
149.18,-11.0
149.25,3.0
149.31,10.0
149.37,10.0
149.44,-6.0
149.5,-4.0
149.56,11.0
149.62,1.0
149.69,10.0
149.75,0.0
149.81,-6.0
149.88,2.0
149.94,-9.0
150.0,3.0
150.07,7.0
150.13,0.0
150.19,1.0
150.25,14.0
150.32,-9.0
150.38,-12.0
150.44,-9.0
150.51,-9.0
150.57,-31.0
150.63,-20.0
150.7,-12.0
150.76,-7.0
150.82,-4.0
150.88,-11.0
150.95,-26.0
151.01,-14.0
151.07,6.0
151.14,15.0
151.2,13.0
151.26,25.0
151.33,51.0
151.39,44.0
151.45,41.0
151.51,46.0
151.58,54.0
151.64,52.0
151.7,58.0
151.77,40.0
151.83,34.0
151.89,47.0
151.96,41.0
152.02,27.0
152.08,33.0
152.14,40.0
152.21,57.0
152.27,50.0
152.33,33.0
152.4,54.0
152.46,61.0
152.52,78.0
152.59,81.0
152.65,72.0
152.71,91.0
152.77,96.0
152.84,98.0
152.9,85.0
152.96,81.0
153.03,78.0
153.09,77.0
153.15,90.0
153.22,93.0
153.28,101.0
153.34,102.0
153.4,90.0
153.47,86.0
153.53,89.0
153.59,87.0
153.66,103.0
153.72,102.0
153.78,98.0
153.85,101.0
153.91,95.0
153.97,91.0
154.03,74.0
154.1,90.0
154.16,87.0
154.22,83.0
154.29,89.0
154.35,94.0
154.41,75.0
154.48,64.0
154.54,54.0
154.6,57.0
154.66,41.0
154.73,53.0
154.79,49.0
154.85,34.0
154.92,25.0
154.98,36.0
155.04,23.0
155.11,25.0
155.17,10.0
155.23,11.0
155.29,27.0
155.36,26.0
155.42,14.0
155.48,14.0
155.55,21.0
155.61,-1.0
155.67,-21.0
155.74,-21.0
155.8,-1.0
155.86,-18.0
155.92,-16.0
155.99,-9.0
156.05,-6.0
156.11,5.0
156.18,9.0
156.24,-3.0
156.3,-29.0
156.37,-21.0
156.43,-22.0
156.49,-20.0
156.55,-35.0
156.62,-38.0
156.68,-41.0
156.74,-42.0
156.81,-37.0
156.87,-36.0
156.93,-16.0
157.0,-36.0
157.06,-30.0
157.12,-39.0
157.18,-27.0
157.25,-39.0
157.31,-20.0
157.37,-26.0
157.44,-7.0
157.5,-5.0
157.56,2.0
157.63,16.0
157.69,2.0
157.75,4.0
157.81,7.0
157.88,4.0
157.94,-9.0
158.0,2.0
158.07,-1.0
158.13,-12.0
158.19,7.0
158.26,2.0
158.32,12.0
158.38,-10.0
158.44,0.0
158.51,7.0
158.57,-2.0
158.63,-17.0
158.7,-11.0
158.76,2.0
158.82,-10.0
158.89,9.0
158.95,5.0
159.01,15.0
159.07,13.0
159.14,10.0
159.2,20.0
159.26,14.0
159.33,23.0
159.39,9.0
159.45,10.0
159.52,9.0
159.58,14.0
159.64,28.0
159.7,30.0
159.77,5.0
159.83,35.0
159.89,39.0
159.96,41.0
160.02,44.0
160.08,51.0
160.15,47.0
160.21,47.0
160.27,61.0
160.33,53.0
160.4,67.0
160.46,69.0
160.52,72.0
160.59,55.0
160.65,66.0
160.71,81.0
160.78,77.0
160.84,85.0
160.9,72.0
160.96,93.0
161.03,95.0
161.09,80.0
161.15,80.0
161.22,65.0
161.28,79.0
161.34,86.0
161.41,93.0
161.47,79.0
161.53,80.0
161.59,91.0
161.66,97.0
161.72,92.0
161.78,91.0
161.85,95.0
161.91,103.0
161.97,116.0
162.04,120.0
162.1,116.0
162.16,117.0
162.22,111.0
162.29,115.0
162.35,130.0
162.41,129.0
162.48,114.0
162.54,95.0
162.6,93.0
162.67,83.0
162.73,97.0
162.79,110.0
162.85,99.0
162.92,105.0
162.98,88.0
163.04,87.0
163.11,92.0
163.17,79.0
163.23,85.0
163.3,83.0
163.36,85.0
163.42,92.0
163.48,86.0
163.55,79.0
163.61,81.0
163.67,71.0
163.74,81.0
163.8,81.0
163.86,66.0
163.93,86.0
163.99,87.0
164.05,95.0
164.11,85.0
164.18,94.0
164.24,68.0
164.3,88.0
164.37,85.0
164.43,85.0
164.49,110.0
164.56,91.0
164.62,84.0
164.68,89.0
164.74,97.0
164.81,65.0
164.87,60.0
164.93,71.0
165.0,65.0
165.06,74.0
165.12,83.0
165.19,66.0
165.25,93.0
165.31,87.0
165.37,82.0
165.44,90.0
165.5,77.0
165.56,76.0
165.63,65.0
165.69,75.0
165.75,72.0
165.82,55.0
165.88,50.0
165.94,46.0
166.0,40.0
166.07,41.0
166.13,44.0
166.19,45.0
166.26,53.0
166.32,25.0
166.38,29.0
166.45,37.0
166.51,38.0
166.57,61.0
166.63,52.0
166.7,55.0
166.76,71.0
166.82,50.0
166.89,54.0
166.95,67.0
167.01,62.0
167.08,55.0
167.14,60.0
167.2,55.0
167.26,48.0
167.33,62.0
167.39,60.0
167.45,76.0
167.52,57.0
167.58,48.0
167.64,67.0
167.71,72.0
167.77,92.0
167.83,78.0
167.89,96.0
167.96,97.0
168.02,96.0
168.08,95.0
168.15,99.0
168.21,114.0
168.27,123.0
168.34,132.0
168.4,125.0
168.46,127.0
168.52,132.0
168.59,131.0
168.65,136.0
168.71,121.0
168.78,112.0
168.84,121.0
168.9,110.0
168.97,95.0
169.03,112.0
169.09,102.0
169.15,107.0
169.22,119.0
169.28,109.0
169.34,101.0
169.41,84.0
169.47,89.0
169.53,115.0
169.6,103.0
169.66,87.0
169.72,95.0
169.78,63.0
169.85,61.0
169.91,67.0
169.97,82.0
170.04,85.0
170.1,95.0
170.16,93.0
170.23,98.0
170.29,100.0
170.35,75.0
170.41,113.0
170.48,125.0
170.54,91.0
170.6,119.0
170.67,118.0
170.73,93.0
170.79,89.0
170.86,111.0
170.92,96.0
170.98,91.0
171.04,87.0
171.11,87.0
171.17,105.0
171.23,80.0
171.3,93.0
171.36,77.0
171.42,63.0
171.49,67.0
171.55,52.0
171.61,66.0
171.67,56.0
171.74,69.0
171.8,91.0
171.86,93.0
171.93,63.0
171.99,45.0
172.05,59.0
172.12,56.0
172.18,44.0
172.24,63.0
172.3,53.0
172.37,34.0
172.43,31.0
172.49,42.0
172.56,35.0
172.62,22.0
172.68,17.0
172.75,38.0
172.81,34.0
172.87,44.0
172.93,48.0
173.0,32.0
173.06,34.0
173.12,40.0
173.19,24.0
173.25,26.0
173.31,16.0
173.38,27.0
173.44,34.0
173.5,44.0
173.56,26.0
173.63,35.0
173.69,28.0
173.75,22.0
173.82,37.0
173.88,35.0
173.94,30.0
174.01,36.0
174.07,34.0
174.13,31.0
174.19,28.0
174.26,35.0
174.32,34.0
174.38,26.0
174.45,6.0
174.51,8.0
174.57,15.0
174.64,40.0
174.7,17.0
174.76,-10.0
174.82,7.0
174.89,14.0
174.95,5.0
175.01,-12.0
175.08,9.0
175.14,24.0
175.2,17.0
175.27,7.0
175.33,27.0
175.39,35.0
175.45,40.0
175.52,23.0
175.58,18.0
175.64,24.0
175.71,39.0
175.77,41.0
175.83,44.0
175.9,60.0
175.96,65.0
176.02,35.0
176.08,56.0
176.15,46.0
176.21,45.0
176.27,37.0
176.34,29.0
176.4,52.0
176.46,40.0
176.53,47.0
176.59,63.0
176.65,48.0
176.71,68.0
176.78,87.0
176.84,90.0
176.9,78.0
176.97,74.0
177.03,78.0
177.09,88.0
177.16,90.0
177.22,109.0
177.28,119.0
177.34,90.0
177.41,91.0
177.47,87.0
177.53,68.0
177.6,74.0
177.66,58.0
177.72,57.0
177.79,72.0
177.85,81.0
177.91,87.0
177.97,95.0
178.04,106.0
178.1,92.0
178.16,82.0
178.23,108.0
178.29,103.0
178.35,112.0
178.42,135.0
178.48,106.0
178.54,106.0
178.6,113.0
178.67,86.0
178.73,108.0
178.79,116.0
178.86,107.0
178.92,102.0
178.98,92.0
179.05,99.0
179.11,119.0
179.17,129.0
179.23,111.0
179.3,115.0
179.36,110.0
179.42,141.0
179.49,111.0
179.55,100.0
179.61,110.0
179.68,112.0
179.74,108.0
179.8,109.0
179.86,94.0
179.93,110.0
179.99,101.0
180.05,107.0
180.12,94.0
180.18,86.0
180.24,98.0
180.31,86.0
180.37,102.0
180.43,111.0
180.49,126.0
180.56,116.0
180.62,93.0
180.68,65.0
180.75,77.0
180.81,71.0
180.87,72.0
180.94,88.0
181.0,101.0
181.06,109.0
181.12,120.0
181.19,82.0
181.25,96.0
181.31,96.0
181.38,114.0
181.44,100.0
181.5,96.0
181.57,101.0
181.63,97.0
181.69,105.0
181.75,83.0
181.82,105.0
181.88,92.0
181.94,80.0
182.01,83.0
182.07,79.0
182.13,84.0
182.2,84.0
182.26,76.0
182.32,82.0
182.38,76.0
182.45,71.0
182.51,57.0
182.57,60.0
182.64,78.0
182.7,77.0
182.76,68.0
182.83,75.0
182.89,99.0
182.95,111.0
183.01,95.0
183.08,86.0
183.14,87.0
183.2,75.0
183.27,69.0
183.33,59.0
183.39,53.0
183.46,69.0
183.52,71.0
183.58,79.0
183.64,54.0
183.71,54.0
183.77,63.0
183.83,53.0
183.9,52.0
183.96,39.0
184.02,47.0
184.09,59.0
184.15,67.0
184.21,51.0
184.27,58.0
184.34,53.0
184.4,42.0
184.46,48.0
184.53,55.0
184.59,47.0
184.65,58.0
184.72,57.0
184.78,73.0
184.84,53.0
184.9,50.0
184.97,70.0
185.03,76.0
185.09,46.0
185.16,68.0
185.22,56.0
185.28,63.0
185.35,81.0
185.41,64.0
185.47,77.0
185.53,70.0
185.6,81.0
185.66,92.0
185.72,74.0
185.79,85.0
185.85,99.0
185.91,103.0
185.98,96.0
186.04,86.0
186.1,87.0
186.16,78.0
186.23,77.0
186.29,84.0
186.35,96.0
186.42,71.0
186.48,56.0
186.54,65.0
186.61,56.0
186.67,69.0
186.73,86.0
186.79,65.0
186.86,65.0
186.92,70.0
186.98,78.0
187.05,65.0
187.11,75.0
187.17,81.0
187.24,88.0
187.3,73.0
187.36,70.0
187.42,63.0
187.49,51.0
187.55,73.0
187.61,72.0
187.68,88.0
187.74,79.0
187.8,80.0
187.87,97.0
187.93,94.0
187.99,107.0
188.05,83.0
188.12,95.0
188.18,93.0
188.24,95.0
188.31,108.0
188.37,69.0
188.43,71.0
188.5,93.0
188.56,62.0
188.62,76.0
188.68,86.0
188.75,80.0
188.81,82.0
188.87,64.0
188.94,66.0
189.0,62.0
189.06,90.0
189.13,83.0
189.19,77.0
189.25,79.0
189.31,53.0
189.38,44.0
189.44,56.0
189.5,55.0
189.57,71.0
189.63,64.0
189.69,75.0
189.76,72.0
189.82,62.0
189.88,54.0
189.94,62.0
190.01,44.0
190.07,48.0
190.13,49.0
190.2,53.0
190.26,39.0
190.32,39.0
190.39,43.0
190.45,47.0
190.51,37.0
190.57,32.0
190.64,45.0
190.7,30.0
190.76,34.0
190.83,37.0
190.89,36.0
190.95,27.0
191.02,24.0
191.08,47.0
191.14,40.0
191.2,42.0
191.27,40.0
191.33,39.0
191.39,36.0
191.46,41.0
191.52,47.0
191.58,53.0
191.65,46.0
191.71,47.0
191.77,68.0
191.83,64.0
191.9,63.0
191.96,37.0
192.02,40.0
192.09,55.0
192.15,44.0
192.21,59.0
192.28,48.0
192.34,72.0
192.4,68.0
192.46,45.0
192.53,73.0
192.59,88.0
192.65,76.0
192.72,58.0
192.78,50.0
192.84,63.0
192.91,57.0
192.97,59.0
193.03,59.0
193.09,65.0
193.16,71.0
193.22,69.0
193.28,81.0
193.35,83.0
193.41,64.0
193.47,62.0
193.54,52.0
193.6,86.0
193.66,99.0
193.72,105.0
193.79,112.0
193.85,104.0
193.91,92.0
193.98,82.0
194.04,75.0
194.1,76.0
194.17,75.0
194.23,94.0
194.29,81.0
194.35,98.0
194.42,84.0
194.48,83.0
194.54,109.0
194.61,111.0
194.67,97.0
194.73,81.0
194.8,89.0
194.86,117.0
194.92,103.0
194.98,97.0
195.05,107.0
195.11,99.0
195.17,100.0
195.24,102.0
195.3,95.0
195.36,93.0
195.43,79.0
195.49,83.0
195.55,90.0
195.61,114.0
195.68,105.0
195.74,99.0
195.8,78.0
195.87,104.0
195.93,105.0
195.99,94.0
196.06,91.0
196.12,83.0
196.18,112.0
196.24,84.0
196.31,99.0
196.37,79.0
196.43,80.0
196.5,96.0
196.56,101.0
196.62,104.0
196.69,105.0
196.75,98.0
196.81,75.0
196.87,76.0
196.94,89.0
197.0,102.0
197.06,86.0
197.13,79.0
197.19,59.0
197.25,76.0
197.32,65.0
197.38,73.0
197.44,71.0
197.5,69.0
197.57,60.0
197.63,53.0
197.69,68.0
197.76,84.0
197.82,81.0
197.88,72.0
197.95,76.0
198.01,66.0
198.07,81.0
198.13,62.0
198.2,62.0
198.26,76.0
198.32,72.0
198.39,65.0
198.45,65.0
198.51,65.0
198.58,70.0
198.64,58.0
198.7,59.0
198.76,58.0
198.83,72.0
198.89,63.0
198.95,65.0
199.02,50.0
199.08,37.0
199.14,52.0
199.21,30.0
199.27,17.0
199.33,17.0
199.39,10.0
199.46,9.0
199.52,8.0
199.58,9.0
199.65,6.0
199.71,3.0
199.77,-6.0
199.84,-2.0
199.9,-12.0
199.96,-17.0
200.02,-25.0
200.09,-25.0
200.15,-17.0
200.21,-13.0
200.28,-5.0
200.34,-13.0
200.4,-8.0
200.47,2.0
200.53,17.0
200.59,-5.0
200.65,-2.0
200.72,-28.0
200.78,-11.0
200.84,1.0
200.91,-15.0
200.97,-27.0
201.03,-22.0
201.1,-9.0
201.16,-19.0
201.22,0.0
201.28,-6.0
201.35,-16.0
201.41,-2.0
201.47,-7.0
201.54,-14.0
201.6,-22.0
201.66,-1.0
201.73,7.0
201.79,20.0
201.85,22.0
201.91,25.0
201.98,15.0
202.04,28.0
202.1,39.0
202.17,52.0
202.23,59.0
202.29,14.0
202.36,7.0
202.42,10.0
202.48,7.0
202.54,36.0
202.61,42.0
202.67,37.0
202.73,46.0
202.8,43.0
202.86,36.0
202.92,46.0
202.99,44.0
203.05,60.0
203.11,62.0
203.17,62.0
203.24,73.0
203.3,76.0
203.36,77.0
203.43,90.0
203.49,86.0
203.55,74.0
203.62,63.0
203.68,75.0
203.74,75.0
203.8,69.0
203.87,66.0
203.93,59.0
203.99,63.0
204.06,71.0
204.12,72.0
204.18,59.0
204.25,60.0
204.31,46.0
204.37,48.0
204.43,38.0
204.5,39.0
204.56,43.0
204.62,65.0
204.69,54.0
204.75,24.0
204.81,52.0
204.88,65.0
204.94,54.0
205.0,70.0
205.06,69.0
205.13,64.0
205.19,63.0
205.25,68.0
205.32,68.0
205.38,50.0
205.44,69.0
205.51,88.0
205.57,60.0
205.63,53.0
205.69,57.0
205.76,53.0
205.82,42.0
205.88,51.0
205.95,38.0
206.01,43.0
206.07,64.0
206.14,53.0
206.2,36.0
206.26,37.0
206.32,47.0
206.39,54.0
206.45,66.0
206.51,54.0
206.58,56.0
206.64,60.0
206.7,40.0
206.77,44.0
206.83,49.0
206.89,54.0
206.95,58.0
207.02,44.0
207.08,55.0
207.14,61.0
207.21,54.0
207.27,49.0
207.33,63.0
207.4,51.0
207.46,18.0
207.52,38.0
207.58,36.0
207.65,0.0
207.71,11.0
207.77,-15.0
207.84,-16.0
207.9,2.0
207.96,8.0
208.03,5.0
208.09,5.0
208.15,-8.0
208.21,-1.0
208.28,15.0
208.34,5.0
208.4,17.0
208.47,21.0
208.53,33.0
208.59,15.0
208.66,17.0
208.72,31.0
208.78,37.0
208.84,38.0
208.91,29.0
208.97,23.0
209.03,25.0
209.1,41.0
209.16,23.0
209.22,26.0
209.29,43.0
209.35,36.0
209.41,60.0
209.47,48.0
209.54,37.0
209.6,48.0
209.66,70.0
209.73,61.0
209.79,61.0
209.85,51.0
209.92,60.0
209.98,48.0
210.04,40.0
210.1,44.0
210.17,39.0
210.23,39.0
210.29,38.0
210.36,29.0
210.42,37.0
210.48,31.0
210.55,37.0
210.61,44.0
210.67,60.0
210.73,67.0
210.8,64.0
210.86,54.0
210.92,67.0
210.99,70.0
211.05,74.0
211.11,78.0
211.18,61.0
211.24,49.0
211.3,55.0
211.36,62.0
211.43,55.0
211.49,50.0
211.55,61.0
211.62,63.0
211.68,77.0
211.74,85.0
211.81,88.0
211.87,89.0
211.93,83.0
211.99,84.0
212.06,88.0
212.12,68.0
212.18,88.0
212.25,89.0
212.31,99.0
212.37,114.0
212.44,112.0
212.5,120.0
212.56,131.0
212.62,112.0
212.69,120.0
212.75,104.0
212.81,107.0
212.88,118.0
212.94,117.0
213.0,125.0
213.07,123.0
213.13,127.0
213.19,114.0
213.25,106.0
213.32,116.0
213.38,121.0
213.44,125.0
213.51,133.0
213.57,140.0
213.63,124.0
213.7,101.0
213.76,117.0
213.82,122.0
213.88,141.0
213.95,135.0
214.01,144.0
214.07,146.0
214.14,122.0
214.2,134.0
214.26,116.0
214.33,132.0
214.39,147.0
214.45,122.0
214.51,128.0
214.58,130.0
214.64,129.0
214.7,134.0
214.77,119.0
214.83,145.0
214.89,153.0
214.96,143.0
215.02,136.0
215.08,131.0
215.14,108.0
215.21,139.0
215.27,109.0
215.33,111.0
215.4,125.0
215.46,138.0
215.52,121.0
215.59,123.0
215.65,105.0
215.71,102.0
215.77,101.0
215.84,90.0
215.9,89.0
215.96,75.0
216.03,95.0
216.09,93.0
216.15,81.0
216.22,87.0
216.28,83.0
216.34,82.0
216.4,79.0
216.47,90.0
216.53,89.0
216.59,98.0
216.66,83.0
216.72,79.0
216.78,57.0
216.85,72.0
216.91,68.0
216.97,51.0
217.03,66.0
217.1,95.0
217.16,68.0
217.22,70.0
217.29,75.0
217.35,86.0
217.41,82.0
217.48,80.0
217.54,70.0
217.6,55.0
217.66,70.0
217.73,82.0
217.79,84.0
217.85,80.0
217.92,88.0
217.98,81.0
218.04,81.0
218.11,88.0
218.17,79.0
218.23,79.0
218.29,85.0
218.36,81.0
218.42,81.0
218.48,70.0
218.55,63.0
218.61,70.0
218.67,66.0
218.74,69.0
218.8,55.0
218.86,76.0
218.92,48.0
218.99,62.0
219.05,71.0
219.11,54.0
219.18,56.0
219.24,69.0
219.3,77.0
219.37,78.0
219.43,72.0
219.49,91.0
219.55,88.0
219.62,83.0
219.68,99.0
219.74,96.0
219.81,96.0
219.87,129.0
219.93,93.0
220.0,115.0
220.06,120.0
220.12,114.0
220.18,127.0
220.25,84.0
220.31,115.0
220.37,105.0
220.44,106.0
220.5,115.0
220.56,90.0
220.63,115.0
220.69,102.0
220.75,88.0
220.81,106.0
220.88,118.0
220.94,114.0
221.0,121.0
221.07,116.0
221.13,113.0
221.19,115.0
221.26,126.0
221.32,120.0
221.38,121.0
221.44,108.0
221.51,114.0
221.57,126.0
221.63,107.0
221.7,99.0
221.76,88.0
221.82,72.0
221.89,86.0
221.95,110.0
222.01,96.0
222.07,117.0
222.14,107.0
222.2,108.0
222.26,105.0
222.33,100.0
222.39,97.0
222.45,93.0
222.52,101.0
222.58,101.0
222.64,101.0
222.7,88.0
222.77,81.0
222.83,79.0
222.89,77.0
222.96,69.0
223.02,83.0
223.08,77.0
223.15,51.0
223.21,66.0
223.27,77.0
223.33,77.0
223.4,81.0
223.46,77.0
223.52,55.0
223.59,55.0
223.65,55.0
223.71,53.0
223.78,52.0
223.84,55.0
223.9,40.0
223.96,70.0
224.03,50.0
224.09,44.0
224.15,57.0
224.22,48.0
224.28,48.0
224.34,62.0
224.41,65.0
224.47,73.0
224.53,66.0
224.59,67.0
224.66,53.0
224.72,79.0
224.78,64.0
224.85,57.0
224.91,51.0
224.97,48.0
225.04,35.0
225.1,35.0
225.16,64.0
225.22,47.0
225.29,63.0
225.35,27.0
225.41,23.0
225.48,30.0
225.54,46.0
225.6,46.0
225.67,47.0
225.73,25.0
225.79,22.0
225.85,37.0
225.92,41.0
225.98,42.0
226.04,47.0
226.11,50.0
226.17,44.0
226.23,63.0
226.3,31.0
226.36,33.0
226.42,26.0
226.48,24.0
226.55,42.0
226.61,24.0
226.67,24.0
226.74,28.0
226.8,56.0
226.86,49.0
226.93,55.0
226.99,52.0
227.05,30.0
227.11,21.0
227.18,28.0
227.24,29.0
227.3,45.0
227.37,34.0
227.43,20.0
227.49,37.0
227.56,45.0
227.62,18.0
227.68,51.0
227.74,37.0
227.81,34.0
227.87,36.0
227.93,32.0
228.0,54.0
228.06,56.0
228.12,42.0
228.19,28.0
228.25,36.0
228.31,44.0
228.37,64.0
228.44,76.0
228.5,89.0
228.56,92.0
228.63,91.0
228.69,87.0
228.75,86.0
228.82,94.0
228.88,86.0
228.94,62.0
229.0,66.0
229.07,71.0
229.13,84.0
229.19,100.0
229.26,89.0
229.32,73.0
229.38,69.0
229.45,74.0
229.51,72.0
229.57,70.0
229.63,78.0
229.7,64.0
229.76,92.0
229.82,81.0
229.89,68.0
229.95,62.0
230.01,69.0
230.08,83.0
230.14,90.0
230.2,83.0
230.26,66.0
230.33,89.0
230.39,87.0
230.45,73.0
230.52,105.0
230.58,84.0
230.64,84.0
230.71,96.0
230.77,99.0
230.83,94.0
230.89,88.0
230.96,99.0
231.02,104.0
231.08,106.0
231.15,110.0
231.21,105.0
231.27,98.0
231.34,100.0
231.4,99.0
231.46,100.0
231.52,88.0
231.59,85.0
231.65,97.0
231.71,93.0
231.78,105.0
231.84,101.0
231.9,109.0
231.97,96.0
232.03,90.0
232.09,84.0
232.15,76.0
232.22,66.0
232.28,80.0
232.34,70.0
232.41,60.0
232.47,66.0
232.53,49.0
232.6,52.0
232.66,88.0
232.72,68.0
232.78,66.0
232.85,59.0
232.91,58.0
232.97,69.0
233.04,75.0
233.1,92.0
233.16,69.0
233.23,85.0
233.29,81.0
233.35,70.0
233.41,65.0
233.48,78.0
233.54,78.0
233.6,95.0
233.67,92.0
233.73,59.0
233.79,43.0
233.86,64.0
233.92,58.0
233.98,48.0
234.04,24.0
234.11,55.0
234.17,49.0
234.23,32.0
234.3,55.0
234.36,70.0
234.42,69.0
234.49,63.0
234.55,64.0
234.61,44.0
234.67,62.0
234.74,69.0
234.8,63.0
234.86,54.0
234.93,67.0
234.99,52.0
235.05,68.0
235.12,60.0
235.18,61.0
235.24,72.0
235.3,89.0
235.37,108.0
235.43,98.0
235.49,91.0
235.56,72.0
235.62,67.0
235.68,70.0
235.75,91.0
235.81,81.0
235.87,77.0
235.93,101.0
236.0,106.0
236.06,124.0
236.12,101.0
236.19,103.0
236.25,103.0
236.31,105.0
236.38,115.0
236.44,105.0
236.5,96.0
236.56,110.0
236.63,126.0
236.69,139.0
236.75,119.0
236.82,110.0
236.88,121.0
236.94,105.0
237.01,121.0
237.07,135.0
237.13,130.0
237.19,138.0
237.26,137.0
237.32,150.0
237.38,142.0
237.45,144.0
237.51,145.0
237.57,129.0
237.64,141.0
237.7,149.0
237.76,129.0
237.82,125.0
237.89,136.0
237.95,127.0
238.01,134.0
238.08,114.0
238.14,127.0
238.2,118.0
238.27,108.0
238.33,107.0
238.39,108.0
238.45,121.0
238.52,114.0
238.58,112.0
238.64,141.0
238.71,128.0
238.77,116.0
238.83,121.0
238.9,137.0
238.96,103.0
239.02,96.0
239.08,82.0
239.15,95.0
239.21,102.0
239.27,99.0
239.34,98.0
239.4,86.0
239.46,88.0
239.53,83.0
239.59,85.0
239.65,105.0
239.71,110.0
239.78,100.0
239.84,105.0
239.9,102.0
239.97,104.0
240.03,118.0
240.09,113.0
240.16,109.0
240.22,101.0
240.28,113.0
240.34,103.0
240.41,110.0
240.47,102.0
240.53,75.0
240.6,95.0
240.66,96.0
240.72,75.0
240.79,72.0
240.85,71.0
240.91,62.0
240.97,64.0
241.04,64.0
241.1,58.0
241.16,38.0
241.23,44.0
241.29,42.0
241.35,34.0
241.42,25.0
241.48,26.0
241.54,44.0
241.6,44.0
241.67,26.0
241.73,59.0
241.79,37.0
241.86,43.0
241.92,37.0
241.98,50.0
242.05,47.0
242.11,36.0
242.17,29.0
242.23,44.0
242.3,41.0
242.36,33.0
242.42,44.0
242.49,51.0
242.55,80.0
242.61,68.0
242.68,58.0
242.74,53.0
242.8,65.0
242.86,70.0
242.93,68.0
242.99,41.0
243.05,48.0
243.12,61.0
243.18,68.0
243.24,74.0
243.31,59.0
243.37,26.0
243.43,51.0
243.49,62.0
243.56,55.0
243.62,51.0
243.68,48.0
243.75,59.0
243.81,73.0
243.87,71.0
243.94,67.0
244.0,81.0
244.06,79.0
244.12,79.0
244.19,86.0
244.25,84.0
244.31,104.0
244.38,94.0
244.44,94.0
244.5,88.0
244.57,85.0
244.63,84.0
244.69,80.0
244.75,91.0
244.82,72.0
244.88,95.0
244.94,95.0
245.01,99.0
245.07,89.0
245.13,104.0
245.2,103.0
245.26,89.0
245.32,92.0
245.38,90.0
245.45,88.0
245.51,66.0
245.57,94.0
245.64,88.0
245.7,114.0
245.76,103.0
245.83,104.0
245.89,113.0
245.95,124.0
246.01,106.0
246.08,107.0
246.14,110.0
246.2,90.0
246.27,105.0
246.33,109.0
246.39,112.0
246.46,101.0
246.52,108.0
246.58,126.0
246.64,118.0
246.71,114.0
246.77,88.0
246.83,91.0
246.9,96.0
246.96,103.0
247.02,114.0
247.09,110.0
247.15,97.0
247.21,87.0
247.27,82.0
247.34,81.0
247.4,77.0
247.46,101.0
247.53,86.0
247.59,84.0
247.65,91.0
247.72,102.0
247.78,77.0
247.84,85.0
247.9,62.0
247.97,56.0
248.03,62.0
248.09,52.0
248.16,56.0
248.22,58.0
248.28,78.0
248.35,82.0
248.41,65.0
248.47,63.0
248.53,76.0
248.6,69.0
248.66,69.0
248.72,34.0
248.79,48.0
248.85,68.0
248.91,44.0
248.98,48.0
249.04,41.0
249.1,21.0
249.16,19.0
249.23,38.0
249.29,36.0
249.35,33.0
249.42,36.0
249.48,30.0
249.54,27.0
249.61,22.0
249.67,31.0
249.73,20.0
249.79,28.0
249.86,33.0
249.92,30.0
249.98,26.0
250.05,21.0
250.11,23.0
250.17,52.0
250.24,46.0
250.3,35.0
250.36,12.0
250.42,12.0
250.49,26.0
250.55,17.0
250.61,-8.0
250.68,-11.0
250.74,16.0
250.8,0.0
250.87,6.0
250.93,3.0
250.99,16.0
251.05,-13.0
251.12,-13.0
251.18,-2.0
251.24,-7.0
251.31,10.0
251.37,8.0
251.43,7.0
251.5,0.0
251.56,-7.0
251.62,-11.0
251.68,-4.0
251.75,2.0
251.81,-9.0
251.87,-11.0
251.94,15.0
252.0,14.0
252.06,3.0
252.13,14.0
252.19,7.0
252.25,22.0
252.31,4.0
252.38,9.0
252.44,-3.0
252.5,13.0
252.57,15.0
252.63,11.0
252.69,6.0
252.76,44.0
252.82,25.0
252.88,19.0
252.94,47.0
253.01,62.0
253.07,57.0
253.13,41.0
253.2,25.0
253.26,24.0
253.32,20.0
253.39,37.0
253.45,36.0
253.51,42.0
253.57,37.0
253.64,61.0
253.7,50.0
253.76,39.0
253.83,23.0
253.89,42.0
253.95,19.0
254.02,11.0
254.08,9.0
254.14,7.0
254.2,16.0
254.27,11.0
254.33,26.0
254.39,36.0
254.46,42.0
254.52,29.0
254.58,40.0
254.65,37.0
254.71,37.0
254.77,25.0
254.83,21.0
254.9,43.0
254.96,34.0
255.02,37.0
255.09,28.0
255.15,27.0
255.21,26.0
255.28,47.0
255.34,51.0
255.4,45.0
255.46,23.0
255.53,29.0
255.59,33.0
255.65,19.0
255.72,16.0
255.78,16.0
255.84,31.0
255.91,1.0
255.97,26.0
256.03,18.0
256.09,15.0
256.16,31.0
256.22,25.0
256.28,31.0
256.35,46.0
256.41,46.0
256.47,44.0
256.54,51.0
256.6,29.0
256.66,51.0
256.72,57.0
256.79,52.0
256.85,64.0
256.91,60.0
256.98,55.0
257.04,16.0
257.1,32.0
257.17,33.0
257.23,25.0
257.29,22.0
257.35,7.0
257.42,23.0
257.48,21.0
257.54,9.0
257.61,8.0
257.67,25.0
257.73,16.0
257.8,3.0
257.86,-15.0
257.92,1.0
257.98,-9.0
258.05,-15.0
258.11,-12.0
258.17,-9.0
258.24,-25.0
258.3,-17.0
258.36,0.0
258.43,-23.0
258.49,-18.0
258.55,5.0
258.61,-7.0
258.68,2.0
258.74,21.0
258.8,8.0
258.87,2.0
258.93,12.0
258.99,6.0
259.06,3.0
259.12,-6.0
259.18,0.0
259.24,14.0
259.31,16.0
259.37,-10.0
259.43,6.0
259.5,4.0
259.56,-5.0
259.62,13.0
259.69,2.0
259.75,-1.0
259.81,15.0
259.87,38.0
259.94,30.0
260.0,20.0
260.06,32.0
260.13,53.0
260.19,47.0
260.25,45.0
260.32,50.0
260.38,62.0
260.44,51.0
260.5,38.0
260.57,54.0
260.63,40.0
260.69,40.0
260.76,47.0
260.82,24.0
260.88,24.0
260.95,21.0
261.01,32.0
261.07,39.0
261.13,49.0
261.2,64.0
261.26,64.0
261.32,51.0
261.39,28.0
261.45,47.0
261.51,46.0
261.58,31.0
261.64,42.0
261.7,56.0
261.76,63.0
261.83,65.0
261.89,54.0
261.95,70.0
262.02,67.0
262.08,78.0
262.14,74.0
262.21,90.0
262.27,98.0
262.33,90.0
262.39,99.0
262.46,101.0
262.52,92.0
262.58,72.0
262.65,107.0
262.71,107.0
262.77,104.0
262.84,103.0
262.9,115.0
262.96,107.0
263.02,99.0
263.09,86.0
263.15,79.0
263.21,118.0
263.28,122.0
263.34,116.0
263.4,98.0
263.47,93.0
263.53,92.0
263.59,92.0
263.65,78.0
263.72,101.0
263.78,92.0
263.84,92.0
263.91,90.0
263.97,82.0
264.03,94.0
264.1,101.0
264.16,103.0
264.22,111.0
264.28,115.0
264.35,114.0
264.41,114.0
264.47,118.0
264.54,128.0
264.6,126.0
264.66,135.0
264.73,149.0
264.79,181.0
264.85,153.0
264.91,126.0
264.98,159.0
265.04,145.0
265.1,158.0
265.17,152.0
265.23,133.0
265.29,144.0
265.36,151.0
265.42,155.0
265.48,158.0
265.54,163.0
265.61,148.0
265.67,147.0
265.73,143.0
265.8,154.0
265.86,156.0
265.92,150.0
265.99,162.0
266.05,166.0
266.11,146.0
266.17,137.0
266.24,139.0
266.3,137.0
266.36,100.0
266.43,121.0
266.49,133.0
266.55,107.0
266.62,126.0
266.68,130.0
266.74,122.0
266.8,122.0
266.87,112.0
266.93,120.0
266.99,123.0
267.06,92.0
267.12,101.0
267.18,104.0
267.25,104.0
267.31,101.0
267.37,85.0
267.43,97.0
267.5,88.0
267.56,82.0
267.62,104.0
267.69,80.0
267.75,94.0
267.81,71.0
267.88,71.0
267.94,95.0
268.0,84.0
268.06,80.0
268.13,67.0
268.19,75.0
268.25,84.0
268.32,72.0
268.38,78.0
268.44,90.0
268.51,96.0
268.57,91.0
268.63,96.0
268.69,97.0
268.76,85.0
268.82,90.0
268.88,100.0
268.95,107.0
269.01,103.0
269.07,124.0
269.14,87.0
269.2,102.0
269.26,112.0
269.32,123.0
269.39,120.0
269.45,126.0
269.51,102.0
269.58,109.0
269.64,109.0
269.7,119.0
269.77,127.0
269.83,92.0
269.89,101.0
269.95,92.0
270.02,92.0
270.08,96.0
270.14,97.0
270.21,83.0
270.27,80.0
270.33,79.0
270.4,93.0
270.46,80.0
270.52,79.0
270.58,104.0
270.65,90.0
270.71,89.0
270.77,92.0
270.84,104.0
270.9,100.0
270.96,123.0
271.03,129.0
271.09,107.0
271.15,103.0
271.21,111.0
271.28,130.0
271.34,127.0
271.4,138.0
271.47,119.0
271.53,111.0
271.59,105.0
271.66,118.0
271.72,101.0
271.78,104.0
271.84,105.0
271.91,115.0
271.97,98.0
272.03,103.0
272.1,120.0
272.16,128.0
272.22,122.0
272.29,122.0
272.35,104.0
272.41,111.0
272.47,103.0
272.54,120.0
272.6,100.0
272.66,86.0
272.73,104.0
272.79,86.0
272.85,67.0
272.92,90.0
272.98,91.0
273.04,92.0
273.1,77.0
273.17,79.0
273.23,86.0
273.29,76.0
273.36,43.0
273.42,75.0
273.48,70.0
273.55,86.0
273.61,111.0
273.67,108.0
273.73,101.0
273.8,103.0
273.86,109.0
273.92,105.0
273.99,88.0
274.05,98.0
274.11,115.0
274.18,90.0
274.24,98.0
274.3,95.0
274.36,89.0
274.43,90.0
274.49,79.0
274.55,64.0
274.62,80.0
274.68,67.0
274.74,81.0
274.81,80.0
274.87,97.0
274.93,103.0
274.99,78.0
275.06,89.0
275.12,71.0
275.18,82.0
275.25,85.0
275.31,93.0
275.37,87.0
275.44,81.0
275.5,68.0
275.56,71.0
275.62,64.0
275.69,76.0
275.75,93.0
275.81,80.0
275.88,90.0
275.94,79.0
276.0,76.0
276.07,78.0
276.13,78.0
276.19,104.0
276.25,86.0
276.32,90.0
276.38,93.0
276.44,92.0
276.51,101.0
276.57,103.0
276.63,104.0
276.7,82.0
276.76,71.0
276.82,78.0
276.88,67.0
276.95,75.0
277.01,92.0
277.07,56.0
277.14,57.0
277.2,67.0
277.26,59.0
277.33,40.0
277.39,52.0
277.45,52.0
277.51,56.0
277.58,48.0
277.64,63.0
277.7,51.0
277.77,64.0
277.83,62.0
277.89,78.0
277.96,43.0
278.02,56.0
278.08,56.0
278.14,20.0
278.21,31.0
278.27,24.0
278.33,31.0
278.4,51.0
278.46,56.0
278.52,32.0
278.59,27.0
278.65,42.0
278.71,44.0
278.77,31.0
278.84,32.0
278.9,49.0
278.96,38.0
279.03,40.0
279.09,52.0
279.15,78.0
279.22,71.0
279.28,51.0
279.34,71.0
279.4,78.0
279.47,72.0
279.53,70.0
279.59,60.0
279.66,72.0
279.72,65.0
279.78,76.0
279.85,87.0
279.91,80.0
279.97,85.0
280.03,86.0
280.1,83.0
280.16,76.0
280.22,74.0
280.29,83.0
280.35,79.0
280.41,73.0
280.48,82.0
280.54,94.0
280.6,95.0
280.66,116.0
280.73,108.0
280.79,108.0
280.85,104.0
280.92,104.0
280.98,106.0
281.04,116.0
281.11,129.0
281.17,117.0
281.23,118.0
281.29,111.0
281.36,94.0
281.42,103.0
281.48,101.0
281.55,101.0
281.61,117.0
281.67,119.0
281.74,129.0
281.8,121.0
281.86,112.0
281.92,126.0
281.99,145.0
282.05,133.0
282.11,147.0
282.18,141.0
282.24,135.0
282.3,139.0
282.37,131.0
282.43,125.0
282.49,118.0
282.55,141.0
282.62,118.0
282.68,130.0
282.74,148.0
282.81,123.0
282.87,131.0
282.93,128.0
283.0,128.0
283.06,119.0
283.12,78.0
283.18,100.0
283.25,125.0
283.31,101.0
283.37,81.0
283.44,99.0
283.5,101.0
283.56,96.0
283.63,82.0
283.69,92.0
283.75,111.0
283.81,99.0
283.88,87.0
283.94,92.0
284.0,80.0
284.07,80.0
284.13,52.0
284.19,81.0
284.26,66.0
284.32,64.0
284.38,59.0
284.44,70.0
284.51,71.0
284.57,71.0
284.63,66.0
284.7,52.0
284.76,81.0
284.82,69.0
284.89,72.0
284.95,64.0
285.01,64.0
285.07,78.0
285.14,59.0
285.2,64.0
285.26,65.0
285.33,76.0
285.39,62.0
285.45,54.0
285.52,59.0
285.58,61.0
285.64,57.0
285.7,38.0
285.77,49.0
285.83,59.0
285.89,32.0
285.96,33.0
286.02,58.0
286.08,56.0
286.15,50.0
286.21,60.0
286.27,59.0
286.33,74.0
286.4,79.0
286.46,86.0
286.52,100.0
286.59,98.0
286.65,100.0
286.71,115.0
286.78,109.0
286.84,109.0
286.9,95.0
286.96,101.0
287.03,107.0
287.09,125.0
287.15,128.0
287.22,115.0
287.28,120.0
287.34,116.0
287.41,123.0
287.47,117.0
287.53,89.0
287.59,94.0
287.66,95.0
287.72,100.0
287.78,114.0
287.85,125.0
287.91,111.0
287.97,98.0
288.04,108.0
288.1,98.0
288.16,113.0
288.22,107.0
288.29,103.0
288.35,100.0
288.41,126.0
288.48,118.0
288.54,115.0
288.6,131.0
288.67,130.0
288.73,147.0
288.79,140.0
288.85,136.0
288.92,106.0
288.98,105.0
289.04,118.0
289.11,131.0
289.17,120.0
289.23,118.0
289.3,105.0
289.36,108.0
289.42,105.0
289.48,91.0
289.55,95.0
289.61,107.0
289.67,114.0
289.74,120.0
289.8,116.0
289.86,118.0
289.93,114.0
289.99,112.0
290.05,100.0
290.11,101.0
290.18,91.0
290.24,106.0
290.3,110.0
290.37,114.0
290.43,111.0
290.49,104.0
290.56,109.0
290.62,106.0
290.68,112.0
290.74,124.0
290.81,135.0
290.87,131.0
290.93,115.0
291.0,122.0
291.06,124.0
291.12,138.0
291.19,142.0
291.25,133.0
291.31,130.0
291.37,120.0
291.44,111.0
291.5,107.0
291.56,109.0
291.63,85.0
291.69,78.0
291.75,99.0
291.82,80.0
291.88,73.0
291.94,97.0
292.0,81.0
292.07,74.0
292.13,70.0
292.19,70.0
292.26,92.0
292.32,74.0
292.38,76.0
292.45,52.0
292.51,47.0
292.57,57.0
292.63,48.0
292.7,43.0
292.76,50.0
292.82,44.0
292.89,26.0
292.95,36.0
293.01,43.0
293.08,24.0
293.14,34.0
293.2,54.0
293.26,46.0
293.33,32.0
293.39,38.0
293.45,32.0
293.52,36.0
293.58,31.0
293.64,34.0
293.71,27.0
293.77,22.0
293.83,27.0
293.89,35.0
293.96,38.0
294.02,49.0
294.08,46.0
294.15,36.0
294.21,28.0
294.27,6.0
294.34,43.0
294.4,34.0
294.46,28.0
294.52,51.0
294.59,49.0
294.65,67.0
294.71,66.0
294.78,64.0
294.84,71.0
294.9,72.0
294.97,72.0
295.03,67.0
295.09,80.0
295.15,87.0
295.22,97.0
295.28,85.0
295.34,59.0
295.41,79.0
295.47,66.0
295.53,67.0
295.6,58.0
295.66,76.0
295.72,79.0
295.78,82.0
295.85,107.0
295.91,99.0
295.97,89.0
296.04,84.0
296.1,78.0
296.16,73.0
296.23,72.0
296.29,59.0
296.35,63.0
296.41,52.0
296.48,66.0
296.54,78.0
296.6,74.0
296.67,67.0
296.73,50.0
296.79,65.0
296.86,68.0
296.92,87.0
296.98,76.0
297.04,70.0
297.11,52.0
297.17,64.0
297.23,86.0
297.3,61.0
297.36,95.0
297.42,71.0
297.49,63.0
297.55,55.0
297.61,67.0
297.67,92.0
297.74,76.0
297.8,64.0
297.86,56.0
297.93,67.0
297.99,47.0
298.05,60.0
298.12,87.0
298.18,83.0
298.24,100.0
298.3,101.0
298.37,106.0
298.43,106.0
298.49,103.0
298.56,101.0
298.62,104.0
298.68,96.0
298.75,79.0
298.81,101.0
298.87,91.0
298.93,104.0
299.0,100.0
299.06,107.0
299.12,107.0
299.19,100.0
299.25,100.0
299.31,74.0
299.38,82.0
299.44,85.0
299.5,74.0
299.56,74.0
299.63,83.0
299.69,90.0
299.75,82.0
299.82,54.0
299.88,38.0
299.94,53.0
300.01,49.0
300.07,51.0
300.13,47.0
300.19,60.0
300.26,60.0
300.32,88.0
300.38,86.0
300.45,67.0
300.51,54.0
300.57,49.0
300.64,52.0
300.7,60.0
300.76,34.0
300.82,34.0
300.89,46.0
300.95,37.0
301.01,48.0
301.08,34.0
301.14,35.0
301.2,27.0
301.27,38.0
301.33,41.0
301.39,35.0
301.45,21.0
301.52,30.0
301.58,16.0
301.64,34.0
301.71,18.0
301.77,33.0
301.83,49.0
301.9,42.0
301.96,58.0
302.02,73.0
302.08,82.0
302.15,64.0
302.21,56.0
302.27,56.0
302.34,45.0
302.4,35.0
302.46,58.0
302.53,46.0
302.59,55.0
302.65,50.0
302.71,39.0
302.78,45.0
302.84,50.0
302.9,60.0
302.97,68.0
303.03,63.0
303.09,48.0
303.16,44.0
303.22,51.0
303.28,53.0
303.34,56.0
303.41,58.0
303.47,63.0
303.53,66.0
303.6,71.0
303.66,64.0
303.72,65.0
303.79,60.0
303.85,63.0
303.91,64.0
303.97,54.0
304.04,57.0
304.1,45.0
304.16,56.0
304.23,42.0
304.29,74.0
304.35,38.0
304.42,42.0
304.48,55.0
304.54,54.0
304.6,52.0
304.67,48.0
304.73,64.0
304.79,57.0
304.86,49.0
304.92,37.0
304.98,40.0
305.05,35.0
305.11,37.0
305.17,39.0
305.23,44.0
305.3,43.0
305.36,43.0
305.42,65.0
305.49,57.0
305.55,62.0
305.61,50.0
305.68,59.0
305.74,49.0
305.8,56.0
305.86,60.0
305.93,62.0
305.99,65.0
306.05,64.0
306.12,67.0
306.18,71.0
306.24,67.0
306.31,60.0
306.37,87.0
306.43,77.0
306.49,68.0
306.56,84.0
306.62,73.0
306.68,70.0
306.75,73.0
306.81,84.0
306.87,71.0
306.94,65.0
307.0,54.0
307.06,62.0
307.12,49.0
307.19,59.0
307.25,62.0
307.31,58.0
307.38,68.0
307.44,48.0
307.5,50.0
307.57,61.0
307.63,54.0
307.69,33.0
307.75,44.0
307.82,49.0
307.88,45.0
307.94,23.0
308.01,35.0
308.07,43.0
308.13,47.0
308.2,34.0
308.26,43.0
308.32,32.0
308.38,23.0
308.45,25.0
308.51,23.0
308.57,11.0
308.64,15.0
308.7,19.0
308.76,12.0
308.83,24.0
308.89,15.0
308.95,3.0
309.01,12.0
309.08,22.0
309.14,19.0
309.2,8.0
309.27,7.0
309.33,-4.0
309.39,8.0
309.46,13.0
309.52,14.0
309.58,11.0
309.64,33.0
309.71,26.0
309.77,11.0
309.83,31.0
309.9,27.0
309.96,43.0
310.02,13.0
310.09,15.0
310.15,30.0
310.21,37.0
310.27,24.0
310.34,28.0
310.4,45.0
310.46,39.0
310.53,24.0
310.59,10.0
310.65,33.0
310.72,37.0
310.78,34.0
310.84,26.0
310.9,33.0
310.97,30.0
311.03,22.0
311.09,47.0
311.16,42.0
311.22,57.0
311.28,54.0
311.35,34.0
311.41,65.0
311.47,56.0
311.53,40.0
311.6,45.0
311.66,52.0
311.72,56.0
311.79,73.0
311.85,58.0
311.91,48.0
311.98,68.0
312.04,90.0
312.1,93.0
312.16,98.0
312.23,75.0
312.29,93.0
312.35,91.0
312.42,64.0
312.48,57.0
312.54,89.0
312.61,81.0
312.67,56.0
312.73,64.0
312.79,68.0
312.86,48.0
312.92,52.0
312.98,79.0
313.05,61.0
313.11,63.0
313.17,77.0
313.24,61.0
313.3,67.0
313.36,45.0
313.42,63.0
313.49,89.0
313.55,67.0
313.61,85.0
313.68,95.0
313.74,76.0
313.8,84.0
313.87,109.0
313.93,118.0
313.99,114.0
314.05,111.0
314.12,102.0
314.18,103.0
314.24,92.0
314.31,106.0
314.37,103.0
314.43,103.0
314.5,116.0
314.56,116.0
314.62,103.0
314.68,120.0
314.75,129.0
314.81,134.0
314.87,122.0
314.94,99.0
315.0,112.0
315.06,126.0
315.13,131.0
315.19,137.0
315.25,129.0
315.31,152.0
315.38,143.0
315.44,145.0
315.5,159.0
315.57,147.0
315.63,151.0
315.69,127.0
315.76,139.0
315.82,132.0
315.88,136.0
315.94,131.0
316.01,134.0
316.07,131.0
316.13,128.0
316.2,125.0
316.26,107.0
316.32,122.0
316.39,111.0
316.45,121.0
316.51,126.0
316.57,111.0
316.64,95.0
316.7,115.0
316.76,133.0
316.83,108.0
316.89,121.0
316.95,98.0
317.02,107.0
317.08,101.0
317.14,84.0
317.2,90.0
317.27,80.0
317.33,110.0
317.39,101.0
317.46,94.0
317.52,98.0
317.58,68.0
317.65,66.0
317.71,85.0
317.77,87.0
317.83,93.0
317.9,86.0
317.96,86.0
318.02,79.0
318.09,97.0
318.15,68.0
318.21,70.0
318.28,77.0
318.34,54.0
318.4,74.0
318.46,55.0
318.53,64.0
318.59,78.0
318.65,72.0
318.72,57.0
318.78,60.0
318.84,64.0
318.91,64.0
318.97,58.0
319.03,65.0
319.09,72.0
319.16,65.0
319.22,63.0
319.28,64.0
319.35,51.0
319.41,40.0
319.47,67.0
319.54,60.0
319.6,34.0
319.66,65.0
319.72,82.0
319.79,62.0
319.85,42.0
319.91,66.0
319.98,70.0
320.04,54.0
320.1,46.0
320.17,57.0
320.23,57.0
320.29,73.0
320.35,71.0
320.42,67.0
320.48,85.0
320.54,76.0
320.61,80.0
320.67,71.0
320.73,94.0
320.8,107.0
320.86,101.0
320.92,98.0
320.98,109.0
321.05,100.0
321.11,101.0
321.17,110.0
321.24,117.0
321.3,137.0
321.36,137.0
321.43,140.0
321.49,112.0
321.55,128.0
321.61,137.0
321.68,122.0
321.74,126.0
321.8,111.0
321.87,128.0
321.93,133.0
321.99,110.0
322.06,125.0
322.12,108.0
322.18,115.0
322.24,127.0
322.31,127.0
322.37,126.0
322.43,124.0
322.5,104.0
322.56,123.0
322.62,136.0
322.69,122.0
322.75,121.0
322.81,144.0
322.87,109.0
322.94,133.0
323.0,118.0
323.06,119.0
323.13,147.0
323.19,139.0
323.25,145.0
323.32,144.0
323.38,141.0
323.44,165.0
323.5,140.0
323.57,128.0
323.63,133.0
323.69,126.0
323.76,122.0
323.82,129.0
323.88,118.0
323.95,129.0
324.01,125.0
324.07,121.0
324.13,121.0
324.2,136.0
324.26,119.0
324.32,121.0
324.39,128.0
324.45,140.0
324.51,122.0
324.58,126.0
324.64,130.0
324.7,123.0
324.76,103.0
324.83,118.0
324.89,130.0
324.95,132.0
325.02,145.0
325.08,135.0
325.14,104.0
325.21,107.0
325.27,116.0
325.33,118.0
325.39,121.0
325.46,115.0
325.52,118.0
325.58,110.0
325.65,106.0
325.71,88.0
325.77,76.0
325.84,91.0
325.9,101.0
325.96,99.0
326.02,104.0
326.09,76.0
326.15,78.0
326.21,99.0
326.28,85.0
326.34,73.0
326.4,77.0
326.47,75.0
326.53,79.0
326.59,92.0
326.65,87.0
326.72,65.0
326.78,74.0
326.84,80.0
326.91,83.0
326.97,72.0
327.03,67.0
327.1,63.0
327.16,55.0
327.22,66.0
327.28,59.0
327.35,35.0
327.41,41.0
327.47,38.0
327.54,44.0
327.6,52.0
327.66,40.0
327.73,57.0
327.79,67.0
327.85,55.0
327.91,58.0
327.98,77.0
328.04,59.0
328.1,73.0
328.17,65.0
328.23,90.0
328.29,86.0
328.36,86.0
328.42,102.0
328.48,107.0
328.54,98.0
328.61,97.0
328.67,107.0
328.73,123.0
328.8,106.0
328.86,98.0
328.92,100.0
328.99,96.0
329.05,86.0
329.11,103.0
329.17,122.0
329.24,110.0
329.3,133.0
329.36,127.0
329.43,125.0
329.49,145.0
329.55,150.0
329.62,159.0
329.68,137.0
329.74,136.0
329.8,112.0
329.87,126.0
329.93,143.0
329.99,125.0
330.06,107.0
330.12,141.0
330.18,118.0
330.25,112.0
330.31,112.0
330.37,113.0
330.43,127.0
330.5,150.0
330.56,130.0
330.62,129.0
330.69,118.0
330.75,129.0
330.81,115.0
330.88,125.0
330.94,130.0
331.0,129.0
331.06,126.0
331.13,141.0
331.19,145.0
331.25,138.0
331.32,133.0
331.38,128.0
331.44,146.0
331.51,120.0
331.57,107.0
331.63,114.0
331.69,133.0
331.76,149.0
331.82,145.0
331.88,159.0
331.95,146.0
332.01,136.0
332.07,133.0
332.14,131.0
332.2,145.0
332.26,132.0
332.32,132.0
332.39,133.0
332.45,135.0
332.51,145.0
332.58,144.0
332.64,148.0
332.7,142.0
332.77,147.0
332.83,114.0
332.89,111.0
332.95,129.0
333.02,107.0
333.08,102.0
333.14,99.0
333.21,100.0
333.27,99.0
333.33,77.0
333.4,91.0
333.46,98.0
333.52,93.0
333.58,98.0
333.65,79.0
333.71,81.0
333.77,78.0
333.84,92.0
333.9,79.0
333.96,78.0
334.03,90.0
334.09,68.0
334.15,67.0
334.21,58.0
334.28,61.0
334.34,58.0
334.4,51.0
334.47,60.0
334.53,70.0
334.59,56.0
334.66,42.0
334.72,70.0
334.78,64.0
334.84,50.0
334.91,38.0
334.97,41.0
335.03,38.0
335.1,46.0
335.16,41.0
335.22,39.0
335.29,53.0
335.35,66.0
335.41,65.0
335.47,46.0
335.54,52.0
335.6,31.0
335.66,26.0
335.73,49.0
335.79,40.0
335.85,50.0
335.92,71.0
335.98,37.0
336.04,36.0
336.1,36.0
336.17,45.0
336.23,56.0
336.29,47.0
336.36,38.0
336.42,46.0
336.48,55.0
336.55,51.0
336.61,49.0
336.67,51.0
336.73,64.0
336.8,63.0
336.86,56.0
336.92,54.0
336.99,72.0
337.05,72.0
337.11,75.0
337.18,70.0
337.24,65.0
337.3,84.0
337.36,106.0
337.43,118.0
337.49,122.0
337.55,126.0
337.62,112.0
337.68,96.0
337.74,95.0
337.81,92.0
337.87,88.0
337.93,82.0
337.99,109.0
338.06,116.0
338.12,107.0
338.18,97.0
338.25,103.0
338.31,89.0
338.37,100.0
338.44,85.0
338.5,86.0
338.56,95.0
338.62,103.0
338.69,104.0
338.75,84.0
338.81,95.0
338.88,63.0
338.94,74.0
339.0,66.0
339.07,54.0
339.13,68.0
339.19,84.0
339.25,65.0
339.32,50.0
339.38,48.0
339.44,51.0
339.51,43.0
339.57,67.0
339.63,78.0
339.7,81.0
339.76,70.0
339.82,75.0
339.88,79.0
339.95,81.0
340.01,86.0
340.07,72.0
340.14,81.0
340.2,67.0
340.26,77.0
340.33,76.0
340.39,85.0
340.45,106.0
340.51,90.0
340.58,91.0
340.64,82.0
340.7,99.0
340.77,112.0
340.83,123.0
340.89,124.0
340.96,121.0
341.02,129.0
341.08,120.0
341.14,129.0
341.21,129.0
341.27,118.0
341.33,98.0
341.4,108.0
341.46,118.0
341.52,113.0
341.59,101.0
341.65,97.0
341.71,66.0
341.77,54.0
341.84,60.0
341.9,66.0
341.96,61.0
342.03,72.0
342.09,77.0
342.15,58.0
342.22,65.0
342.28,71.0
342.34,72.0
342.4,77.0
342.47,78.0
342.53,99.0
342.59,113.0
342.66,100.0
342.72,85.0
342.78,81.0
342.85,81.0
342.91,109.0
342.97,89.0
343.03,84.0
343.1,101.0
343.16,87.0
343.22,98.0
343.29,107.0
343.35,107.0
343.41,92.0
343.48,77.0
343.54,85.0
343.6,96.0
343.66,71.0
343.73,69.0
343.79,46.0
343.85,52.0
343.92,49.0
343.98,60.0
344.04,70.0
344.11,60.0
344.17,49.0
344.23,56.0
344.29,41.0
344.36,56.0
344.42,44.0
344.48,41.0
344.55,40.0
344.61,49.0
344.67,46.0
344.74,47.0
344.8,54.0
344.86,38.0
344.92,29.0
344.99,42.0
345.05,66.0
345.11,57.0
345.18,52.0
345.24,37.0
345.3,47.0
345.37,34.0
345.43,57.0
345.49,47.0
345.55,40.0
345.62,42.0
345.68,48.0
345.74,33.0
345.81,62.0
345.87,49.0
345.93,55.0
346.0,46.0
346.06,50.0
346.12,34.0
346.18,40.0
346.25,44.0
346.31,55.0
346.37,43.0
346.44,51.0
346.5,41.0
346.56,49.0
346.63,70.0
346.69,32.0
346.75,45.0
346.81,44.0
346.88,30.0
346.94,40.0
347.0,21.0
347.07,27.0
347.13,39.0
347.19,33.0
347.26,48.0
347.32,44.0
347.38,45.0
347.44,57.0
347.51,69.0
347.57,75.0
347.63,79.0
347.7,56.0
347.76,41.0
347.82,32.0
347.89,32.0
347.95,41.0
348.01,42.0
348.07,58.0
348.14,39.0
348.2,43.0
348.26,40.0
348.33,42.0
348.39,43.0
348.45,38.0
348.52,47.0
348.58,57.0
348.64,57.0
348.7,76.0
348.77,74.0
348.83,78.0
348.89,92.0
348.96,86.0
349.02,86.0
349.08,103.0
349.15,92.0
349.21,107.0
349.27,109.0
349.33,109.0
349.4,92.0
349.46,89.0
349.52,98.0
349.59,92.0
349.65,60.0
349.71,52.0
349.78,77.0
349.84,62.0
349.9,54.0
349.96,50.0
350.03,61.0
350.09,44.0
350.15,54.0
350.22,65.0
350.28,69.0
350.34,68.0
350.41,66.0
350.47,52.0
350.53,45.0
350.59,49.0
350.66,51.0
350.72,29.0
350.78,34.0
350.85,32.0
350.91,29.0
350.97,41.0
351.04,43.0
351.1,27.0
351.16,17.0
351.22,45.0
351.29,15.0
351.35,23.0
351.41,29.0
351.48,34.0
351.54,33.0
351.6,24.0
351.67,64.0
351.73,38.0
351.79,24.0
351.85,61.0
351.92,56.0
351.98,58.0
352.04,50.0
352.11,79.0
352.17,85.0
352.23,62.0
352.3,78.0
352.36,79.0
352.42,71.0
352.48,73.0
352.55,76.0
352.61,64.0
352.67,75.0
352.74,88.0
352.8,94.0
352.86,82.0
352.93,78.0
352.99,77.0
353.05,73.0
353.11,73.0
353.18,87.0
353.24,100.0
353.3,92.0
353.37,76.0
353.43,92.0
353.49,93.0
353.56,81.0
353.62,75.0
353.68,96.0
353.74,107.0
353.81,102.0
353.87,106.0
353.93,104.0
354.0,81.0
354.06,105.0
354.12,96.0
354.19,85.0
354.25,100.0
354.31,73.0
354.37,98.0
354.44,109.0
354.5,101.0
354.56,111.0
354.63,89.0
354.69,76.0
354.75,75.0
354.82,79.0
354.88,86.0
354.94,100.0
355.0,74.0
355.07,81.0
355.13,83.0
355.19,77.0
355.26,90.0
355.32,97.0
355.38,92.0
355.45,76.0
355.51,87.0
355.57,100.0
355.63,101.0
355.7,109.0
355.76,113.0
355.82,84.0
355.89,81.0
355.95,67.0
356.01,73.0
356.08,83.0
356.14,81.0
356.2,76.0
356.26,81.0
356.33,95.0
356.39,85.0
356.45,82.0
356.52,89.0
356.58,119.0
356.64,111.0
356.71,99.0
356.77,118.0
356.83,104.0
356.89,99.0
356.96,89.0
357.02,101.0
357.08,81.0
357.15,71.0
357.21,101.0
357.27,101.0
357.34,113.0
357.4,84.0
357.46,75.0
357.52,67.0
357.59,74.0
357.65,70.0
357.71,81.0
357.78,85.0
357.84,57.0
357.9,66.0
357.97,52.0
358.03,60.0
358.09,31.0
358.15,74.0
358.22,66.0
358.28,51.0
358.34,48.0
358.41,53.0
358.47,41.0
358.53,41.0
358.6,66.0
358.66,54.0
358.72,63.0
358.78,55.0
358.85,37.0
358.91,49.0
358.97,56.0
359.04,57.0
359.1,57.0
359.16,39.0
359.23,46.0
359.29,26.0
359.35,10.0
359.41,15.0
359.48,35.0
359.54,38.0
359.6,44.0
359.67,48.0
359.73,47.0
359.79,39.0
359.86,16.0
359.92,8.0
359.98,18.0
360.04,7.0
360.11,22.0
360.17,10.0
360.23,16.0
360.3,26.0
360.36,15.0
360.42,11.0
360.49,8.0
360.55,29.0
360.61,24.0
360.67,18.0
360.74,1.0
360.8,13.0
360.86,18.0
360.93,15.0
360.99,32.0
361.05,26.0
361.12,45.0
361.18,18.0
361.24,12.0
361.3,29.0
361.37,27.0
361.43,22.0
361.49,13.0
361.56,39.0
361.62,41.0
361.68,11.0
361.75,15.0
361.81,21.0
361.87,1.0
361.93,14.0
362.0,16.0
362.06,14.0
362.12,6.0
362.19,3.0
362.25,7.0
362.31,35.0
362.38,32.0
362.44,26.0
362.5,34.0
362.56,23.0
362.63,35.0
362.69,40.0
362.75,63.0
362.82,64.0
362.88,60.0
362.94,92.0
363.01,79.0
363.07,80.0
363.13,87.0
363.19,82.0
363.26,76.0
363.32,81.0
363.38,85.0
363.45,65.0
363.51,74.0
363.57,60.0
363.64,68.0
363.7,63.0
363.76,79.0
363.82,54.0
363.89,44.0
363.95,67.0
364.01,64.0
364.08,59.0
364.14,53.0
364.2,54.0
364.27,59.0
364.33,65.0
364.39,68.0
364.45,52.0
364.52,70.0
364.58,76.0
364.64,53.0
364.71,49.0
364.77,75.0
364.83,81.0
364.9,78.0
364.96,74.0
365.02,68.0
365.08,80.0
365.15,81.0
365.21,77.0
365.27,76.0
365.34,40.0
365.4,62.0
365.46,89.0
365.53,78.0
365.59,74.0
365.65,75.0
365.71,86.0
365.78,69.0
365.84,82.0
365.9,62.0
365.97,83.0
366.03,93.0
366.09,89.0
366.16,83.0
366.22,86.0
366.28,92.0
366.34,77.0
366.41,74.0
366.47,77.0
366.53,88.0
366.6,99.0
366.66,85.0
366.72,98.0
366.79,71.0
366.85,66.0
366.91,76.0
366.97,75.0
367.04,78.0
367.1,59.0
367.16,79.0
367.23,78.0
367.29,74.0
367.35,82.0
367.42,85.0
367.48,74.0
367.54,95.0
367.6,82.0
367.67,63.0
367.73,61.0
367.79,67.0
367.86,78.0
367.92,63.0
367.98,59.0
368.05,57.0
368.11,66.0
368.17,71.0
368.23,69.0
368.3,67.0
368.36,66.0
368.42,64.0
368.49,44.0
368.55,59.0
368.61,58.0
368.68,75.0
368.74,78.0
368.8,71.0
368.86,59.0
368.93,60.0
368.99,85.0
369.05,82.0
369.12,64.0
369.18,88.0
369.24,73.0
369.31,87.0
369.37,56.0
369.43,60.0
369.49,55.0
369.56,52.0
369.62,65.0
369.68,51.0
369.75,45.0
369.81,62.0
369.87,62.0
369.94,37.0
370.0,62.0
370.06,82.0
370.12,54.0
370.19,67.0
370.25,65.0
370.31,64.0
370.38,60.0
370.44,59.0
370.5,54.0
370.57,64.0
370.63,87.0
370.69,77.0
370.75,82.0
370.82,90.0
370.88,76.0
370.94,73.0
371.01,71.0
371.07,76.0
371.13,78.0
371.2,101.0
371.26,119.0
371.32,107.0
371.38,93.0
371.45,94.0
371.51,102.0
371.57,108.0
371.64,81.0
371.7,82.0
371.76,91.0
371.83,95.0
371.89,70.0
371.95,83.0
372.01,100.0
372.08,80.0
372.14,93.0
372.2,104.0
372.27,101.0
372.33,96.0
372.39,109.0
372.46,107.0
372.52,104.0
372.58,72.0
372.64,99.0
372.71,92.0
372.77,89.0
372.83,90.0
372.9,82.0
372.96,107.0
373.02,93.0
373.09,95.0
373.15,80.0
373.21,72.0
373.27,82.0
373.34,74.0
373.4,101.0
373.46,81.0
373.53,81.0
373.59,84.0
373.65,74.0
373.72,70.0
373.78,74.0
373.84,59.0
373.9,92.0
373.97,83.0
374.03,93.0
374.09,82.0
374.16,93.0
374.22,102.0
374.28,96.0
374.35,100.0
374.41,103.0
374.47,85.0
374.53,117.0
374.6,103.0
374.66,103.0
374.72,91.0
374.79,104.0
374.85,115.0
374.91,125.0
374.98,96.0
375.04,105.0
375.1,111.0
375.16,98.0
375.23,107.0
375.29,106.0
375.35,114.0
375.42,123.0
375.48,88.0
375.54,103.0
375.61,110.0
375.67,104.0
375.73,119.0
375.79,98.0
375.86,92.0
375.92,110.0
375.98,89.0
376.05,92.0
376.11,82.0
376.17,81.0
376.24,87.0
376.3,92.0
376.36,75.0
376.42,61.0
376.49,74.0
376.55,87.0
376.61,80.0
376.68,66.0
376.74,63.0
376.8,77.0
376.87,96.0
376.93,103.0
376.99,79.0
377.05,95.0
377.12,85.0
377.18,92.0
377.24,104.0
377.31,115.0
377.37,106.0
377.43,94.0
377.5,95.0
377.56,89.0
377.62,80.0
377.68,62.0
377.75,73.0
377.81,72.0
377.87,74.0
377.94,74.0
378.0,89.0
378.06,96.0
378.13,95.0
378.19,106.0
378.25,95.0
378.31,86.0
378.38,98.0
378.44,114.0
378.5,107.0
378.57,97.0
378.63,96.0
378.69,108.0
378.76,112.0
378.82,99.0
378.88,96.0
378.94,93.0
379.01,85.0
379.07,113.0
379.13,103.0
379.2,98.0
379.26,95.0
379.32,115.0
379.39,100.0
379.45,83.0
379.51,89.0
379.57,111.0
379.64,109.0
379.7,105.0
379.76,112.0
379.83,109.0
379.89,115.0
379.95,117.0
380.02,107.0
380.08,131.0
380.14,114.0
380.2,94.0
380.27,100.0
380.33,70.0
380.39,90.0
380.46,99.0
380.52,111.0
380.58,108.0
380.65,108.0
380.71,101.0
380.77,120.0
380.83,129.0
380.9,118.0
380.96,107.0
381.02,122.0
381.09,115.0
381.15,92.0
381.21,101.0
381.28,84.0
381.34,109.0
381.4,114.0
381.46,96.0
381.53,85.0
381.59,85.0
381.65,118.0
381.72,95.0
381.78,96.0
381.84,95.0
381.91,97.0
381.97,87.0
382.03,83.0
382.09,109.0
382.16,98.0
382.22,94.0
382.28,110.0
382.35,117.0
382.41,118.0
382.47,99.0
382.54,110.0
382.6,125.0
382.66,139.0
382.72,126.0
382.79,132.0
382.85,131.0
382.91,115.0
382.98,116.0
383.04,103.0
383.1,111.0
383.17,108.0
383.23,128.0
383.29,132.0
383.35,116.0
383.42,121.0
383.48,123.0
383.54,131.0
383.61,108.0
383.67,112.0
383.73,125.0
383.8,125.0
383.86,107.0
383.92,121.0
383.98,122.0
384.05,118.0
384.11,110.0
384.17,124.0
384.24,109.0
384.3,110.0
384.36,96.0
384.43,93.0
384.49,110.0
384.55,92.0
384.61,103.0
384.68,108.0
384.74,96.0
384.8,87.0
384.87,96.0
384.93,103.0
384.99,97.0
385.06,95.0
385.12,99.0
385.18,100.0
385.24,101.0
385.31,88.0
385.37,95.0
385.43,67.0
385.5,82.0
385.56,85.0
385.62,66.0
385.69,44.0
385.75,63.0
385.81,70.0
385.87,70.0
385.94,61.0
386.0,31.0
386.06,64.0
386.13,49.0
386.19,32.0
386.25,57.0
386.32,55.0
386.38,63.0
386.44,67.0
386.5,73.0
386.57,82.0
386.63,77.0
386.69,81.0
386.76,76.0
386.82,90.0
386.88,85.0
386.95,71.0
387.01,76.0
387.07,92.0
387.13,74.0
387.2,89.0
387.26,81.0
387.32,69.0
387.39,64.0
387.45,70.0
387.51,82.0
387.58,90.0
387.64,84.0
387.7,71.0
387.76,93.0
387.83,103.0
387.89,97.0
387.95,103.0
388.02,85.0
388.08,92.0
388.14,107.0
388.21,87.0
388.27,103.0
388.33,109.0
388.39,115.0
388.46,102.0
388.52,87.0
388.58,73.0
388.65,62.0
388.71,75.0
388.77,85.0
388.84,81.0
388.9,67.0
388.96,96.0
389.02,85.0
389.09,86.0
389.15,85.0
389.21,90.0
389.28,94.0
389.34,66.0
389.4,80.0
389.47,80.0
389.53,67.0
389.59,87.0
389.65,79.0
389.72,92.0
389.78,63.0
389.84,62.0
389.91,73.0
389.97,56.0
390.03,65.0
390.1,60.0
390.16,68.0
390.22,77.0
390.28,99.0
390.35,90.0
390.41,91.0
390.47,86.0
390.54,76.0
390.6,86.0
390.66,95.0
390.73,96.0
390.79,107.0
390.85,98.0
390.91,97.0
390.98,79.0
391.04,75.0
391.1,68.0
391.17,85.0
391.23,92.0
391.29,83.0
391.36,81.0
391.42,93.0
391.48,76.0
391.54,85.0
391.61,84.0
391.67,79.0
391.73,93.0
391.8,82.0
391.86,90.0
391.92,100.0
391.99,109.0
392.05,99.0
392.11,103.0
392.17,112.0
392.24,102.0
392.3,95.0
392.36,104.0
392.43,108.0
392.49,109.0
392.55,114.0
392.62,109.0
392.68,106.0
392.74,130.0
392.8,84.0
392.87,93.0
392.93,104.0
392.99,89.0
393.06,106.0
393.12,93.0
393.18,97.0
393.25,108.0
393.31,76.0
393.37,88.0
393.43,76.0
393.5,84.0
393.56,105.0
393.62,82.0
393.69,73.0
393.75,67.0
393.81,91.0
393.88,89.0
393.94,79.0
394.0,75.0
394.06,98.0
394.13,92.0
394.19,91.0
394.25,95.0
394.32,85.0
394.38,92.0
394.44,76.0
394.51,92.0
394.57,103.0
394.63,93.0
394.69,75.0
394.76,79.0
394.82,88.0
394.88,88.0
394.95,89.0
395.01,97.0
395.07,78.0
395.14,84.0
395.2,78.0
395.26,52.0
395.32,68.0
395.39,69.0
395.45,77.0
395.51,61.0
395.58,63.0
395.64,52.0
395.7,55.0
395.77,59.0
395.83,51.0
395.89,56.0
395.95,65.0
396.02,61.0
396.08,57.0
396.14,57.0
396.21,73.0
396.27,85.0
396.33,60.0
396.4,59.0
396.46,51.0
396.52,54.0
396.58,53.0
396.65,43.0
396.71,52.0
396.77,67.0
396.84,53.0
396.9,38.0
396.96,50.0
397.03,46.0
397.09,44.0
397.15,34.0
397.21,49.0
397.28,32.0
397.34,35.0
397.4,32.0
397.47,49.0
397.53,54.0
397.59,47.0
397.66,38.0
397.72,61.0
397.78,67.0
397.84,33.0
397.91,59.0
397.97,48.0
398.03,41.0
398.1,48.0
398.16,52.0
398.22,59.0
398.29,62.0
398.35,39.0
398.41,57.0
398.47,70.0
398.54,54.0
398.6,43.0
398.66,63.0
398.73,63.0
398.79,79.0
398.85,76.0
398.92,54.0
398.98,55.0
399.04,56.0
399.1,43.0
399.17,50.0
399.23,51.0
399.29,54.0
399.36,48.0
399.42,47.0
399.48,41.0
399.55,45.0
399.61,58.0
399.67,59.0
399.73,67.0
399.8,63.0
399.86,68.0
399.92,63.0
399.99,67.0
400.05,68.0
400.11,77.0
400.18,76.0
400.24,65.0
400.3,66.0
400.36,60.0
400.43,59.0
400.49,46.0
400.55,38.0
400.62,58.0
400.68,56.0
400.74,79.0
400.81,72.0
400.87,58.0
400.93,57.0
400.99,45.0
401.06,47.0
401.12,37.0
401.18,48.0
401.25,69.0
401.31,73.0
401.37,60.0
401.44,55.0
401.5,39.0
401.56,39.0
401.62,39.0
401.69,25.0
401.75,13.0
401.81,23.0
401.88,23.0
401.94,37.0
402.0,29.0
402.07,24.0
402.13,17.0
402.19,17.0
402.25,22.0
402.32,2.0
402.38,15.0
402.44,15.0
402.51,39.0
402.57,51.0
402.63,46.0
402.7,56.0
402.76,38.0
402.82,34.0
402.88,56.0
402.95,52.0
403.01,52.0
403.07,48.0
403.14,53.0
403.2,51.0
403.26,44.0
403.33,43.0
403.39,70.0
403.45,61.0
403.51,37.0
403.58,50.0
403.64,39.0
403.7,62.0
403.77,60.0
403.83,66.0
403.89,64.0
403.96,68.0
404.02,66.0
404.08,65.0
404.14,83.0
404.21,83.0
404.27,88.0
404.33,104.0
404.4,104.0
404.46,78.0
404.52,77.0
404.59,79.0
404.65,92.0
404.71,84.0
404.77,84.0
404.84,103.0
404.9,86.0
404.96,100.0
405.03,76.0
405.09,91.0
405.15,83.0
405.22,100.0
405.28,66.0
405.34,63.0
405.4,82.0
405.47,71.0
405.53,94.0
405.59,93.0
405.66,82.0
405.72,77.0
405.78,94.0
405.85,114.0
405.91,88.0
405.97,85.0
406.03,86.0
406.1,88.0
406.16,97.0
406.22,73.0
406.29,78.0
406.35,104.0
406.41,96.0
406.48,94.0
406.54,97.0
406.6,92.0
406.66,92.0
406.73,112.0
406.79,103.0
406.85,122.0
406.92,123.0
406.98,132.0
407.04,117.0
407.11,94.0
407.17,94.0
407.23,109.0
407.29,83.0
407.36,91.0
407.42,90.0
407.48,81.0
407.55,72.0
407.61,71.0
407.67,86.0
407.74,81.0
407.8,86.0
407.86,83.0
407.92,91.0
407.99,98.0
408.05,89.0
408.11,98.0
408.18,88.0
408.24,85.0
408.3,85.0
408.37,90.0
408.43,72.0
408.49,85.0
408.55,96.0
408.62,81.0
408.68,85.0
408.74,91.0
408.81,88.0
408.87,91.0
408.93,87.0
409.0,88.0
409.06,98.0
409.12,97.0
409.18,115.0
409.25,127.0
409.31,98.0
409.37,93.0
409.44,123.0
409.5,111.0
409.56,121.0
409.63,106.0
409.69,119.0
409.75,95.0
409.81,106.0
409.88,107.0
409.94,107.0
410.0,117.0
410.07,128.0
410.13,119.0
410.19,122.0
410.26,104.0
410.32,111.0
410.38,103.0
410.44,97.0
410.51,93.0
410.57,89.0
410.63,103.0
410.7,102.0
410.76,93.0
410.82,82.0
410.89,90.0
410.95,93.0
411.01,91.0
411.07,86.0
411.14,86.0
411.2,74.0
411.26,59.0
411.33,52.0
411.39,54.0
411.45,48.0
411.52,44.0
411.58,72.0
411.64,64.0
411.7,56.0
411.77,65.0
411.83,66.0
411.89,72.0
411.96,56.0
412.02,66.0
412.08,52.0
412.15,51.0
412.21,42.0
412.27,35.0
412.33,38.0
412.4,27.0
412.46,26.0
412.52,37.0
412.59,25.0
412.65,32.0
412.71,40.0
412.78,46.0
412.84,46.0
412.9,46.0
412.96,35.0
413.03,30.0
413.09,26.0
413.15,35.0
413.22,44.0
413.28,50.0
413.34,43.0
413.41,59.0
413.47,67.0
413.53,59.0
413.59,55.0
413.66,40.0
413.72,41.0
413.78,43.0
413.85,56.0
413.91,32.0
413.97,52.0
414.04,73.0
414.1,51.0
414.16,58.0
414.22,70.0
414.29,63.0
414.35,89.0
414.41,97.0
414.48,76.0
414.54,81.0
414.6,86.0
414.67,91.0
414.73,95.0
414.79,103.0
414.85,93.0
414.92,87.0
414.98,75.0
415.04,50.0
415.11,74.0
415.17,70.0
415.23,77.0
415.3,82.0
415.36,76.0
415.42,67.0
415.48,63.0
415.55,88.0
415.61,85.0
415.67,55.0
415.74,67.0
415.8,65.0
415.86,59.0
415.93,60.0
415.99,67.0
416.05,67.0
416.11,36.0
416.18,43.0
416.24,48.0
416.3,37.0
416.37,40.0
416.43,34.0
416.49,32.0
416.56,48.0
416.62,41.0
416.68,69.0
416.74,56.0
416.81,48.0
416.87,49.0
416.93,53.0
417.0,52.0
417.06,63.0
417.12,70.0
417.19,55.0
417.25,67.0
417.31,48.0
417.37,24.0
417.44,40.0
417.5,58.0
417.56,46.0
417.63,37.0
417.69,41.0
417.75,52.0
417.82,50.0
417.88,38.0
417.94,24.0
418.0,23.0
418.07,30.0
418.13,29.0
418.19,21.0
418.26,25.0
418.32,35.0
418.38,43.0
418.45,40.0
418.51,53.0
418.57,41.0
418.63,67.0
418.7,48.0
418.76,48.0
418.82,41.0
418.89,27.0
418.95,-1.0
419.01,33.0
419.08,31.0
419.14,15.0
419.2,30.0
419.26,32.0
419.33,16.0
419.39,42.0
419.45,32.0
419.52,33.0
419.58,44.0
419.64,35.0
419.71,29.0
419.77,25.0
419.83,25.0
419.89,46.0
419.96,47.0
420.02,32.0
420.08,22.0
420.15,40.0
420.21,45.0
420.27,15.0
420.34,35.0
420.4,56.0
420.46,33.0
420.52,39.0
420.59,66.0
420.65,71.0
420.71,60.0
420.78,59.0
420.84,60.0
420.9,35.0
420.97,51.0
421.03,79.0
421.09,68.0
421.15,53.0
421.22,38.0
421.28,55.0
421.34,49.0
421.41,59.0
421.47,55.0
421.53,46.0
421.6,57.0
421.66,31.0
421.72,34.0
421.78,40.0
421.85,29.0
421.91,55.0
421.97,53.0
422.04,38.0
422.1,33.0
422.16,9.0
422.23,24.0
422.29,32.0
422.35,29.0
422.41,33.0
422.48,20.0
422.54,22.0
422.6,48.0
422.67,29.0
422.73,37.0
422.79,38.0
422.86,51.0
422.92,52.0
422.98,42.0
423.04,40.0
423.11,36.0
423.17,63.0
423.23,57.0
423.3,55.0
423.36,78.0
423.42,88.0
423.49,81.0
423.55,65.0
423.61,75.0
423.67,62.0
423.74,65.0
423.8,72.0
423.86,76.0
423.93,82.0
423.99,110.0
424.05,101.0
424.12,99.0
424.18,97.0
424.24,108.0
424.3,94.0
424.37,92.0
424.43,105.0
424.49,103.0
424.56,96.0
424.62,88.0
424.68,101.0
424.75,95.0
424.81,90.0
424.87,101.0
424.93,92.0
425.0,102.0
425.06,94.0
425.12,94.0
425.19,126.0
425.25,125.0
425.31,110.0
425.38,107.0
425.44,121.0
425.5,127.0
425.56,114.0
425.63,131.0
425.69,161.0
425.75,131.0
425.82,101.0
425.88,104.0
425.94,107.0
426.01,122.0
426.07,115.0
426.13,95.0
426.19,109.0
426.26,108.0
426.32,128.0
426.38,121.0
426.45,93.0
426.51,99.0
426.57,112.0
426.64,107.0
426.7,109.0
426.76,110.0
426.82,99.0
426.89,85.0
426.95,87.0
427.01,104.0
427.08,105.0
427.14,94.0
427.2,101.0
427.27,114.0
427.33,118.0
427.39,123.0
427.45,77.0
427.52,83.0
427.58,111.0
427.64,107.0
427.71,85.0
427.77,91.0
427.83,77.0
427.9,93.0
427.96,105.0
428.02,88.0
428.08,79.0
428.15,62.0
428.21,60.0
428.27,57.0
428.34,53.0
428.4,62.0
428.46,70.0
428.53,56.0
428.59,51.0
428.65,86.0
428.71,65.0
428.78,80.0
428.84,84.0
428.9,90.0
428.97,88.0
429.03,79.0
429.09,100.0
429.16,104.0
429.22,93.0
429.28,92.0
429.34,104.0
429.41,83.0
429.47,82.0
429.53,84.0
429.6,73.0
429.66,79.0
429.72,97.0
429.79,93.0
429.85,76.0
429.91,85.0
429.97,113.0
430.04,101.0
430.1,78.0
430.16,86.0
430.23,73.0
430.29,90.0
430.35,80.0
430.42,78.0
430.48,102.0
430.54,122.0
430.6,86.0
430.67,101.0
430.73,128.0
430.79,107.0
430.86,101.0
430.92,88.0
430.98,93.0
431.05,111.0
431.11,101.0
431.17,113.0
431.23,119.0
431.3,96.0
431.36,115.0
431.42,103.0
431.49,106.0
431.55,113.0
431.61,99.0
431.68,110.0
431.74,112.0
431.8,139.0
431.86,150.0
431.93,153.0
431.99,144.0
432.05,159.0
432.12,153.0
432.18,143.0
432.24,137.0
432.31,156.0
432.37,125.0
432.43,141.0
432.49,159.0
432.56,150.0
432.62,154.0
432.68,157.0
432.75,150.0
432.81,158.0
432.87,153.0
432.94,154.0
433.0,142.0
433.06,123.0
433.12,134.0
433.19,138.0
433.25,137.0
433.31,120.0
433.38,139.0
433.44,113.0
433.5,124.0
433.57,118.0
433.63,122.0
433.69,118.0
433.75,110.0
433.82,118.0
433.88,124.0
433.94,128.0
434.01,109.0
434.07,97.0
434.13,103.0
434.2,79.0
434.26,70.0
434.32,72.0
434.38,77.0
434.45,84.0
434.51,78.0
434.57,90.0
434.64,103.0
434.7,88.0
434.76,91.0
434.83,76.0
434.89,76.0
434.95,84.0
435.01,90.0
435.08,103.0
435.14,89.0
435.2,87.0
435.27,114.0
435.33,87.0
435.39,99.0
435.46,104.0
435.52,80.0
435.58,85.0
435.64,82.0
435.71,92.0
435.77,85.0
435.83,75.0
435.9,73.0
435.96,80.0
436.02,69.0
436.09,68.0
436.15,73.0
436.21,70.0
436.27,77.0
436.34,76.0
436.4,91.0
436.46,73.0
436.53,86.0
436.59,76.0
436.65,62.0
436.72,93.0
436.78,95.0
436.84,99.0
436.9,93.0
436.97,75.0
437.03,86.0
437.09,91.0
437.16,93.0
437.22,113.0
437.28,88.0
437.35,94.0
437.41,103.0
437.47,71.0
437.53,81.0
437.6,51.0
437.66,65.0
437.72,87.0
437.79,83.0
437.85,64.0
437.91,58.0
437.98,75.0
438.04,63.0
438.1,52.0
438.16,66.0
438.23,55.0
438.29,57.0
438.35,75.0
438.42,56.0
438.48,46.0
438.54,55.0
438.61,75.0
438.67,59.0
438.73,72.0
438.79,67.0
438.86,65.0
438.92,69.0
438.98,60.0
439.05,64.0
439.11,71.0
439.17,69.0
439.24,83.0
439.3,59.0
439.36,80.0
439.42,51.0
439.49,65.0
439.55,87.0
439.61,70.0
439.68,56.0
439.74,62.0
439.8,82.0
439.87,70.0
439.93,87.0
439.99,82.0
440.05,99.0
440.12,106.0
440.18,106.0
440.24,84.0
440.31,105.0
440.37,78.0
440.43,73.0
440.5,85.0
440.56,83.0
440.62,106.0
440.68,102.0
440.75,95.0
440.81,91.0
440.87,96.0
440.94,109.0
441.0,97.0
441.06,78.0
441.13,57.0
441.19,67.0
441.25,48.0
441.31,32.0
441.38,58.0
441.44,61.0
441.5,53.0
441.57,37.0
441.63,47.0
441.69,70.0
441.76,68.0
441.82,55.0
441.88,38.0
441.94,44.0
442.01,47.0
442.07,48.0
442.13,60.0
442.2,65.0
442.26,55.0
442.32,64.0
442.39,73.0
442.45,68.0
442.51,64.0
442.57,59.0
442.64,63.0
442.7,69.0
442.76,62.0
442.83,80.0
442.89,89.0
442.95,77.0
443.02,66.0
443.08,80.0
443.14,88.0
443.2,80.0
443.27,82.0
443.33,77.0
443.39,78.0
443.46,78.0
443.52,87.0
443.58,88.0
443.65,70.0
443.71,80.0
443.77,66.0
443.83,93.0
443.9,102.0
443.96,68.0
444.02,63.0
444.09,80.0
444.15,67.0
444.21,68.0
444.28,57.0
444.34,45.0
444.4,36.0
444.46,39.0
444.53,44.0
444.59,49.0
444.65,49.0
444.72,62.0
444.78,36.0
444.84,38.0
444.91,44.0
444.97,28.0
445.03,33.0
445.09,40.0
445.16,48.0
445.22,29.0
445.28,41.0
445.35,52.0
445.41,41.0
445.47,42.0
445.54,59.0
445.6,54.0
445.66,70.0
445.72,60.0
445.79,46.0
445.85,52.0
445.91,46.0
445.98,50.0
446.04,40.0
446.1,51.0
446.17,71.0
446.23,46.0
446.29,50.0
446.35,48.0
446.42,58.0
446.48,53.0
446.54,43.0
446.61,38.0
446.67,29.0
446.73,38.0
446.8,51.0
446.86,62.0
446.92,46.0
446.98,43.0
447.05,60.0
447.11,44.0
447.17,65.0
447.24,51.0
447.3,30.0
447.36,42.0
447.43,52.0
447.49,44.0
447.55,59.0
447.61,43.0
447.68,42.0
447.74,58.0
447.8,62.0
447.87,66.0
447.93,69.0
447.99,47.0
448.06,62.0
448.12,59.0
448.18,58.0
448.24,55.0
448.31,62.0
448.37,52.0
448.43,65.0
448.5,59.0
448.56,52.0
448.62,62.0
448.69,53.0
448.75,52.0
448.81,26.0
448.87,54.0
448.94,55.0
449.0,57.0
449.06,77.0
449.13,76.0
449.19,85.0
449.25,77.0
449.32,52.0
449.38,40.0
449.44,53.0
449.5,61.0
449.57,52.0
449.63,45.0
449.69,53.0
449.76,51.0
449.82,76.0
449.88,77.0
449.95,54.0
450.01,77.0
450.07,76.0
450.13,65.0
450.2,80.0
450.26,95.0
450.32,95.0
450.39,88.0
450.45,80.0
450.51,80.0
450.58,71.0
450.64,83.0
450.7,79.0
450.76,80.0
450.83,76.0
450.89,71.0
450.95,74.0
451.02,65.0
451.08,75.0
451.14,76.0
451.21,74.0
451.27,57.0
451.33,61.0
451.39,36.0
451.46,47.0
451.52,57.0
451.58,36.0
451.65,44.0
451.71,39.0
451.77,28.0
451.84,52.0
451.9,52.0
451.96,38.0
452.02,39.0
452.09,36.0
452.15,56.0
452.21,40.0
452.28,38.0
452.34,58.0
452.4,46.0
452.47,55.0
452.53,64.0
452.59,70.0
452.65,60.0
452.72,73.0
452.78,76.0
452.84,81.0
452.91,66.0
452.97,74.0
453.03,85.0
453.1,89.0
453.16,71.0
453.22,78.0
453.28,65.0
453.35,65.0
453.41,66.0
453.47,79.0
453.54,65.0
453.6,68.0
453.66,80.0
453.73,76.0
453.79,66.0
453.85,68.0
453.91,75.0
453.98,70.0
454.04,56.0
454.1,65.0
454.17,74.0
454.23,69.0
454.29,80.0
454.36,94.0
454.42,82.0
454.48,87.0
454.54,77.0
454.61,82.0
454.67,75.0
454.73,82.0
454.8,70.0
454.86,77.0
454.92,100.0
454.99,100.0
455.05,84.0
455.11,91.0
455.17,84.0
455.24,90.0
455.3,90.0
455.36,81.0
455.43,63.0
455.49,81.0
455.55,76.0
455.62,77.0
455.68,81.0
455.74,86.0
455.8,90.0
455.87,94.0
455.93,85.0
455.99,102.0
456.06,93.0
456.12,97.0
456.18,78.0
456.25,97.0
456.31,80.0
456.37,65.0
456.43,76.0
456.5,76.0
456.56,87.0
456.62,84.0
456.69,99.0
456.75,80.0
456.81,77.0
456.88,76.0
456.94,59.0
457.0,85.0
457.06,80.0
457.13,101.0
457.19,90.0
457.25,97.0
457.32,106.0
457.38,95.0
457.44,108.0
457.51,116.0
457.57,96.0
457.63,96.0
457.69,104.0
457.76,109.0
457.82,110.0
457.88,109.0
457.95,120.0
458.01,97.0
458.07,105.0
458.14,98.0
458.2,101.0
458.26,113.0
458.32,106.0
458.39,120.0
458.45,118.0
458.51,139.0
458.58,138.0
458.64,142.0
458.7,121.0
458.77,104.0
458.83,93.0
458.89,118.0
458.95,117.0
459.02,102.0
459.08,79.0
459.14,99.0
459.21,125.0
459.27,96.0
459.33,109.0
459.4,91.0
459.46,84.0
459.52,101.0
459.58,105.0
459.65,117.0
459.71,117.0
459.77,103.0
459.84,127.0
459.9,124.0
459.96,104.0
460.03,105.0
460.09,113.0
460.15,119.0
460.21,110.0
460.28,91.0
460.34,84.0
460.4,104.0
460.47,92.0
460.53,87.0
460.59,96.0
460.66,87.0
460.72,84.0
460.78,93.0
460.84,90.0
460.91,82.0
460.97,83.0
461.03,80.0
461.1,76.0
461.16,57.0
461.22,49.0
461.29,55.0
461.35,49.0
461.41,52.0
461.47,78.0
461.54,65.0
461.6,66.0
461.66,62.0
461.73,55.0
461.79,49.0
461.85,63.0
461.92,62.0
461.98,71.0
462.04,58.0
462.1,46.0
462.17,66.0
462.23,65.0
462.29,70.0
462.36,75.0
462.42,71.0
462.48,65.0
462.55,53.0
462.61,74.0
462.67,80.0
462.73,64.0
462.8,69.0
462.86,74.0
462.92,71.0
462.99,78.0
463.05,74.0
463.11,62.0
463.18,51.0
463.24,66.0
463.3,69.0
463.36,66.0
463.43,70.0
463.49,83.0
463.55,71.0
463.62,88.0
463.68,80.0
463.74,65.0
463.81,59.0
463.87,46.0
463.93,43.0
463.99,37.0
464.06,56.0
464.12,63.0
464.18,40.0
464.25,46.0
464.31,42.0
464.37,29.0
464.44,34.0
464.5,35.0
464.56,29.0
464.62,26.0
464.69,19.0
464.75,28.0
464.81,14.0
464.88,11.0
464.94,25.0
465.0,37.0
465.07,31.0
465.13,40.0
465.19,59.0
465.25,33.0
465.32,41.0
465.38,49.0
465.44,68.0
465.51,64.0
465.57,58.0
465.63,56.0
465.7,73.0
465.76,52.0
465.82,67.0
465.88,78.0
465.95,72.0
466.01,57.0
466.07,49.0
466.14,74.0
466.2,76.0
466.26,52.0
466.33,64.0
466.39,81.0
466.45,87.0
466.51,81.0
466.58,104.0
466.64,82.0
466.7,62.0
466.77,68.0
466.83,84.0
466.89,78.0
466.96,83.0
467.02,62.0
467.08,53.0
467.14,63.0
467.21,59.0
467.27,68.0
467.33,77.0
467.4,63.0
467.46,66.0
467.52,59.0
467.59,51.0
467.65,43.0
467.71,64.0
467.77,57.0
467.84,72.0
467.9,49.0
467.96,46.0
468.03,44.0
468.09,49.0
468.15,44.0
468.22,44.0
468.28,37.0
468.34,53.0
468.4,39.0
468.47,39.0
468.53,36.0
468.59,42.0
468.66,44.0
468.72,26.0
468.78,38.0
468.85,25.0
468.91,37.0
468.97,37.0
469.03,51.0
469.1,58.0
469.16,62.0
469.22,51.0
469.29,24.0
469.35,30.0
469.41,27.0
469.48,25.0
469.54,33.0
469.6,47.0
469.66,48.0
469.73,47.0
469.79,49.0
469.85,37.0
469.92,52.0
469.98,48.0
470.04,65.0
470.11,67.0
470.17,69.0
470.23,64.0
470.29,52.0
470.36,57.0
470.42,70.0
470.48,74.0
470.55,82.0
470.61,69.0
470.67,51.0
470.74,49.0
470.8,68.0
470.86,73.0
470.92,74.0
470.99,69.0
471.05,77.0
471.11,69.0
471.18,71.0
471.24,95.0
471.3,102.0
471.37,111.0
471.43,96.0
471.49,98.0
471.55,93.0
471.62,99.0
471.68,112.0
471.74,115.0
471.81,115.0
471.87,101.0
471.93,84.0
472.0,89.0
472.06,88.0
472.12,93.0
472.18,90.0
472.25,75.0
472.31,69.0
472.37,77.0
472.44,65.0
472.5,54.0
472.56,52.0
472.63,58.0
472.69,50.0
472.75,52.0
472.81,55.0
472.88,68.0
472.94,78.0
473.0,84.0
473.07,90.0
473.13,79.0
473.19,94.0
473.26,96.0
473.32,69.0
473.38,73.0
473.44,73.0
473.51,77.0
473.57,76.0
473.63,64.0
473.7,60.0
473.76,55.0
473.82,77.0
473.89,98.0
473.95,88.0
474.01,71.0
474.07,98.0
474.14,90.0
474.2,75.0
474.26,79.0
474.33,67.0
474.39,72.0
474.45,67.0
474.52,73.0
474.58,89.0
474.64,62.0
474.7,64.0
474.77,73.0
474.83,65.0
474.89,73.0
474.96,68.0
475.02,71.0
475.08,90.0
475.15,71.0
475.21,79.0
475.27,92.0
475.33,109.0
475.4,73.0
475.46,72.0
475.52,84.0
475.59,83.0
475.65,103.0
475.71,98.0
475.78,89.0
475.84,89.0
475.9,104.0
475.96,89.0
476.03,86.0
476.09,72.0
476.15,70.0
476.22,90.0
476.28,87.0
476.34,90.0
476.41,84.0
476.47,60.0
476.53,80.0
476.59,78.0
476.66,77.0
476.72,73.0
476.78,97.0
476.85,90.0
476.91,98.0
476.97,95.0
477.04,80.0
477.1,77.0
477.16,70.0
477.22,71.0
477.29,95.0
477.35,65.0
477.41,84.0
477.48,100.0
477.54,80.0
477.6,108.0
477.67,84.0
477.73,86.0
477.79,72.0
477.85,73.0
477.92,63.0
477.98,67.0
478.04,59.0
478.11,71.0
478.17,59.0
478.23,73.0
478.3,74.0
478.36,51.0
478.42,52.0
478.48,44.0
478.55,52.0
478.61,29.0
478.67,26.0
478.74,25.0
478.8,14.0
478.86,20.0
478.93,33.0
478.99,25.0
479.05,39.0
479.11,49.0
479.18,51.0
479.24,58.0
479.3,36.0
479.37,32.0
479.43,43.0
479.49,47.0
479.56,64.0
479.62,33.0
479.68,38.0
479.74,35.0
479.81,44.0
479.87,46.0
479.93,55.0
480.0,80.0
480.06,97.0
480.12,81.0
480.19,68.0
480.25,66.0
480.31,74.0
480.37,86.0
480.44,84.0
480.5,68.0
480.56,90.0
480.63,101.0
480.69,90.0
480.75,114.0
480.82,103.0
480.88,77.0
480.94,91.0
481.0,102.0
481.07,98.0
481.13,95.0
481.19,101.0
481.26,107.0
481.32,92.0
481.38,90.0
481.45,87.0
481.51,96.0
481.57,84.0
481.63,91.0
481.7,95.0
481.76,113.0
481.82,114.0
481.89,125.0
481.95,136.0
482.01,131.0
482.08,109.0
482.14,107.0
482.2,91.0
482.26,118.0
482.33,125.0
482.39,118.0
482.45,139.0
482.52,112.0
482.58,107.0
482.64,117.0
482.71,103.0
482.77,125.0
482.83,108.0
482.89,116.0
482.96,106.0
483.02,131.0
483.08,104.0
483.15,101.0
483.21,113.0
483.27,115.0
483.34,121.0
483.4,106.0
483.46,106.0
483.52,106.0
483.59,107.0
483.65,84.0
483.71,93.0
483.78,91.0
483.84,102.0
483.9,106.0
483.97,121.0
484.03,125.0
484.09,111.0
484.15,112.0
484.22,98.0
484.28,94.0
484.34,106.0
484.41,104.0
484.47,92.0
484.53,84.0
484.6,119.0
484.66,132.0
484.72,103.0
484.78,103.0
484.85,90.0
484.91,95.0
484.97,113.0
485.04,113.0
485.1,110.0
485.16,101.0
485.23,87.0
485.29,84.0
485.35,81.0
485.41,84.0
485.48,84.0
485.54,100.0
485.6,90.0
485.67,71.0
485.73,74.0
485.79,75.0
485.86,77.0
485.92,75.0
485.98,80.0
486.04,75.0
486.11,89.0
486.17,90.0
486.23,93.0
486.3,87.0
486.36,96.0
486.42,96.0
486.49,101.0
486.55,95.0
486.61,95.0
486.67,93.0
486.74,82.0
486.8,107.0
486.86,96.0
486.93,114.0
486.99,100.0
487.05,103.0
487.12,92.0
487.18,88.0
487.24,92.0
487.3,76.0
487.37,75.0
487.43,102.0
487.49,109.0
487.56,106.0
487.62,112.0
487.68,99.0
487.75,109.0
487.81,95.0
487.87,101.0
487.93,85.0
488.0,84.0
488.06,99.0
488.12,103.0
488.19,77.0
488.25,82.0
488.31,93.0
488.38,84.0
488.44,91.0
488.5,106.0
488.56,111.0
488.63,98.0
488.69,97.0
488.75,94.0
488.82,92.0
488.88,99.0
488.94,103.0
489.01,111.0
489.07,114.0
489.13,104.0
489.19,99.0
489.26,106.0
489.32,90.0
489.38,92.0
489.45,93.0
489.51,70.0
489.57,77.0
489.64,60.0
489.7,77.0
489.76,93.0
489.82,86.0
489.89,77.0
489.95,93.0
490.01,95.0
490.08,100.0
490.14,82.0
490.2,77.0
490.27,87.0
490.33,72.0
490.39,92.0
490.45,90.0
490.52,75.0
490.58,84.0
490.64,92.0
490.71,112.0
490.77,102.0
490.83,106.0
490.9,101.0
490.96,121.0
491.02,130.0
491.08,128.0
491.15,105.0
491.21,114.0
491.27,124.0
491.34,106.0
491.4,117.0
491.46,104.0
491.53,107.0
491.59,86.0
491.65,98.0
491.71,114.0
491.78,117.0
491.84,99.0
491.9,108.0
491.97,89.0
492.03,84.0
492.09,96.0
492.16,96.0
492.22,103.0
492.28,118.0
492.34,126.0
492.41,123.0
492.47,139.0
492.53,132.0
492.6,127.0
492.66,147.0
492.72,154.0
492.79,134.0
492.85,140.0
492.91,148.0
492.97,128.0
493.04,143.0
493.1,131.0
493.16,126.0
493.23,117.0
493.29,119.0
493.35,118.0
493.42,114.0
493.48,117.0
493.54,113.0
493.6,94.0
493.67,95.0
493.73,95.0
493.79,87.0
493.86,106.0
493.92,90.0
493.98,82.0
494.05,88.0
494.11,87.0
494.17,75.0
494.23,84.0
494.3,73.0
494.36,54.0
494.42,54.0
494.49,47.0
494.55,61.0
494.61,65.0
494.68,67.0
494.74,80.0
494.8,68.0
494.86,71.0
494.93,92.0
494.99,80.0
495.05,84.0
495.12,89.0
495.18,65.0
495.24,70.0
495.31,102.0
495.37,84.0
495.43,52.0
495.49,52.0
495.56,70.0
495.62,67.0
495.68,48.0
495.75,52.0
495.81,68.0
495.87,55.0
495.94,57.0
496.0,62.0
496.06,49.0
496.12,40.0
496.19,59.0
496.25,62.0
496.31,51.0
496.38,58.0
496.44,80.0
496.5,90.0
496.57,79.0
496.63,89.0
496.69,82.0
496.75,84.0
496.82,84.0
496.88,85.0
496.94,110.0
497.01,101.0
497.07,99.0
497.13,88.0
497.2,72.0
497.26,99.0
497.32,81.0
497.38,71.0
497.45,79.0
497.51,73.0
497.57,77.0
497.64,54.0
497.7,73.0
497.76,48.0
497.83,54.0
497.89,65.0
497.95,62.0
498.01,51.0
498.08,62.0
498.14,59.0
498.2,59.0
498.27,50.0
498.33,59.0
498.39,71.0
498.46,48.0
498.52,58.0
498.58,65.0
498.64,63.0
498.71,86.0
498.77,72.0
498.83,72.0
498.9,74.0
498.96,78.0
499.02,71.0
499.09,72.0
499.15,49.0
499.21,74.0
499.27,75.0
499.34,66.0
499.4,70.0
499.46,55.0
499.53,73.0
499.59,56.0
499.65,53.0
499.72,55.0
499.78,51.0
499.84,71.0
499.9,64.0
499.97,65.0
500.03,65.0
500.09,62.0
500.16,67.0
500.22,72.0
500.28,69.0
500.35,47.0
500.41,29.0
500.47,25.0
500.53,30.0
500.6,47.0
500.66,58.0
500.72,47.0
500.79,46.0
500.85,53.0
500.91,60.0
500.98,51.0
501.04,62.0
501.1,42.0
501.16,31.0
501.23,27.0
501.29,51.0
501.35,54.0
501.42,53.0
501.48,44.0
501.54,40.0
501.61,40.0
501.67,52.0
501.73,48.0
501.79,28.0
501.86,39.0
501.92,43.0
501.98,46.0
502.05,40.0
502.11,41.0
502.17,25.0
502.24,18.0
502.3,21.0
502.36,46.0
502.42,38.0
502.49,22.0
502.55,21.0
502.61,14.0
502.68,25.0
502.74,46.0
502.8,19.0
502.87,15.0
502.93,41.0
502.99,42.0
503.05,30.0
503.12,19.0
503.18,39.0
503.24,47.0
503.31,33.0
503.37,18.0
503.43,45.0
503.5,62.0
503.56,52.0
503.62,52.0
503.68,63.0
503.75,78.0
503.81,50.0
503.87,46.0
503.94,30.0
504.0,59.0
504.06,55.0
504.13,57.0
504.19,64.0
504.25,55.0
504.31,52.0
504.38,28.0
504.44,52.0
504.5,52.0
504.57,50.0
504.63,61.0
504.69,58.0
504.76,55.0
504.82,67.0
504.88,86.0
504.94,62.0
505.01,75.0
505.07,60.0
505.13,69.0
505.2,83.0
505.26,51.0
505.32,44.0
505.39,61.0
505.45,54.0
505.51,49.0
505.57,51.0
505.64,51.0
505.7,44.0
505.76,52.0
505.83,58.0
505.89,50.0
505.95,48.0
506.02,60.0
506.08,61.0
506.14,49.0
506.2,52.0
506.27,70.0
506.33,71.0
506.39,61.0
506.46,63.0
506.52,76.0
506.58,52.0
506.65,57.0
506.71,69.0
506.77,73.0
506.83,58.0
506.9,70.0
506.96,71.0
507.02,65.0
507.09,86.0
507.15,77.0
507.21,77.0
507.28,92.0
507.34,65.0
507.4,78.0
507.46,88.0
507.53,88.0
507.59,77.0
507.65,88.0
507.72,76.0
507.78,85.0
507.84,88.0
507.91,68.0
507.97,98.0
508.03,99.0
508.09,101.0
508.16,67.0
508.22,83.0
508.28,80.0
508.35,88.0
508.41,98.0
508.47,65.0
508.54,75.0
508.6,62.0
508.66,60.0
508.72,59.0
508.79,64.0
508.85,73.0
508.91,50.0
508.98,43.0
509.04,40.0
509.1,31.0
509.17,22.0
509.23,32.0
509.29,47.0
509.35,26.0
509.42,35.0
509.48,32.0
509.54,49.0
509.61,56.0
509.67,51.0
509.73,53.0
509.8,65.0
509.86,53.0
509.92,63.0
509.98,58.0
510.05,38.0
510.11,57.0
510.17,66.0
510.24,68.0
510.3,43.0
510.36,50.0
510.43,68.0
510.49,70.0
510.55,56.0
510.61,65.0
510.68,81.0
510.74,87.0
510.8,66.0
510.87,73.0
510.93,77.0
510.99,73.0
511.06,60.0
511.12,55.0
511.18,55.0
511.24,69.0
511.31,52.0
511.37,48.0
511.43,62.0
511.5,55.0
511.56,60.0
511.62,49.0
511.69,38.0
511.75,40.0
511.81,45.0
511.87,21.0
511.94,35.0
512.0,30.0
512.06,33.0
512.13,57.0
512.19,47.0
512.25,38.0
512.32,38.0
512.38,37.0
512.44,36.0
512.5,44.0
512.57,48.0
512.63,44.0
512.69,33.0
512.76,38.0
512.82,47.0
512.88,34.0
512.95,47.0
513.01,55.0
513.07,51.0
513.13,55.0
513.2,47.0
513.26,45.0
513.32,57.0
513.39,42.0
513.45,47.0
513.51,49.0
513.58,44.0
513.64,52.0
513.7,57.0
513.76,70.0
513.83,63.0
513.89,71.0
513.95,72.0
514.02,57.0
514.08,59.0
514.14,62.0
514.21,79.0
514.27,92.0
514.33,84.0
514.39,78.0
514.46,95.0
514.52,110.0
514.58,88.0
514.65,93.0
514.71,98.0
514.77,91.0
514.84,109.0
514.9,103.0
514.96,113.0
515.02,99.0
515.09,95.0
515.15,97.0
515.21,106.0
515.28,117.0
515.34,120.0
515.4,109.0
515.47,94.0
515.53,99.0
515.59,79.0
515.65,73.0
515.72,89.0
515.78,89.0
515.84,100.0
515.91,97.0
515.97,94.0
516.03,96.0
516.1,76.0
516.16,106.0
516.22,89.0
516.28,85.0
516.35,54.0
516.41,51.0
516.47,60.0
516.54,67.0
516.6,60.0
516.66,72.0
516.73,68.0
516.79,70.0
516.85,72.0
516.91,60.0
516.98,70.0
517.04,55.0
517.1,60.0
517.17,47.0
517.23,49.0
517.29,57.0
517.36,73.0
517.42,70.0
517.48,76.0
517.54,64.0
517.61,63.0
517.67,60.0
517.73,60.0
517.8,52.0
517.86,51.0
517.92,63.0
517.99,63.0
518.05,70.0
518.11,70.0
518.17,86.0
518.24,84.0
518.3,82.0
518.36,92.0
518.43,89.0
518.49,81.0
518.55,84.0
518.62,81.0
518.68,57.0
518.74,59.0
518.8,81.0
518.87,80.0
518.93,68.0
518.99,62.0
519.06,47.0
519.12,54.0
519.18,55.0
519.25,49.0
519.31,63.0
519.37,57.0
519.43,56.0
519.5,49.0
519.56,54.0
519.62,44.0
519.69,47.0
519.75,55.0
519.81,43.0
519.88,51.0
519.94,44.0
520.0,47.0
520.06,49.0
520.13,51.0
520.19,53.0
520.25,46.0
520.32,40.0
520.38,46.0
520.44,56.0
520.51,58.0
520.57,50.0
520.63,78.0
520.69,76.0
520.76,92.0
520.82,95.0
520.88,88.0
520.95,85.0
521.01,79.0
521.07,92.0
521.14,74.0
521.2,74.0
521.26,89.0
521.32,106.0
521.39,100.0
521.45,112.0
521.51,116.0
521.58,106.0
521.64,119.0
521.7,106.0
521.77,106.0
521.83,111.0
521.89,98.0
521.95,92.0
522.02,82.0
522.08,103.0
522.14,90.0
522.21,90.0
522.27,110.0
522.33,91.0
522.4,91.0
522.46,100.0
522.52,95.0
522.58,78.0
522.65,90.0
522.71,61.0
522.77,74.0
522.84,99.0
522.9,98.0
522.96,82.0
523.03,90.0
523.09,93.0
523.15,77.0
523.21,87.0
523.28,89.0
523.34,67.0
523.4,77.0
523.47,70.0
523.53,79.0
523.59,93.0
523.66,77.0
523.72,73.0
523.78,73.0
523.84,81.0
523.91,46.0
523.97,36.0
524.03,40.0
524.1,32.0
524.16,45.0
524.22,52.0
524.29,51.0
524.35,50.0
524.41,61.0
524.47,52.0
524.54,36.0
524.6,33.0
524.66,51.0
524.73,55.0
524.79,59.0
524.85,58.0
524.92,39.0
524.98,65.0
525.04,54.0
525.1,49.0
525.17,51.0
525.23,52.0
525.29,52.0
525.36,42.0
525.42,47.0
525.48,67.0
525.55,54.0
525.61,52.0
525.67,57.0
525.73,54.0
525.8,46.0
525.86,54.0
525.92,64.0
525.99,51.0
526.05,58.0
526.11,66.0
526.18,66.0
526.24,71.0
526.3,55.0
526.36,56.0
526.43,84.0
526.49,92.0
526.55,64.0
526.62,63.0
526.68,63.0
526.74,81.0
526.81,45.0
526.87,60.0
526.93,58.0
526.99,76.0
527.06,60.0
527.12,65.0
527.18,53.0
527.25,59.0
527.31,68.0
527.37,50.0
527.44,49.0
527.5,38.0
527.56,39.0
527.62,35.0
527.69,51.0
527.75,43.0
527.81,45.0
527.88,62.0
527.94,53.0
528.0,40.0
528.07,61.0
528.13,44.0
528.19,18.0
528.25,27.0
528.32,20.0
528.38,40.0
528.44,24.0
528.51,35.0
528.57,37.0
528.63,46.0
528.7,62.0
528.76,53.0
528.82,47.0
528.88,67.0
528.95,74.0
529.01,64.0
529.07,77.0
529.14,101.0
529.2,73.0
529.26,84.0
529.33,91.0
529.39,95.0
529.45,95.0
529.51,99.0
529.58,95.0
529.64,84.0
529.7,112.0
529.77,115.0
529.83,102.0
529.89,99.0
529.96,96.0
530.02,102.0
530.08,98.0
530.14,77.0
530.21,79.0
530.27,85.0
530.33,92.0
530.4,93.0
530.46,98.0
530.52,99.0
530.59,107.0
530.65,106.0
530.71,96.0
530.77,86.0
530.84,68.0
530.9,80.0
530.96,82.0
531.03,76.0
531.09,76.0
531.15,53.0
531.22,73.0
531.28,76.0
531.34,68.0
531.4,80.0
531.47,81.0
531.53,77.0
531.59,70.0
531.66,66.0
531.72,76.0
531.78,64.0
531.85,65.0
531.91,63.0
531.97,74.0
532.03,66.0
532.1,76.0
532.16,64.0
532.22,60.0
532.29,71.0
532.35,74.0
532.41,87.0
532.48,84.0
532.54,91.0
532.6,96.0
532.66,103.0
532.73,98.0
532.79,105.0
532.85,95.0
532.92,91.0
532.98,108.0
533.04,108.0
533.11,119.0
533.17,111.0
533.23,130.0
533.29,129.0
533.36,111.0
533.42,126.0
533.48,126.0
533.55,120.0
533.61,124.0
533.67,134.0
533.74,129.0
533.8,135.0
533.86,128.0
533.92,119.0
533.99,126.0
534.05,118.0
534.11,99.0
534.18,119.0
534.24,112.0
534.3,112.0
534.37,98.0
534.43,92.0
534.49,100.0
534.55,93.0
534.62,107.0
534.68,97.0
534.74,99.0
534.81,80.0
534.87,71.0
534.93,74.0
535.0,62.0
535.06,66.0
535.12,77.0
535.18,81.0
535.25,73.0
535.31,67.0
535.37,87.0
535.44,55.0
535.5,66.0
535.56,79.0
535.63,74.0
535.69,85.0
535.75,74.0
535.81,95.0
535.88,84.0
535.94,81.0
536.0,80.0
536.07,77.0
536.13,81.0
536.19,100.0
536.26,115.0
536.32,100.0
536.38,113.0
536.44,112.0
536.51,126.0
536.57,107.0
536.63,115.0
536.7,114.0
536.76,109.0
536.82,107.0
536.89,96.0
536.95,101.0
537.01,89.0
537.07,92.0
537.14,111.0
537.2,102.0
537.26,90.0
537.33,83.0
537.39,75.0
537.45,109.0
537.52,96.0
537.58,88.0
537.64,98.0
537.7,104.0
537.77,88.0
537.83,86.0
537.89,75.0
537.96,88.0
538.02,99.0
538.08,102.0
538.15,111.0
538.21,83.0
538.27,77.0
538.33,75.0
538.4,71.0
538.46,84.0
538.52,64.0
538.59,67.0
538.65,65.0
538.71,69.0
538.78,65.0
538.84,88.0
538.9,95.0
538.96,81.0
539.03,81.0
539.09,79.0
539.15,89.0
539.22,74.0
539.28,73.0
539.34,63.0
539.41,64.0
539.47,58.0
539.53,81.0
539.59,99.0
539.66,93.0
539.72,77.0
539.78,74.0
539.85,71.0
539.91,71.0
539.97,97.0
540.04,88.0
540.1,93.0
540.16,99.0
540.22,87.0
540.29,87.0
540.35,95.0
540.41,117.0
540.48,112.0
540.54,92.0
540.6,106.0
540.67,108.0
540.73,101.0
540.79,104.0
540.85,107.0
540.92,77.0
540.98,74.0
541.04,76.0
541.11,99.0
541.17,111.0
541.23,109.0
541.3,104.0
541.36,109.0
541.42,91.0
541.48,95.0
541.55,99.0
541.61,110.0
541.67,106.0
541.74,92.0
541.8,101.0
541.86,95.0
541.93,111.0
541.99,104.0
542.05,96.0
542.11,96.0
542.18,83.0
542.24,99.0
542.3,92.0
542.37,88.0
542.43,77.0
542.49,92.0
542.56,98.0
542.62,113.0
542.68,88.0
542.74,88.0
542.81,78.0
542.87,96.0
542.93,94.0
543.0,71.0
543.06,77.0
543.12,78.0
543.19,97.0
543.25,92.0
543.31,76.0
543.37,86.0
543.44,88.0
543.5,95.0
543.56,87.0
543.63,106.0
543.69,116.0
543.75,100.0
543.82,107.0
543.88,124.0
543.94,95.0
544.0,107.0
544.07,119.0
544.13,117.0
544.19,125.0
544.26,102.0
544.32,100.0
544.38,106.0
544.45,124.0
544.51,104.0
544.57,85.0
544.63,69.0
544.7,71.0
544.76,77.0
544.82,70.0
544.89,93.0
544.95,96.0
545.01,77.0
545.08,106.0
545.14,103.0
545.2,101.0
545.26,123.0
545.33,114.0
545.39,87.0
545.45,95.0
545.52,77.0
545.58,74.0
545.64,60.0
545.71,73.0
545.77,80.0
545.83,85.0
545.89,73.0
545.96,63.0
546.02,74.0
546.08,78.0
546.15,69.0
546.21,44.0
546.27,70.0
546.34,76.0
546.4,67.0
546.46,64.0
546.52,89.0
546.59,63.0
546.65,64.0
546.71,64.0
546.78,71.0
546.84,74.0
546.9,66.0
546.97,62.0
547.03,55.0
547.09,57.0
547.15,55.0
547.22,59.0
547.28,63.0
547.34,60.0
547.41,62.0
547.47,51.0
547.53,38.0
547.6,56.0
547.66,55.0
547.72,50.0
547.78,66.0
547.85,34.0
547.91,32.0
547.97,49.0
548.04,73.0
548.1,57.0
548.16,48.0
548.23,48.0
548.29,73.0
548.35,64.0
548.41,55.0
548.48,46.0
548.54,48.0
548.6,53.0
548.67,43.0
548.73,35.0
548.79,32.0
548.86,51.0
548.92,42.0
548.98,50.0
549.04,52.0
549.11,76.0
549.17,83.0
549.23,66.0
549.3,54.0
549.36,38.0
549.42,52.0
549.49,55.0
549.55,59.0
549.61,59.0
549.67,57.0
549.74,53.0
549.8,58.0
549.86,43.0
549.93,46.0
549.99,40.0
550.05,33.0
550.12,26.0
550.18,18.0
550.24,27.0
550.3,19.0
550.37,9.0
550.43,3.0
550.49,13.0
550.56,27.0
550.62,33.0
550.68,27.0
550.75,21.0
550.81,-1.0
550.87,-4.0
550.93,-2.0
551.0,3.0
551.06,18.0
551.12,23.0
551.19,25.0
551.25,34.0
551.31,29.0
551.38,27.0
551.44,28.0
551.5,31.0
551.56,41.0
551.63,56.0
551.69,50.0
551.75,60.0
551.82,46.0
551.88,49.0
551.94,45.0
552.01,46.0
552.07,46.0
552.13,27.0
552.19,54.0
552.26,60.0
552.32,53.0
552.38,52.0
552.45,47.0
552.51,45.0
552.57,37.0
552.64,63.0
552.7,46.0
552.76,38.0
552.82,52.0
552.89,44.0
552.95,33.0
553.01,38.0
553.08,42.0
553.14,47.0
553.2,53.0
553.27,50.0
553.33,42.0
553.39,27.0
553.45,49.0
553.52,38.0
553.58,28.0
553.64,27.0
553.71,30.0
553.77,34.0
553.83,43.0
553.9,53.0
553.96,68.0
554.02,70.0
554.08,61.0
554.15,71.0
554.21,71.0
554.27,95.0
554.34,74.0
554.4,79.0
554.46,93.0
554.53,88.0
554.59,92.0
554.65,86.0
554.71,97.0
554.78,106.0
554.84,120.0
554.9,105.0
554.97,101.0
555.03,116.0
555.09,97.0
555.16,120.0
555.22,105.0
555.28,122.0
555.34,118.0
555.41,120.0
555.47,119.0
555.53,137.0
555.6,136.0
555.66,121.0
555.72,112.0
555.79,103.0
555.85,113.0
555.91,116.0
555.97,109.0
556.04,118.0
556.1,115.0
556.16,116.0
556.23,124.0
556.29,120.0
556.35,99.0
556.42,89.0
556.48,102.0
556.54,97.0
556.6,111.0
556.67,105.0
556.73,72.0
556.79,74.0
556.86,53.0
556.92,52.0
556.98,68.0
557.05,78.0
557.11,69.0
557.17,77.0
557.23,93.0
557.3,97.0
557.36,100.0
557.42,100.0
557.49,114.0
557.55,101.0
557.61,103.0
557.68,93.0
557.74,108.0
557.8,102.0
557.86,108.0
557.93,126.0
557.99,99.0
558.05,83.0
558.12,86.0
558.18,92.0
558.24,84.0
558.31,83.0
558.37,97.0
558.43,83.0
558.49,86.0
558.56,83.0
558.62,98.0
558.68,93.0
558.75,104.0
558.81,104.0
558.87,93.0
558.94,105.0
559.0,99.0
559.06,93.0
559.12,94.0
559.19,86.0
559.25,83.0
559.31,85.0
559.38,64.0
559.44,54.0
559.5,64.0
559.57,59.0
559.63,65.0
559.69,69.0
559.75,85.0
559.82,76.0
559.88,64.0
559.94,85.0
560.01,84.0
560.07,81.0
560.13,82.0
560.2,86.0
560.26,72.0
560.32,75.0
560.38,75.0
560.45,64.0
560.51,88.0
560.57,80.0
560.64,77.0
560.7,86.0
560.76,77.0
560.83,71.0
560.89,89.0
560.95,66.0
561.01,79.0
561.08,78.0
561.14,95.0
561.2,106.0
561.27,93.0
561.33,88.0
561.39,87.0
561.46,92.0
561.52,90.0
561.58,90.0
561.64,94.0
561.71,79.0
561.77,80.0
561.83,82.0
561.9,53.0
561.96,71.0
562.02,60.0
562.09,44.0
562.15,30.0
562.21,52.0
562.27,40.0
562.34,46.0
562.4,55.0
562.46,64.0
562.53,63.0
562.59,49.0
562.65,78.0
562.72,51.0
562.78,49.0
562.84,41.0
562.9,44.0
562.97,69.0
563.03,53.0
563.09,41.0
563.16,61.0
563.22,89.0
563.28,85.0
563.35,72.0
563.41,70.0
563.47,73.0
563.53,67.0
563.6,78.0
563.66,99.0
563.72,86.0
563.79,91.0
563.85,89.0
563.91,88.0
563.98,78.0
564.04,87.0
564.1,69.0
564.16,73.0
564.23,63.0
564.29,64.0
564.35,86.0
564.42,60.0
564.48,77.0
564.54,93.0
564.61,67.0
564.67,65.0
564.73,56.0
564.79,64.0
564.86,80.0
564.92,82.0
564.98,82.0
565.05,68.0
565.11,66.0
565.17,66.0
565.24,79.0
565.3,88.0
565.36,76.0
565.42,74.0
565.49,55.0
565.55,89.0
565.61,95.0
565.68,107.0
565.74,93.0
565.8,82.0
565.87,106.0
565.93,92.0
565.99,107.0
566.05,101.0
566.12,69.0
566.18,66.0
566.24,83.0
566.31,75.0
566.37,71.0
566.43,72.0
566.5,82.0
566.56,96.0
566.62,85.0
566.68,73.0
566.75,73.0
566.81,60.0
566.87,42.0
566.94,48.0
567.0,49.0
567.06,55.0
567.13,47.0
567.19,87.0
567.25,75.0
567.31,82.0
567.38,93.0
567.44,99.0
567.5,88.0
567.57,90.0
567.63,97.0
567.69,81.0
567.76,71.0
567.82,82.0
567.88,85.0
567.94,88.0
568.01,107.0
568.07,99.0
568.13,95.0
568.2,107.0
568.26,87.0
568.32,92.0
568.39,83.0
568.45,102.0
568.51,81.0
568.57,84.0
568.64,93.0
568.7,77.0
568.76,96.0
568.83,82.0
568.89,66.0
568.95,63.0
569.02,75.0
569.08,52.0
569.14,56.0
569.2,65.0
569.27,66.0
569.33,56.0
569.39,55.0
569.46,46.0
569.52,71.0
569.58,60.0
569.65,58.0
569.71,61.0
569.77,71.0
569.83,86.0
569.9,58.0
569.96,74.0
570.02,78.0
570.09,75.0
570.15,57.0
570.21,72.0
570.28,70.0
570.34,66.0
570.4,93.0
570.46,85.0
570.53,73.0
570.59,89.0
570.65,120.0
570.72,92.0
570.78,102.0
570.84,110.0
570.91,113.0
570.97,97.0
571.03,101.0
571.09,116.0
571.16,93.0
571.22,101.0
571.28,115.0
571.35,108.0
571.41,93.0
571.47,93.0
571.54,111.0
571.6,118.0
571.66,112.0
571.72,107.0
571.79,104.0
571.85,117.0
571.91,80.0
571.98,87.0
572.04,92.0
572.1,113.0
572.17,110.0
572.23,107.0
572.29,116.0
572.35,112.0
572.42,116.0
572.48,85.0
572.54,87.0
572.61,89.0
572.67,94.0
572.73,99.0
572.8,99.0
572.86,92.0
572.92,81.0
572.98,78.0
573.05,92.0
573.11,97.0
573.17,101.0
573.24,84.0
573.3,113.0
573.36,118.0
573.43,124.0
573.49,110.0
573.55,102.0
573.61,93.0
573.68,111.0
573.74,99.0
573.8,98.0
573.87,66.0
573.93,63.0
573.99,86.0
574.06,89.0
574.12,92.0
574.18,93.0
574.24,76.0
574.31,93.0
574.37,97.0
574.43,106.0
574.5,110.0
574.56,112.0
574.62,98.0
574.69,103.0
574.75,99.0
574.81,105.0
574.87,108.0
574.94,112.0
575.0,116.0
575.06,119.0
575.13,108.0
575.19,102.0
575.25,94.0
575.32,102.0
575.38,100.0
575.44,108.0
575.5,104.0
575.57,95.0
575.63,85.0
575.69,90.0
575.76,65.0
575.82,58.0
575.88,58.0
575.95,74.0
576.01,82.0
576.07,55.0
576.13,74.0
576.2,75.0
576.26,65.0
576.32,83.0
576.39,69.0
576.45,70.0
576.51,69.0
576.58,61.0
576.64,62.0
576.7,74.0
576.76,68.0
576.83,68.0
576.89,67.0
576.95,59.0
577.02,75.0
577.08,68.0
577.14,66.0
577.21,53.0
577.27,60.0
577.33,71.0
577.39,67.0
577.46,54.0
577.52,48.0
577.58,52.0
577.65,44.0
577.71,53.0
577.77,41.0
577.84,30.0
577.9,35.0
577.96,61.0
578.02,36.0
578.09,35.0
578.15,31.0
578.21,23.0
578.28,47.0
578.34,43.0
578.4,30.0
578.47,25.0
578.53,35.0
578.59,43.0
578.65,33.0
578.72,36.0
578.78,40.0
578.84,41.0
578.91,49.0
578.97,36.0
579.03,45.0
579.1,36.0
579.16,39.0
579.22,25.0
579.28,13.0
579.35,35.0
579.41,6.0
579.47,12.0
579.54,39.0
579.6,41.0
579.66,47.0
579.73,27.0
579.79,6.0
579.85,21.0
579.91,20.0
579.98,42.0
580.04,41.0
580.1,55.0
580.17,27.0
580.23,24.0
580.29,46.0
580.36,40.0
580.42,27.0
580.48,18.0
580.54,32.0
580.61,39.0
580.67,23.0
580.73,50.0
580.8,41.0
580.86,36.0
580.92,35.0
580.99,20.0
581.05,44.0
581.11,45.0
581.17,26.0
581.24,26.0
581.3,51.0
581.36,42.0
581.43,54.0
581.49,60.0
581.55,37.0
581.62,44.0
581.68,68.0
581.74,51.0
581.8,52.0
581.87,53.0
581.93,54.0
581.99,49.0
582.06,27.0
582.12,53.0
582.18,56.0
582.25,60.0
582.31,55.0
582.37,43.0
582.43,71.0
582.5,52.0
582.56,72.0
582.62,71.0
582.69,73.0
582.75,87.0
582.81,80.0
582.88,60.0
582.94,57.0
583.0,70.0
583.06,66.0
583.13,50.0
583.19,36.0
583.25,34.0
583.32,36.0
583.38,54.0
583.44,54.0
583.51,40.0
583.57,58.0
583.63,34.0
583.69,33.0
583.76,21.0
583.82,51.0
583.88,45.0
583.95,15.0
584.01,11.0
584.07,13.0
584.14,30.0
584.2,40.0
584.26,49.0
584.32,37.0
584.39,39.0
584.45,36.0
584.51,45.0
584.58,56.0
584.64,56.0
584.7,60.0
584.77,64.0
584.83,56.0
584.89,64.0
584.95,53.0
585.02,49.0
585.08,78.0
585.14,60.0
585.21,57.0
585.27,66.0
585.33,58.0
585.4,55.0
585.46,61.0
585.52,61.0
585.58,71.0
585.65,66.0
585.71,71.0
585.77,93.0
585.84,60.0
585.9,62.0
585.96,85.0
586.03,72.0
586.09,83.0
586.15,87.0
586.21,71.0
586.28,52.0
586.34,58.0
586.4,78.0
586.47,93.0
586.53,78.0
586.59,61.0
586.66,83.0
586.72,90.0
586.78,74.0
586.84,85.0
586.91,82.0
586.97,65.0
587.03,69.0
587.1,73.0
587.16,75.0
587.22,83.0
587.29,67.0
587.35,81.0
587.41,85.0
587.47,73.0
587.54,76.0
587.6,89.0
587.66,77.0
587.73,75.0
587.79,70.0
587.85,74.0
587.92,91.0
587.98,86.0
588.04,91.0
588.1,81.0
588.17,102.0
588.23,100.0
588.29,89.0
588.36,84.0
588.42,100.0
588.48,112.0
588.55,102.0
588.61,122.0
588.67,116.0
588.73,119.0
588.8,122.0
588.86,126.0
588.92,122.0
588.99,123.0
589.05,116.0
589.11,130.0
589.18,127.0
589.24,119.0
589.3,126.0
589.36,129.0
589.43,112.0
589.49,119.0
589.55,127.0
589.62,116.0
589.68,130.0
589.74,131.0
589.81,138.0
589.87,137.0
589.93,129.0
589.99,113.0
590.06,112.0
590.12,128.0
590.18,126.0
590.25,114.0
590.31,113.0
590.37,112.0
590.44,90.0
590.5,97.0
590.56,96.0
590.62,107.0
590.69,112.0
590.75,132.0
590.81,142.0
590.88,134.0
590.94,128.0
591.0,121.0
591.07,137.0
591.13,125.0
591.19,127.0
591.25,131.0
591.32,132.0
591.38,141.0
591.44,131.0
591.51,126.0
591.57,133.0
591.63,137.0
591.7,135.0
591.76,125.0
591.82,140.0
591.88,126.0
591.95,116.0
592.01,125.0
592.07,141.0
592.14,137.0
592.2,143.0
592.26,146.0
592.33,126.0
592.39,155.0
592.45,145.0
592.51,156.0
592.58,162.0
592.64,146.0
592.7,119.0
592.77,137.0
592.83,135.0
592.89,155.0
592.96,152.0
593.02,136.0
593.08,143.0
593.14,139.0
593.21,150.0
593.27,153.0
593.33,160.0
593.4,151.0
593.46,150.0
593.52,144.0
593.59,147.0
593.65,131.0
593.71,136.0
593.77,126.0
593.84,145.0
593.9,152.0
593.96,152.0
594.03,152.0
594.09,134.0
594.15,135.0
594.22,152.0
594.28,131.0
594.34,121.0
594.4,126.0
594.47,152.0
594.53,126.0
594.59,152.0
594.66,140.0
594.72,121.0
594.78,126.0
594.85,111.0
594.91,112.0
594.97,125.0
595.03,127.0
595.1,134.0
595.16,135.0
595.22,123.0
595.29,88.0
595.35,92.0
595.41,130.0
595.48,122.0
595.54,122.0
595.6,133.0
595.66,132.0
595.73,112.0
595.79,123.0
595.85,111.0
595.92,127.0
595.98,124.0
596.04,108.0
596.11,117.0
596.17,112.0
596.23,96.0
596.29,127.0
596.36,130.0
596.42,109.0
596.48,113.0
596.55,110.0
596.61,115.0
596.67,102.0
596.74,102.0
596.8,112.0
596.86,118.0
596.92,88.0
596.99,118.0
597.05,121.0
597.11,119.0
597.18,111.0
597.24,107.0
597.3,128.0
597.37,125.0
597.43,123.0
597.49,136.0
597.55,141.0
597.62,149.0
597.68,118.0
597.74,115.0
597.81,96.0
597.87,101.0
597.93,113.0
598.0,102.0
598.06,105.0
598.12,105.0
598.18,96.0
598.25,97.0
598.31,112.0
598.37,88.0
598.44,121.0
598.5,111.0
598.56,90.0
598.63,85.0
598.69,76.0
598.75,70.0
598.81,100.0
598.88,89.0
598.94,81.0
599.0,112.0
599.07,71.0
599.13,85.0
599.19,80.0
599.26,85.0
599.32,95.0
599.38,75.0
599.44,89.0
599.51,91.0
599.57,60.0
599.63,48.0
599.7,56.0
599.76,61.0
599.82,59.0
599.89,96.0
599.95,95.0
600.01,95.0
600.07,75.0
600.14,77.0
600.2,92.0
600.26,92.0
600.33,74.0
600.39,74.0
600.45,72.0
600.52,71.0
600.58,50.0
600.64,57.0
600.7,50.0
600.77,46.0
600.83,45.0
600.89,75.0
600.96,59.0
601.02,47.0
601.08,42.0
601.15,20.0
601.21,31.0
601.27,23.0
601.33,20.0
601.4,38.0
601.46,28.0
601.52,20.0
601.59,37.0
601.65,25.0
601.71,17.0
601.78,31.0
601.84,17.0
601.9,19.0
601.96,20.0
602.03,28.0
602.09,6.0
602.15,14.0
602.22,10.0
602.28,24.0
602.34,17.0
602.41,15.0
602.47,29.0
602.53,25.0
602.59,26.0
602.66,21.0
602.72,27.0
602.78,45.0
602.85,33.0
602.91,42.0
602.97,41.0
603.04,58.0
603.1,46.0
603.16,62.0
603.22,63.0
603.29,57.0
603.35,56.0
603.41,65.0
603.48,54.0
603.54,30.0
603.6,63.0
603.67,51.0
603.73,45.0
603.79,44.0
603.85,53.0
603.92,49.0
603.98,49.0
604.04,37.0
604.11,38.0
604.17,38.0
604.23,42.0
604.3,43.0
604.36,30.0
604.42,49.0
604.48,43.0
604.55,54.0
604.61,51.0
604.67,47.0
604.74,55.0
604.8,41.0
604.86,43.0
604.93,57.0
604.99,45.0
605.05,49.0
605.11,47.0
605.18,58.0
605.24,57.0
605.3,39.0
605.37,48.0
605.43,60.0
605.49,68.0
605.56,72.0
605.62,73.0
605.68,60.0
605.74,61.0
605.81,68.0
605.87,68.0
605.93,46.0
606.0,59.0
606.06,69.0
606.12,58.0
606.19,81.0
606.25,78.0
606.31,76.0
606.37,66.0
606.44,46.0
606.5,49.0
606.56,39.0
606.63,50.0
606.69,55.0
606.75,43.0
606.82,44.0
606.88,53.0
606.94,60.0
607.0,63.0
607.07,55.0
607.13,63.0
607.19,55.0
607.26,52.0
607.32,71.0
607.38,57.0
607.45,52.0
607.51,54.0
607.57,63.0
607.63,55.0
607.7,50.0
607.76,48.0
607.82,65.0
607.89,62.0
607.95,50.0
608.01,75.0
608.08,66.0
608.14,63.0
608.2,57.0
608.26,44.0
608.33,47.0
608.39,67.0
608.45,73.0
608.52,53.0
608.58,48.0
608.64,53.0
608.71,72.0
608.77,55.0
608.83,42.0
608.89,49.0
608.96,53.0
609.02,51.0
609.08,49.0
609.15,35.0
609.21,61.0
609.27,60.0
609.34,55.0
609.4,63.0
609.46,59.0
609.52,70.0
609.59,73.0
609.65,67.0
609.71,60.0
609.78,73.0
609.84,72.0
609.9,81.0
609.97,89.0
610.03,108.0
610.09,98.0
610.15,122.0
610.22,107.0
610.28,110.0
610.34,126.0
610.41,130.0
610.47,121.0
610.53,124.0
610.6,108.0
610.66,100.0
610.72,79.0
610.78,86.0
610.85,78.0
610.91,53.0
610.97,91.0
611.04,103.0
611.1,82.0
611.16,79.0
611.23,57.0
611.29,75.0
611.35,70.0
611.41,80.0
611.48,75.0
611.54,76.0
611.6,83.0
611.67,80.0
611.73,60.0
611.79,50.0
611.86,76.0
611.92,83.0
611.98,90.0
612.04,77.0
612.11,74.0
612.17,81.0
612.23,68.0
612.3,70.0
612.36,44.0
612.42,60.0
612.49,53.0
612.55,22.0
612.61,17.0
612.67,41.0
612.74,45.0
612.8,53.0
612.86,41.0
612.93,56.0
612.99,33.0
613.05,60.0
613.12,62.0
613.18,58.0
613.24,56.0
613.3,72.0
613.37,90.0
613.43,88.0
613.49,97.0
613.56,96.0
613.62,97.0
613.68,93.0
613.75,94.0
613.81,94.0
613.87,97.0
613.93,114.0
614.0,100.0
614.06,86.0
614.12,91.0
614.19,85.0
614.25,107.0
614.31,96.0
614.38,99.0
614.44,89.0
614.5,96.0
614.56,104.0
614.63,106.0
614.69,102.0
614.75,104.0
614.82,111.0
614.88,105.0
614.94,82.0
615.01,115.0
615.07,114.0
615.13,110.0
615.19,120.0
615.26,114.0
615.32,101.0
615.38,97.0
615.45,100.0
615.51,113.0
615.57,111.0
615.64,103.0
615.7,110.0
615.76,89.0
615.82,78.0
615.89,91.0
615.95,105.0
616.01,101.0
616.08,102.0
616.14,98.0
616.2,98.0
616.27,93.0
616.33,104.0
616.39,83.0
616.45,61.0
616.52,97.0
616.58,86.0
616.64,82.0
616.71,83.0
616.77,70.0
616.83,75.0
616.9,77.0
616.96,94.0
617.02,110.0
617.08,69.0
617.15,81.0
617.21,85.0
617.27,88.0
617.34,75.0
617.4,76.0
617.46,89.0
617.53,95.0
617.59,105.0
617.65,102.0
617.71,107.0
617.78,110.0
617.84,114.0
617.9,115.0
617.97,93.0
618.03,95.0
618.09,80.0
618.16,72.0
618.22,109.0
618.28,130.0
618.34,101.0
618.41,91.0
618.47,83.0
618.53,91.0
618.6,90.0
618.66,90.0
618.72,91.0
618.79,97.0
618.85,113.0
618.91,108.0
618.97,87.0
619.04,121.0
619.1,124.0
619.16,115.0
619.23,125.0
619.29,113.0
619.35,97.0
619.42,119.0
619.48,126.0
619.54,102.0
619.6,99.0
619.67,91.0
619.73,78.0
619.79,79.0
619.86,61.0
619.92,69.0
619.98,51.0
620.05,61.0
620.11,74.0
620.17,73.0
620.23,64.0
620.3,58.0
620.36,72.0
620.42,73.0
620.49,79.0
620.55,74.0
620.61,72.0
620.68,109.0
620.74,93.0
620.8,93.0
620.86,109.0
620.93,98.0
620.99,102.0
621.05,117.0
621.12,95.0
621.18,106.0
621.24,114.0
621.31,101.0
621.37,99.0
621.43,119.0
621.49,117.0
621.56,112.0
621.62,120.0
621.68,112.0
621.75,117.0
621.81,115.0
621.87,108.0
621.94,98.0
622.0,101.0
622.06,99.0
622.12,104.0
622.19,104.0
622.25,107.0
622.31,98.0
622.38,93.0
622.44,97.0
622.5,93.0
622.57,96.0
622.63,113.0
622.69,104.0
622.75,92.0
622.82,85.0
622.88,70.0
622.94,93.0
623.01,107.0
623.07,83.0
623.13,82.0
623.2,104.0
623.26,91.0
623.32,94.0
623.38,92.0
623.45,93.0
623.51,94.0
623.57,88.0
623.64,84.0
623.7,102.0
623.76,95.0
623.83,97.0
623.89,104.0
623.95,119.0
624.01,110.0
624.08,118.0
624.14,105.0
624.2,108.0
624.27,115.0
624.33,97.0
624.39,97.0
624.46,97.0
624.52,104.0
624.58,119.0
624.64,123.0
624.71,116.0
624.77,113.0
624.83,130.0
624.9,136.0
624.96,126.0
625.02,134.0
625.09,131.0
625.15,123.0
625.21,132.0
625.27,117.0
625.34,127.0
625.4,123.0
625.46,118.0
625.53,125.0
625.59,140.0
625.65,112.0
625.72,99.0
625.78,89.0
625.84,109.0
625.9,98.0
625.97,88.0
626.03,113.0
626.09,116.0
626.16,110.0
626.22,105.0
626.28,104.0
626.35,129.0
626.41,131.0
626.47,124.0
626.53,133.0
626.6,130.0
626.66,134.0
626.72,119.0
626.79,128.0
626.85,119.0
626.91,132.0
626.98,133.0
627.04,103.0
627.1,95.0
627.16,95.0
627.23,110.0
627.29,124.0
627.35,109.0
627.42,123.0
627.48,115.0
627.54,119.0
627.61,113.0
627.67,85.0
627.73,95.0
627.79,87.0
627.86,94.0
627.92,78.0
627.98,85.0
628.05,67.0
628.11,72.0
628.17,75.0
628.24,42.0
628.3,60.0
628.36,54.0
628.42,64.0
628.49,68.0
628.55,53.0
628.61,52.0
628.68,55.0
628.74,70.0
628.8,71.0
628.87,67.0
628.93,80.0
628.99,87.0
629.05,82.0
629.12,59.0
629.18,60.0
629.24,56.0
629.31,64.0
629.37,78.0
629.43,80.0
629.5,96.0
629.56,105.0
629.62,97.0
629.68,88.0
629.75,73.0
629.81,71.0
629.87,92.0
629.94,95.0
630.0,74.0
630.06,83.0
630.13,90.0
630.19,96.0
630.25,100.0
630.31,79.0
630.38,69.0
630.44,60.0
630.5,69.0
630.57,60.0
630.63,56.0
630.69,58.0
630.76,60.0
630.82,86.0
630.88,76.0
630.94,69.0
631.01,67.0
631.07,79.0
631.13,70.0
631.2,45.0
631.26,50.0
631.32,72.0
631.39,42.0
631.45,67.0
631.51,38.0
631.57,60.0
631.64,50.0
631.7,34.0
631.76,43.0
631.83,40.0
631.89,71.0
631.95,58.0
632.02,44.0
632.08,56.0
632.14,71.0
632.2,77.0
632.27,61.0
632.33,52.0
632.39,43.0
632.46,46.0
632.52,49.0
632.58,61.0
632.65,75.0
632.71,78.0
632.77,66.0
632.83,50.0
632.9,38.0
632.96,41.0
633.02,47.0
633.09,68.0
633.15,55.0
633.21,68.0
633.28,61.0
633.34,61.0
633.4,72.0
633.46,58.0
633.53,66.0
633.59,74.0
633.65,72.0
633.72,56.0
633.78,69.0
633.84,55.0
633.91,47.0
633.97,60.0
634.03,60.0
634.09,49.0
634.16,50.0
634.22,41.0
634.28,50.0
634.35,50.0
634.41,57.0
634.47,60.0
634.54,52.0
634.6,62.0
634.66,44.0
634.72,47.0
634.79,27.0
634.85,31.0
634.91,18.0
634.98,26.0
635.04,38.0
635.1,31.0
635.17,23.0
635.23,30.0
635.29,39.0
635.35,36.0
635.42,41.0
635.48,33.0
635.54,37.0
635.61,33.0
635.67,34.0
635.73,28.0
635.8,21.0
635.86,47.0
635.92,28.0
635.98,31.0
636.05,40.0
636.11,23.0
636.17,18.0
636.24,25.0
636.3,19.0
636.36,33.0
636.43,39.0
636.49,43.0
636.55,30.0
636.61,27.0
636.68,53.0
636.74,37.0
636.8,41.0
636.87,27.0
636.93,49.0
636.99,34.0
637.06,26.0
637.12,37.0
637.18,23.0
637.24,27.0
637.31,36.0
637.37,34.0
637.43,47.0
637.5,73.0
637.56,57.0
637.62,53.0
637.69,48.0
637.75,30.0
637.81,44.0
637.87,48.0
637.94,24.0
638.0,25.0
638.06,46.0
638.13,30.0
638.19,28.0
638.25,44.0
638.32,52.0
638.38,51.0
638.44,65.0
638.5,64.0
638.57,54.0
638.63,69.0
638.69,63.0
638.76,58.0
638.82,52.0
638.88,78.0
638.95,69.0
639.01,53.0
639.07,52.0
639.13,38.0
639.2,56.0
639.26,59.0
639.32,61.0
639.39,64.0
639.45,75.0
639.51,52.0
639.58,61.0
639.64,71.0
639.7,65.0
639.76,78.0
639.83,80.0
639.89,69.0
639.95,70.0
640.02,95.0
640.08,96.0
640.14,88.0
640.21,80.0
640.27,89.0
640.33,107.0
640.39,122.0
640.46,114.0
640.52,119.0
640.58,96.0
640.65,104.0
640.71,103.0
640.77,114.0
640.84,117.0
640.9,111.0
640.96,96.0
641.02,100.0
641.09,112.0
641.15,113.0
641.21,97.0
641.28,112.0
641.34,107.0
641.4,106.0
641.47,93.0
641.53,101.0
641.59,111.0
641.65,102.0
641.72,101.0
641.78,105.0
641.84,108.0
641.91,112.0
641.97,144.0
642.03,134.0
642.1,97.0
642.16,112.0
642.22,110.0
642.28,101.0
642.35,102.0
642.41,108.0
642.47,116.0
642.54,123.0
642.6,109.0
642.66,113.0
642.73,124.0
642.79,122.0
642.85,123.0
642.91,93.0
642.98,104.0
643.04,107.0
643.1,107.0
643.17,129.0
643.23,117.0
643.29,114.0
643.36,123.0
643.42,104.0
643.48,115.0
643.54,112.0
643.61,140.0
643.67,122.0
643.73,140.0
643.8,134.0
643.86,128.0
643.92,124.0
643.99,119.0
644.05,98.0
644.11,121.0
644.17,127.0
644.24,115.0
644.3,133.0
644.36,117.0
644.43,117.0
644.49,111.0
644.55,121.0
644.62,125.0
644.68,123.0
644.74,123.0
644.8,124.0
644.87,119.0
644.93,126.0
644.99,133.0
645.06,148.0
645.12,130.0
645.18,117.0
645.25,97.0
645.31,97.0
645.37,108.0
645.43,93.0
645.5,78.0
645.56,100.0
645.62,117.0
645.69,88.0
645.75,70.0
645.81,79.0
645.88,80.0
645.94,97.0
646.0,92.0
646.06,93.0
646.13,105.0
646.19,104.0
646.25,102.0
646.32,117.0
646.38,93.0
646.44,83.0
646.51,96.0
646.57,97.0
646.63,97.0
646.69,101.0
646.76,128.0
646.82,122.0
646.88,123.0
646.95,120.0
647.01,129.0
647.07,128.0
647.14,141.0
647.2,122.0
647.26,126.0
647.32,139.0
647.39,154.0
647.45,137.0
647.51,128.0
647.58,138.0
647.64,149.0
647.7,145.0
647.77,137.0
647.83,153.0
647.89,131.0
647.95,119.0
648.02,117.0
648.08,123.0
648.14,143.0
648.21,128.0
648.27,126.0
648.33,132.0
648.4,132.0
648.46,126.0
648.52,137.0
648.58,137.0
648.65,137.0
648.71,107.0
648.77,119.0
648.84,133.0
648.9,145.0
648.96,138.0
649.03,111.0
649.09,109.0
649.15,99.0
649.21,123.0
649.28,143.0
649.34,128.0
649.4,111.0
649.47,108.0
649.53,119.0
649.59,137.0
649.66,131.0
649.72,119.0
649.78,122.0
649.84,124.0
649.91,126.0
649.97,122.0
650.03,125.0
650.1,108.0
650.16,113.0
650.22,132.0
650.29,137.0
650.35,138.0
650.41,133.0
650.47,111.0
650.54,110.0
650.6,126.0
650.66,117.0
650.73,105.0
650.79,89.0
650.85,102.0
650.92,109.0
650.98,103.0
651.04,100.0
651.1,113.0
651.17,113.0
651.23,101.0
651.29,109.0
651.36,113.0
651.42,112.0
651.48,99.0
651.55,101.0
651.61,94.0
651.67,100.0
651.73,82.0
651.8,78.0
651.86,77.0
651.92,67.0
651.99,77.0
652.05,75.0
652.11,80.0
652.18,68.0
652.24,78.0
652.3,76.0
652.36,83.0
652.43,101.0
652.49,84.0
652.55,97.0
652.62,82.0
652.68,82.0
652.74,91.0
652.81,101.0
652.87,99.0
652.93,91.0
652.99,86.0
653.06,77.0
653.12,75.0
653.18,82.0
653.25,78.0
653.31,51.0
653.37,70.0
653.44,82.0
653.5,82.0
653.56,81.0
653.62,67.0
653.69,64.0
653.75,77.0
653.81,70.0
653.88,78.0
653.94,74.0
654.0,53.0
654.07,53.0
654.13,71.0
654.19,45.0
654.25,51.0
654.32,44.0
654.38,64.0
654.44,64.0
654.51,56.0
654.57,60.0
654.63,51.0
654.7,46.0
654.76,40.0
654.82,31.0
654.88,37.0
654.95,57.0
655.01,31.0
655.07,47.0
655.14,72.0
655.2,62.0
655.26,49.0
655.33,39.0
655.39,45.0
655.45,53.0
655.51,60.0
655.58,75.0
655.64,73.0
655.7,60.0
655.77,61.0
655.83,53.0
655.89,26.0
655.96,40.0
656.02,53.0
656.08,48.0
656.14,55.0
656.21,52.0
656.27,55.0
656.33,45.0
656.4,53.0
656.46,56.0
656.52,69.0
656.59,76.0
656.65,66.0
656.71,57.0
656.77,75.0
656.84,75.0
656.9,57.0
656.96,61.0
657.03,57.0
657.09,56.0
657.15,61.0
657.22,58.0
657.28,45.0
657.34,61.0
657.4,82.0
657.47,81.0
657.53,52.0
657.59,50.0
657.66,55.0
657.72,52.0
657.78,70.0
657.85,64.0
657.91,76.0
657.97,80.0
658.03,72.0
658.1,83.0
658.16,58.0
658.22,85.0
658.29,102.0
658.35,82.0
658.41,77.0
658.48,67.0
658.54,57.0
658.6,69.0
658.66,69.0
658.73,68.0
658.79,67.0
658.85,86.0
658.92,69.0
658.98,72.0
659.04,70.0
659.11,85.0
659.17,61.0
659.23,60.0
659.29,67.0
659.36,63.0
659.42,78.0
659.48,81.0
659.55,84.0
659.61,75.0
659.67,64.0
659.74,71.0
659.8,50.0
659.86,43.0
659.92,42.0
659.99,59.0
660.05,65.0
660.11,42.0
660.18,35.0
660.24,41.0
660.3,23.0
660.37,36.0
660.43,38.0
660.49,38.0
660.55,31.0
660.62,20.0
660.68,40.0
660.74,39.0
660.81,47.0
660.87,34.0
660.93,43.0
661.0,44.0
661.06,37.0
661.12,32.0
661.18,34.0
661.25,44.0
661.31,35.0
661.37,19.0
661.44,29.0
661.5,16.0
661.56,26.0
661.63,21.0
661.69,16.0
661.75,18.0
661.81,18.0
661.88,13.0
661.94,-8.0
662.0,2.0
662.07,20.0
662.13,12.0
662.19,28.0
662.26,26.0
662.32,33.0
662.38,6.0
662.44,12.0
662.51,30.0
662.57,32.0
662.63,24.0
662.7,-10.0
662.76,7.0
662.82,20.0
662.89,21.0
662.95,11.0
663.01,1.0
663.07,29.0
663.14,31.0
663.2,15.0
663.26,16.0
663.33,40.0
663.39,17.0
663.45,20.0
663.52,42.0
663.58,42.0
663.64,60.0
663.7,44.0
663.77,43.0
663.83,36.0
663.89,21.0
663.96,42.0
664.02,31.0
664.08,30.0
664.15,61.0
664.21,52.0
664.27,66.0
664.33,42.0
664.4,54.0
664.46,37.0
664.52,43.0
664.59,61.0
664.65,56.0
664.71,48.0
664.78,69.0
664.84,69.0
664.9,74.0
664.96,101.0
665.03,103.0
665.09,75.0
665.15,62.0
665.22,73.0
665.28,70.0
665.34,69.0
665.41,74.0
665.47,68.0
665.53,63.0
665.59,85.0
665.66,107.0
665.72,89.0
665.78,103.0
665.85,94.0
665.91,92.0
665.97,91.0
666.04,90.0
666.1,98.0
666.16,103.0
666.22,114.0
666.29,105.0
666.35,98.0
666.41,117.0
666.48,90.0
666.54,112.0
666.6,131.0
666.67,114.0
666.73,131.0
666.79,106.0
666.85,83.0
666.92,80.0
666.98,70.0
667.04,92.0
667.11,80.0
667.17,81.0
667.23,85.0
667.3,97.0
667.36,114.0
667.42,99.0
667.48,101.0
667.55,105.0
667.61,121.0
667.67,127.0
667.74,117.0
667.8,94.0
667.86,79.0
667.93,99.0
667.99,96.0
668.05,114.0
668.11,99.0
668.18,99.0
668.24,113.0
668.3,104.0
668.37,101.0
668.43,83.0
668.49,84.0
668.56,98.0
668.62,87.0
668.68,96.0
668.74,86.0
668.81,94.0
668.87,92.0
668.93,81.0
669.0,82.0
669.06,94.0
669.12,101.0
669.19,106.0
669.25,103.0
669.31,102.0
669.37,106.0
669.44,100.0
669.5,99.0
669.56,97.0
669.63,103.0
669.69,112.0
669.75,83.0
669.82,104.0
669.88,102.0
669.94,104.0
670.0,97.0
670.07,115.0
670.13,121.0
670.19,110.0
670.26,111.0
670.32,99.0
670.38,99.0
670.45,115.0
670.51,119.0
670.57,112.0
670.63,96.0
670.7,108.0
670.76,102.0
670.82,90.0
670.89,83.0
670.95,91.0
671.01,102.0
671.08,112.0
671.14,109.0
671.2,87.0
671.26,80.0
671.33,97.0
671.39,64.0
671.45,74.0
671.52,68.0
671.58,74.0
671.64,83.0
671.71,70.0
671.77,92.0
671.83,84.0
671.89,100.0
671.96,100.0
672.02,98.0
672.08,110.0
672.15,86.0
672.21,108.0
672.27,129.0
672.34,121.0
672.4,121.0
672.46,125.0
672.52,115.0
672.59,106.0
672.65,108.0
672.71,101.0
672.78,119.0
672.84,111.0
672.9,103.0
672.97,88.0
673.03,85.0
673.09,89.0
673.15,95.0
673.22,105.0
673.28,116.0
673.34,125.0
673.41,140.0
673.47,143.0
673.53,134.0
673.6,138.0
673.66,120.0
673.72,129.0
673.78,119.0
673.85,114.0
673.91,121.0
673.97,118.0
674.04,121.0
674.1,128.0
674.16,125.0
674.23,117.0
674.29,130.0
674.35,133.0
674.41,116.0
674.48,128.0
674.54,104.0
674.6,135.0
674.67,113.0
674.73,136.0
674.79,134.0
674.86,130.0
674.92,121.0
674.98,119.0
675.04,131.0
675.11,132.0
675.17,132.0
675.23,117.0
675.3,119.0
675.36,119.0
675.42,130.0
675.49,132.0
675.55,121.0
675.61,100.0
675.67,101.0
675.74,119.0
675.8,122.0
675.86,124.0
675.93,136.0
675.99,140.0
676.05,156.0
676.12,140.0
676.18,150.0
676.24,163.0
676.3,154.0
676.37,146.0
676.43,129.0
676.49,143.0
676.56,151.0
676.62,173.0
676.68,164.0
676.75,154.0
676.81,164.0
676.87,156.0
676.93,140.0
677.0,141.0
677.06,165.0
677.12,169.0
677.19,144.0
677.25,136.0
677.31,138.0
677.38,144.0
677.44,143.0
677.5,131.0
677.56,122.0
677.63,132.0
677.69,138.0
677.75,138.0
677.82,137.0
677.88,153.0
677.94,135.0
678.01,125.0
678.07,110.0
678.13,133.0
678.19,151.0
678.26,117.0
678.32,114.0
678.38,100.0
678.45,106.0
678.51,122.0
678.57,107.0
678.64,107.0
678.7,115.0
678.76,121.0
678.82,103.0
678.89,86.0
678.95,100.0
679.01,95.0
679.08,102.0
679.14,76.0
679.2,83.0
679.27,92.0
679.33,76.0
679.39,72.0
679.45,73.0
679.52,84.0
679.58,91.0
679.64,81.0
679.71,70.0
679.77,78.0
679.83,67.0
679.9,71.0
679.96,63.0
680.02,63.0
680.08,66.0
680.15,73.0
680.21,57.0
680.27,55.0
680.34,56.0
680.4,48.0
680.46,50.0
680.53,55.0
680.59,58.0
680.65,48.0
680.71,41.0
680.78,41.0
680.84,36.0
680.9,46.0
680.97,43.0
681.03,47.0
681.09,60.0
681.16,81.0
681.22,57.0
681.28,72.0
681.34,66.0
681.41,84.0
681.47,69.0
681.53,85.0
681.6,97.0
681.66,62.0
681.72,49.0
681.79,77.0
681.85,100.0
681.91,72.0
681.97,89.0
682.04,81.0
682.1,87.0
682.16,70.0
682.23,58.0
682.29,48.0
682.35,48.0
682.42,58.0
682.48,36.0
682.54,37.0
682.6,51.0
682.67,47.0
682.73,49.0
682.79,47.0
682.86,59.0
682.92,64.0
682.98,61.0
683.05,42.0
683.11,48.0
683.17,50.0
683.23,40.0
683.3,54.0
683.36,64.0
683.42,64.0
683.49,81.0
683.55,56.0
683.61,55.0
683.68,51.0
683.74,61.0
683.8,73.0
683.86,81.0
683.93,71.0
683.99,76.0
684.05,75.0
684.12,67.0
684.18,61.0
684.24,75.0
684.31,66.0
684.37,61.0
684.43,41.0
684.49,40.0
684.56,50.0
684.62,46.0
684.68,50.0
684.75,36.0
684.81,38.0
684.87,20.0
684.94,17.0
685.0,14.0
685.06,15.0
685.12,11.0
685.19,8.0
685.25,-2.0
685.31,-11.0
685.38,3.0
685.44,-1.0
685.5,-13.0
685.57,-9.0
685.63,3.0
685.69,1.0
685.75,2.0
685.82,3.0
685.88,8.0
685.94,2.0
686.01,4.0
686.07,-3.0
686.13,5.0
686.2,-15.0
686.26,-21.0
686.32,-13.0
686.38,-2.0
686.45,0.0
686.51,-2.0
686.57,-13.0
686.64,-23.0
686.7,-33.0
686.76,-25.0
686.83,-12.0
686.89,-15.0
686.95,8.0
687.01,-5.0
687.08,19.0
687.14,17.0
687.2,-7.0
687.27,3.0
687.33,-5.0
687.39,-26.0
687.46,-21.0
687.52,-8.0
687.58,4.0
687.64,-5.0
687.71,-24.0
687.77,-2.0
687.83,3.0
687.9,-14.0
687.96,-4.0
688.02,-1.0
688.09,-6.0
688.15,19.0
688.21,-5.0
688.27,-17.0
688.34,13.0
688.4,-2.0
688.46,-13.0
688.53,15.0
688.59,9.0
688.65,7.0
688.72,-5.0
688.78,6.0
688.84,11.0
688.9,6.0
688.97,20.0
689.03,20.0
689.09,5.0
689.16,-1.0
689.22,7.0
689.28,15.0
689.35,1.0
689.41,22.0
689.47,39.0
689.53,33.0
689.6,54.0
689.66,33.0
689.72,26.0
689.79,40.0
689.85,26.0
689.91,28.0
689.98,31.0
690.04,24.0
690.1,57.0
690.16,35.0
690.23,41.0
690.29,39.0
690.35,51.0
690.42,49.0
690.48,34.0
690.54,50.0
690.61,48.0
690.67,51.0
690.73,49.0
690.79,27.0
690.86,11.0
690.92,1.0
690.98,13.0
691.05,35.0
691.11,2.0
691.17,17.0
691.24,31.0
691.3,28.0
691.36,42.0
691.42,44.0
691.49,57.0
691.55,65.0
691.61,72.0
691.68,54.0
691.74,68.0
691.8,82.0
691.87,67.0
691.93,58.0
691.99,84.0
692.05,83.0
692.12,75.0
692.18,79.0
692.24,92.0
692.31,110.0
692.37,108.0
692.43,92.0
692.5,86.0
692.56,98.0
692.62,96.0
692.68,96.0
692.75,92.0
692.81,116.0
692.87,118.0
692.94,108.0
693.0,114.0
693.06,109.0
693.13,102.0
693.19,117.0
693.25,134.0
693.31,126.0
693.38,130.0
693.44,106.0
693.5,117.0
693.57,130.0
693.63,122.0
693.69,125.0
693.76,115.0
693.82,112.0
693.88,131.0
693.94,110.0
694.01,109.0
694.07,103.0
694.13,120.0
694.2,129.0
694.26,116.0
694.32,138.0
694.39,132.0
694.45,131.0
694.51,126.0
694.57,108.0
694.64,128.0
694.7,130.0
694.76,119.0
694.83,105.0
694.89,105.0
694.95,115.0
695.02,122.0
695.08,101.0
695.14,96.0
695.2,102.0
695.27,92.0
695.33,96.0
695.39,126.0
695.46,109.0
695.52,87.0
695.58,109.0
695.65,123.0
695.71,102.0
695.77,99.0
695.83,108.0
695.9,90.0
695.96,87.0
696.02,91.0
696.09,87.0
696.15,97.0
696.21,101.0
696.28,79.0
696.34,94.0
696.4,99.0
696.46,83.0
696.53,109.0
696.59,102.0
696.65,94.0
696.72,111.0
696.78,93.0
696.84,97.0
696.91,105.0
696.97,106.0
697.03,104.0
697.09,108.0
697.16,99.0
697.22,76.0
697.28,94.0
697.35,100.0
697.41,109.0
697.47,102.0
697.54,100.0
697.6,94.0
697.66,77.0
697.72,120.0
697.79,113.0
697.85,119.0
697.91,123.0
697.98,109.0
698.04,119.0
698.1,119.0
698.17,116.0
698.23,114.0
698.29,119.0
698.35,122.0
698.42,118.0
698.48,126.0
698.54,121.0
698.61,131.0
698.67,123.0
698.73,133.0
698.8,154.0
698.86,148.0
698.92,152.0
698.98,139.0
699.05,142.0
699.11,131.0
699.17,165.0
699.24,170.0
699.3,163.0
699.36,178.0
699.43,175.0
699.49,166.0
699.55,167.0
699.61,161.0
699.68,164.0
699.74,153.0
699.8,142.0
699.87,148.0
699.93,127.0
699.99,130.0
700.06,133.0
700.12,138.0
700.18,128.0
700.24,134.0
700.31,138.0
700.37,134.0
700.43,127.0
700.5,130.0
700.56,125.0
700.62,122.0
700.69,114.0
700.75,123.0
700.81,121.0
700.87,108.0
700.94,119.0
701.0,119.0
701.06,119.0
701.13,111.0
701.19,111.0
701.25,119.0
701.32,127.0
701.38,113.0
701.44,103.0
701.5,113.0
701.57,129.0
701.63,117.0
701.69,120.0
701.76,102.0
701.82,104.0
701.88,109.0
701.95,97.0
702.01,122.0
702.07,90.0
702.13,87.0
702.2,87.0
702.26,110.0
702.32,111.0
702.39,93.0
702.45,101.0
702.51,76.0
702.58,68.0
702.64,79.0
702.7,82.0
702.76,70.0
702.83,56.0
702.89,89.0
702.95,72.0
703.02,51.0
703.08,75.0
703.14,79.0
703.21,56.0
703.27,47.0
703.33,59.0
703.39,62.0
703.46,75.0
703.52,68.0
703.58,62.0
703.65,63.0
703.71,64.0
703.77,56.0
703.84,46.0
703.9,53.0
703.96,54.0
704.02,53.0
704.09,46.0
704.15,60.0
704.21,48.0
704.28,40.0
704.34,61.0
704.4,31.0
704.47,32.0
704.53,49.0
704.59,39.0
704.65,53.0
704.72,43.0
704.78,57.0
704.84,61.0
704.91,49.0
704.97,35.0
705.03,56.0
705.1,60.0
705.16,60.0
705.22,57.0
705.28,70.0
705.35,79.0
705.41,66.0
705.47,72.0
705.54,59.0
705.6,69.0
705.66,64.0
705.73,67.0
705.79,76.0
705.85,62.0
705.91,51.0
705.98,54.0
706.04,58.0
706.1,71.0
706.17,65.0
706.23,79.0
706.29,67.0
706.36,46.0
706.42,51.0
706.48,59.0
706.54,66.0
706.61,42.0
706.67,46.0
706.73,51.0
706.8,35.0
706.86,48.0
706.92,51.0
706.99,52.0
707.05,48.0
707.11,54.0
707.17,46.0
707.24,35.0
707.3,33.0
707.36,27.0
707.43,18.0
707.49,30.0
707.55,49.0
707.62,56.0
707.68,48.0
707.74,64.0
707.8,75.0
707.87,88.0
707.93,91.0
707.99,89.0
708.06,78.0
708.12,70.0
708.18,83.0
708.25,101.0
708.31,75.0
708.37,64.0
708.43,81.0
708.5,72.0
708.56,86.0
708.62,101.0
708.69,93.0
708.75,82.0
708.81,73.0
708.88,69.0
708.94,60.0
709.0,69.0
709.06,68.0
709.13,54.0
709.19,73.0
709.25,74.0
709.32,59.0
709.38,56.0
709.44,53.0
709.51,60.0
709.57,52.0
709.63,65.0
709.69,79.0
709.76,58.0
709.82,54.0
709.88,57.0
709.95,49.0
710.01,78.0
710.07,82.0
710.14,73.0
710.2,93.0
710.26,81.0
710.32,95.0
710.39,101.0
710.45,89.0
710.51,105.0
710.58,104.0
710.64,101.0
710.7,105.0
710.77,95.0
710.83,95.0
710.89,114.0
710.95,93.0
711.02,85.0
711.08,61.0
711.14,62.0
711.21,73.0
711.27,72.0
711.33,66.0
711.4,61.0
711.46,51.0
711.52,46.0
711.58,61.0
711.65,53.0
711.71,35.0
711.77,56.0
711.84,44.0
711.9,36.0
711.96,35.0
712.03,49.0
712.09,36.0
712.15,21.0
712.21,7.0
712.28,9.0
712.34,23.0
712.4,18.0
712.47,26.0
712.53,24.0
712.59,43.0
712.66,36.0
712.72,28.0
712.78,32.0
712.84,44.0
712.91,57.0
712.97,57.0
713.03,60.0
713.1,40.0
713.16,57.0
713.22,71.0
713.29,58.0
713.35,67.0
713.41,57.0
713.47,56.0
713.54,42.0
713.6,57.0
713.66,71.0
713.73,79.0
713.79,58.0
713.85,72.0
713.92,93.0
713.98,85.0
714.04,97.0
714.1,88.0
714.17,78.0
714.23,72.0
714.29,70.0
714.36,90.0
714.42,79.0
714.48,86.0
714.55,95.0
714.61,93.0
714.67,84.0
714.73,86.0
714.8,98.0
714.86,130.0
714.92,112.0
714.99,107.0
715.05,90.0
715.11,106.0
715.18,111.0
715.24,87.0
715.3,80.0
715.36,96.0
715.43,94.0
715.49,100.0
715.55,115.0
715.62,115.0
715.68,118.0
715.74,127.0
715.81,121.0
715.87,121.0
715.93,128.0
715.99,125.0
716.06,134.0
716.12,141.0
716.18,142.0
716.25,112.0
716.31,130.0
716.37,120.0
716.44,117.0
716.5,130.0
716.56,120.0
716.62,138.0
716.69,127.0
716.75,149.0
716.81,154.0
716.88,156.0
716.94,147.0
717.0,119.0
717.07,123.0
717.13,126.0
717.19,130.0
717.25,128.0
717.32,109.0
717.38,107.0
717.44,120.0
717.51,134.0
717.57,112.0
717.63,115.0
717.7,120.0
717.76,127.0
717.82,119.0
717.88,109.0
717.95,120.0
718.01,128.0
718.07,134.0
718.14,121.0
718.2,134.0
718.26,120.0
718.33,126.0
718.39,132.0
718.45,120.0
718.51,118.0
718.58,116.0
718.64,123.0
718.7,101.0
718.77,104.0
718.83,89.0
718.89,119.0
718.96,109.0
719.02,100.0
719.08,114.0
719.14,116.0
719.21,139.0
719.27,122.0
719.33,120.0
719.4,117.0
719.46,133.0
719.52,131.0
719.59,118.0
719.65,98.0
719.71,97.0
719.77,108.0
719.84,114.0
719.9,90.0
719.96,98.0
720.03,92.0
720.09,106.0
720.15,104.0
720.22,96.0
720.28,78.0
720.34,79.0
720.4,71.0
720.47,75.0
720.53,95.0
720.59,91.0
720.66,94.0
720.72,82.0
720.78,78.0
720.85,100.0
720.91,78.0
720.97,61.0
721.03,75.0
721.1,83.0
721.16,90.0
721.22,91.0
721.29,72.0
721.35,73.0
721.41,82.0
721.48,87.0
721.54,90.0
721.6,94.0
721.66,90.0
721.73,82.0
721.79,77.0
721.85,73.0
721.92,88.0
721.98,85.0
722.04,113.0
722.11,123.0
722.17,94.0
722.23,86.0
722.29,95.0
722.36,93.0
722.42,108.0
722.48,91.0
722.55,98.0
722.61,98.0
722.67,94.0
722.74,86.0
722.8,108.0
722.86,109.0
722.92,110.0
722.99,108.0
723.05,114.0
723.11,95.0
723.18,110.0
723.24,113.0
723.3,100.0
723.37,123.0
723.43,115.0
723.49,109.0
723.55,122.0
723.62,112.0
723.68,123.0
723.74,111.0
723.81,124.0
723.87,123.0
723.93,108.0
724.0,115.0
724.06,106.0
724.12,114.0
724.18,114.0
724.25,120.0
724.31,128.0
724.37,120.0
724.44,111.0
724.5,110.0
724.56,117.0
724.63,109.0
724.69,108.0
724.75,106.0
724.81,92.0
724.88,109.0
724.94,111.0
725.0,120.0
725.07,135.0
725.13,122.0
725.19,117.0
725.26,109.0
725.32,109.0
725.38,108.0
725.44,91.0
725.51,101.0
725.57,132.0
725.63,119.0
725.7,95.0
725.76,97.0
725.82,82.0
725.89,101.0
725.95,109.0
726.01,110.0
726.07,94.0
726.14,96.0
726.2,107.0
726.26,110.0
726.33,101.0
726.39,98.0
726.45,108.0
726.52,123.0
726.58,112.0
726.64,107.0
726.7,94.0
726.77,91.0
726.83,116.0
726.89,112.0
726.96,118.0
727.02,110.0
727.08,103.0
727.15,119.0
727.21,121.0
727.27,114.0
727.33,121.0
727.4,101.0
727.46,98.0
727.52,118.0
727.59,126.0
727.65,101.0
727.71,108.0
727.78,96.0
727.84,103.0
727.9,94.0
727.96,97.0
728.03,86.0
728.09,81.0
728.15,86.0
728.22,84.0
728.28,105.0
728.34,72.0
728.41,63.0
728.47,75.0
728.53,90.0
728.59,81.0
728.66,92.0
728.72,79.0
728.78,77.0
728.85,75.0
728.91,68.0
728.97,67.0
729.04,59.0
729.1,60.0
729.16,69.0
729.22,73.0
729.29,64.0
729.35,53.0
729.41,48.0
729.48,64.0
729.54,49.0
729.6,46.0
729.67,49.0
729.73,49.0
729.79,64.0
729.85,42.0
729.92,53.0
729.98,76.0
730.04,60.0
730.11,52.0
730.17,62.0
730.23,60.0
730.3,64.0
730.36,57.0
730.42,64.0
730.48,79.0
730.55,55.0
730.61,66.0
730.67,86.0
730.74,90.0
730.8,68.0
730.86,70.0
730.93,98.0
730.99,113.0
731.05,103.0
731.11,108.0
731.18,91.0
731.24,86.0
731.3,106.0
731.37,90.0
731.43,116.0
731.49,108.0
731.56,104.0
731.62,113.0
731.68,96.0
731.74,99.0
731.81,96.0
731.87,121.0
731.93,105.0
732.0,98.0
732.06,79.0
732.12,94.0
732.19,102.0
732.25,104.0
732.31,104.0
732.37,91.0
732.44,97.0
732.5,107.0
732.56,119.0
732.63,99.0
732.69,105.0
732.75,108.0
732.82,118.0
732.88,107.0
732.94,112.0
733.0,118.0
733.07,127.0
733.13,120.0
733.19,114.0
733.26,123.0
733.32,107.0
733.38,122.0
733.45,117.0
733.51,99.0
733.57,123.0
733.63,125.0
733.7,114.0
733.76,116.0
733.82,117.0
733.89,111.0
733.95,120.0
734.01,104.0
734.08,117.0
734.14,111.0
734.2,101.0
734.26,132.0
734.33,119.0
734.39,95.0
734.45,105.0
734.52,95.0
734.58,94.0
734.64,72.0
734.71,81.0
734.77,81.0
734.83,73.0
734.89,97.0
734.96,81.0
735.02,79.0
735.08,68.0
735.15,77.0
735.21,80.0
735.27,106.0
735.34,91.0
735.4,67.0
735.46,101.0
735.52,64.0
735.59,93.0
735.65,85.0
735.71,86.0
735.78,93.0
735.84,60.0
735.9,86.0
735.97,87.0
736.03,86.0
736.09,77.0
736.15,78.0
736.22,64.0
736.28,70.0
736.34,59.0
736.41,67.0
736.47,60.0
736.53,74.0
736.6,83.0
736.66,75.0
736.72,70.0
736.78,61.0
736.85,59.0
736.91,49.0
736.97,46.0
737.04,54.0
737.1,50.0
737.16,48.0
737.23,49.0
737.29,33.0
737.35,31.0
737.41,16.0
737.48,53.0
737.54,11.0
737.6,16.0
737.67,28.0
737.73,-2.0
737.79,31.0
737.86,14.0
737.92,25.0
737.98,32.0
738.04,23.0
738.11,-3.0
738.17,22.0
738.23,22.0
738.3,7.0
738.36,19.0
738.42,28.0
738.49,5.0
738.55,15.0
738.61,37.0
738.67,32.0
738.74,40.0
738.8,49.0
738.86,33.0
738.93,18.0
738.99,51.0
739.05,17.0
739.12,31.0
739.18,39.0
739.24,28.0
739.3,38.0
739.37,29.0
739.43,22.0
739.49,24.0
739.56,36.0
739.62,52.0
739.68,41.0
739.75,27.0
739.81,10.0
739.87,39.0
739.93,44.0
740.0,43.0
740.06,41.0
740.12,44.0
740.19,27.0
740.25,31.0
740.31,32.0
740.38,38.0
740.44,43.0
740.5,40.0
740.56,62.0
740.63,57.0
740.69,59.0
740.75,56.0
740.82,65.0
740.88,59.0
740.94,47.0
741.01,67.0
741.07,76.0
741.13,66.0
741.19,72.0
741.26,60.0
741.32,61.0
741.38,49.0
741.45,67.0
741.51,57.0
741.57,42.0
741.64,71.0
741.7,57.0
741.76,64.0
741.82,91.0
741.89,72.0
741.95,73.0
742.01,75.0
742.08,84.0
742.14,78.0
742.2,64.0
742.27,73.0
742.33,66.0
742.39,72.0
742.45,69.0
742.52,67.0
742.58,77.0
742.64,73.0
742.71,67.0
742.77,65.0
742.83,76.0
742.9,64.0
742.96,89.0
743.02,81.0
743.08,87.0
743.15,66.0
743.21,71.0
743.27,68.0
743.34,82.0
743.4,90.0
743.46,94.0
743.53,90.0
743.59,81.0
743.65,88.0
743.71,66.0
743.78,78.0
743.84,70.0
743.9,73.0
743.97,78.0
744.03,71.0
744.09,81.0
744.16,68.0
744.22,80.0
744.28,80.0
744.34,99.0
744.41,90.0
744.47,78.0
744.53,84.0
744.6,83.0
744.66,77.0
744.72,79.0
744.79,78.0
744.85,95.0
744.91,87.0
744.97,81.0
745.04,85.0
745.1,73.0
745.16,91.0
745.23,102.0
745.29,95.0
745.35,73.0
745.42,81.0
745.48,91.0
745.54,118.0
745.6,107.0
745.67,78.0
745.73,92.0
745.79,84.0
745.86,101.0
745.92,93.0
745.98,89.0
746.05,94.0
746.11,74.0
746.17,91.0
746.23,104.0
746.3,57.0
746.36,54.0
746.42,74.0
746.49,67.0
746.55,77.0
746.61,76.0
746.68,66.0
746.74,71.0
746.8,77.0
746.86,63.0
746.93,65.0
746.99,81.0
747.05,54.0
747.12,57.0
747.18,76.0
747.24,66.0
747.31,77.0
747.37,79.0
747.43,88.0
747.49,63.0
747.56,49.0
747.62,35.0
747.68,42.0
747.75,55.0
747.81,79.0
747.87,71.0
747.94,90.0
748.0,68.0
748.06,86.0
748.12,71.0
748.19,82.0
748.25,82.0
748.31,121.0
748.38,106.0
748.44,93.0
748.5,102.0
748.57,125.0
748.63,158.0
748.69,137.0
748.75,133.0
748.82,135.0
748.88,132.0
748.94,147.0
749.01,142.0
749.07,132.0
749.13,138.0
749.2,162.0
749.26,149.0
749.32,137.0
749.38,147.0
749.45,120.0
749.51,124.0
749.57,131.0
749.64,133.0
749.7,143.0
749.76,113.0
749.83,118.0
749.89,100.0
749.95,129.0
750.01,122.0
750.08,117.0
750.14,129.0
750.2,118.0
750.27,154.0
750.33,131.0
750.39,154.0
750.46,140.0
750.52,131.0
750.58,133.0
750.64,111.0
750.71,131.0
750.77,134.0
750.83,122.0
750.9,117.0
750.96,134.0
751.02,125.0
751.09,109.0
751.15,106.0
751.21,104.0
751.27,112.0
751.34,116.0
751.4,101.0
751.46,95.0
751.53,97.0
751.59,101.0
751.65,103.0
751.72,117.0
751.78,99.0
751.84,90.0
751.9,112.0
751.97,103.0
752.03,115.0
752.09,94.0
752.16,97.0
752.22,96.0
752.28,92.0
752.35,98.0
752.41,112.0
752.47,118.0
752.53,107.0
752.6,113.0
752.66,84.0
752.72,93.0
752.79,101.0
752.85,94.0
752.91,100.0
752.98,110.0
753.04,91.0
753.1,107.0
753.16,109.0
753.23,81.0
753.29,107.0
753.35,103.0
753.42,76.0
753.48,87.0
753.54,86.0
753.61,95.0
753.67,82.0
753.73,70.0
753.79,60.0
753.86,85.0
753.92,78.0
753.98,65.0
754.05,64.0
754.11,80.0
754.17,74.0
754.24,68.0
754.3,75.0
754.36,69.0
754.42,81.0
754.49,86.0
754.55,60.0
754.61,73.0
754.68,68.0
754.74,52.0
754.8,61.0
754.87,40.0
754.93,62.0
754.99,48.0
755.05,62.0
755.12,59.0
755.18,63.0
755.24,62.0
755.31,55.0
755.37,77.0
755.43,52.0
755.5,60.0
755.56,60.0
755.62,61.0
755.68,62.0
755.75,53.0
755.81,55.0
755.87,58.0
755.94,57.0
756.0,87.0
756.06,83.0
756.13,67.0
756.19,81.0
756.25,63.0
756.31,57.0
756.38,77.0
756.44,74.0
756.5,59.0
756.57,59.0
756.63,63.0
756.69,62.0
756.76,57.0
756.82,54.0
756.88,65.0
756.94,70.0
757.01,66.0
757.07,66.0
757.13,72.0
757.2,63.0
757.26,63.0
757.32,81.0
757.39,70.0
757.45,96.0
757.51,89.0
757.57,69.0
757.64,79.0
757.7,87.0
757.76,96.0
757.83,94.0
757.89,111.0
757.95,103.0
758.02,94.0
758.08,93.0
758.14,102.0
758.2,131.0
758.27,112.0
758.33,120.0
758.39,128.0
758.46,125.0
758.52,115.0
758.58,96.0
758.65,107.0
758.71,118.0
758.77,109.0
758.83,100.0
758.9,110.0
758.96,109.0
759.02,128.0
759.09,117.0
759.15,120.0
759.21,144.0
759.28,138.0
759.34,126.0
759.4,123.0
759.46,136.0
759.53,143.0
759.59,119.0
759.65,149.0
759.72,159.0
759.78,144.0
759.84,131.0
759.91,111.0
759.97,122.0
760.03,107.0
760.09,135.0
760.16,108.0
760.22,100.0
760.28,120.0
760.35,112.0
760.41,118.0
760.47,116.0
760.54,112.0
760.6,117.0
760.66,120.0
760.72,126.0
760.79,130.0
760.85,120.0
760.91,116.0
760.98,95.0
761.04,127.0
761.1,123.0
761.17,113.0
761.23,111.0
761.29,111.0
761.35,114.0
761.42,111.0
761.48,97.0
761.54,113.0
761.61,93.0
761.67,87.0
761.73,103.0
761.8,82.0
761.86,73.0
761.92,84.0
761.98,59.0
762.05,54.0
762.11,55.0
762.17,32.0
762.24,44.0
762.3,46.0
762.36,43.0
762.43,22.0
762.49,18.0
762.55,21.0
762.61,36.0
762.68,13.0
762.74,10.0
762.8,5.0
762.87,4.0
762.93,7.0
762.99,25.0
763.06,36.0
763.12,22.0
763.18,23.0
763.24,28.0
763.31,31.0
763.37,25.0
763.43,2.0
763.5,24.0
763.56,42.0
763.62,26.0
763.69,35.0
763.75,30.0
763.81,46.0
763.87,32.0
763.94,29.0
764.0,21.0
764.06,16.0
764.13,4.0
764.19,29.0
764.25,40.0
764.32,24.0
764.38,10.0
764.44,6.0
764.5,33.0
764.57,23.0
764.63,21.0
764.69,20.0
764.76,28.0
764.82,37.0
764.88,24.0
764.95,23.0
765.01,44.0
765.07,39.0
765.13,31.0
765.2,33.0
765.26,39.0
765.32,53.0
765.39,42.0
765.45,48.0
765.51,53.0
765.58,52.0
765.64,54.0
765.7,21.0
765.76,31.0
765.83,45.0
765.89,45.0
765.95,42.0
766.02,43.0
766.08,28.0
766.14,67.0
766.21,59.0
766.27,54.0
766.33,74.0
766.39,97.0
766.46,85.0
766.52,99.0
766.58,81.0
766.65,88.0
766.71,87.0
766.77,84.0
766.84,99.0
766.9,92.0
766.96,82.0
767.02,96.0
767.09,84.0
767.15,85.0
767.21,81.0
767.28,82.0
767.34,67.0
767.4,73.0
767.47,63.0
767.53,67.0
767.59,81.0
767.65,94.0
767.72,87.0
767.78,81.0
767.84,78.0
767.91,78.0
767.97,66.0
768.03,57.0
768.1,70.0
768.16,60.0
768.22,36.0
768.28,44.0
768.35,47.0
768.41,59.0
768.47,18.0
768.54,31.0
768.6,19.0
768.66,41.0
768.73,53.0
768.79,33.0
768.85,62.0
768.91,62.0
768.98,76.0
769.04,65.0
769.1,68.0
769.17,65.0
769.23,95.0
769.29,79.0
769.36,90.0
769.42,102.0
769.48,63.0
769.54,99.0
769.61,84.0
769.67,92.0
769.73,82.0
769.8,93.0
769.86,79.0
769.92,55.0
769.99,70.0
770.05,67.0
770.11,89.0
770.17,74.0
770.24,55.0
770.3,44.0
770.36,48.0
770.43,80.0
770.49,41.0
770.55,57.0
770.62,82.0
770.68,77.0
770.74,85.0
770.8,77.0
770.87,70.0
770.93,85.0
770.99,92.0
771.06,96.0
771.12,92.0
771.18,79.0
771.25,82.0
771.31,88.0
771.37,95.0
771.43,82.0
771.5,67.0
771.56,91.0
771.62,96.0
771.69,88.0
771.75,100.0
771.81,86.0
771.88,104.0
771.94,87.0
772.0,73.0
772.06,93.0
772.13,79.0
772.19,105.0
772.25,84.0
772.32,92.0
772.38,71.0
772.44,74.0
772.51,81.0
772.57,56.0
772.63,80.0
772.69,76.0
772.76,63.0
772.82,81.0
772.88,93.0
772.95,86.0
773.01,69.0
773.07,80.0
773.14,67.0
773.2,57.0
773.26,73.0
773.32,77.0
773.39,92.0
773.45,80.0
773.51,86.0
773.58,82.0
773.64,65.0
773.7,73.0
773.77,64.0
773.83,37.0
773.89,30.0
773.95,35.0
774.02,55.0
774.08,61.0
774.14,63.0
774.21,64.0
774.27,65.0
774.33,81.0
774.4,93.0
774.46,93.0
774.52,98.0
774.58,105.0
774.65,128.0
774.71,135.0
774.77,102.0
774.84,104.0
774.9,110.0
774.96,98.0
775.03,107.0
775.09,120.0
775.15,123.0
775.21,130.0
775.28,113.0
775.34,123.0
775.4,129.0
775.47,133.0
775.53,117.0
775.59,126.0
775.66,130.0
775.72,124.0
775.78,147.0
775.84,129.0
775.91,138.0
775.97,122.0
776.03,125.0
776.1,116.0
776.16,139.0
776.22,149.0
776.29,124.0
776.35,125.0
776.41,133.0
776.47,119.0
776.54,137.0
776.6,126.0
776.66,154.0
776.73,162.0
776.79,145.0
776.85,160.0
776.92,126.0
776.98,137.0
777.04,123.0
777.1,143.0
777.17,150.0
777.23,132.0
777.29,147.0
777.36,168.0
777.42,165.0
777.48,145.0
777.55,135.0
777.61,179.0
777.67,172.0
777.73,158.0
777.8,158.0
777.86,143.0
777.92,143.0
777.99,161.0
778.05,179.0
778.11,161.0
778.18,148.0
778.24,130.0
778.3,133.0
778.36,139.0
778.43,165.0
778.49,172.0
778.55,147.0
778.62,162.0
778.68,175.0
778.74,163.0
778.81,184.0
778.87,182.0
778.93,175.0
778.99,190.0
779.06,172.0
779.12,172.0
779.18,153.0
779.25,155.0
779.31,154.0
779.37,135.0
779.44,134.0
779.5,129.0
779.56,131.0
779.62,134.0
779.69,123.0
779.75,139.0
779.81,131.0
779.88,130.0
779.94,119.0
780.0,117.0
780.07,101.0
780.13,96.0
780.19,106.0
780.25,104.0
780.32,125.0
780.38,111.0
780.44,112.0
780.51,109.0
780.57,99.0
780.63,93.0
780.7,111.0
780.76,103.0
780.82,105.0
780.88,117.0
780.95,101.0
781.01,120.0
781.07,100.0
781.14,113.0
781.2,121.0
781.26,109.0
781.33,107.0
781.39,104.0
781.45,117.0
781.51,100.0
781.58,106.0
781.64,125.0
781.7,112.0
781.77,114.0
781.83,123.0
781.89,142.0
781.96,145.0
782.02,130.0
782.08,117.0
782.14,116.0
782.21,116.0
782.27,123.0
782.33,128.0
782.4,126.0
782.46,131.0
782.52,139.0
782.59,125.0
782.65,137.0
782.71,150.0
782.77,155.0
782.84,144.0
782.9,132.0
782.96,147.0
783.03,149.0
783.09,142.0
783.15,158.0
783.22,154.0
783.28,168.0
783.34,184.0
783.4,178.0
783.47,184.0
783.53,169.0
783.59,165.0
783.66,171.0
783.72,175.0
783.78,170.0
783.85,155.0
783.91,135.0
783.97,155.0
784.03,152.0
784.1,135.0
784.16,139.0
784.22,132.0
784.29,140.0
784.35,131.0
784.41,150.0
784.48,139.0
784.54,132.0
784.6,117.0
784.66,125.0
784.73,130.0
784.79,137.0
784.85,140.0
784.92,123.0
784.98,146.0
785.04,133.0
785.11,109.0
785.17,118.0
785.23,130.0
785.29,120.0
785.36,137.0
785.42,131.0
785.48,115.0
785.55,106.0
785.61,98.0
785.67,89.0
785.74,75.0
785.8,84.0
785.86,96.0
785.92,83.0
785.99,89.0
786.05,100.0
786.11,93.0
786.18,93.0
786.24,92.0
786.3,104.0
786.37,100.0
786.43,111.0
786.49,114.0
786.55,95.0
786.62,101.0
786.68,79.0
786.74,62.0
786.81,81.0
786.87,79.0
786.93,74.0
787.0,80.0
787.06,52.0
787.12,62.0
787.18,74.0
787.25,66.0
787.31,80.0
787.37,73.0
787.44,71.0
787.5,68.0
787.56,31.0
787.63,59.0
787.69,51.0
787.75,30.0
787.81,19.0
787.88,38.0
787.94,36.0
788.0,41.0
788.07,52.0
788.13,48.0
788.19,54.0
788.26,65.0
788.32,70.0
788.38,90.0
788.44,74.0
788.51,66.0
788.57,57.0
788.63,49.0
788.7,60.0
788.76,52.0
788.82,44.0
788.89,57.0
788.95,49.0
789.01,39.0
789.07,32.0
789.14,15.0
789.2,43.0
789.26,41.0
789.33,31.0
789.39,21.0
789.45,16.0
789.52,28.0
789.58,43.0
789.64,31.0
789.7,13.0
789.77,18.0
789.83,34.0
789.89,21.0
789.96,8.0
790.02,35.0
790.08,6.0
790.15,1.0
790.21,37.0
790.27,46.0
790.33,31.0
790.4,28.0
790.46,36.0
790.52,6.0
790.59,8.0
790.65,1.0
790.71,-3.0
790.78,18.0
790.84,26.0
790.9,-1.0
790.96,30.0
791.03,21.0
791.09,14.0
791.15,6.0
791.22,19.0
791.28,8.0
791.34,-6.0
791.41,3.0
791.47,38.0
791.53,37.0
791.59,37.0
791.66,54.0
791.72,59.0
791.78,69.0
791.85,41.0
791.91,55.0
791.97,72.0
792.04,53.0
792.1,52.0
792.16,59.0
792.22,54.0
792.29,68.0
792.35,80.0
792.41,75.0
792.48,78.0
792.54,71.0
792.6,72.0
792.67,72.0
792.73,72.0
792.79,57.0
792.85,65.0
792.92,66.0
792.98,44.0
793.04,65.0
793.11,65.0
793.17,68.0
793.23,43.0
793.3,37.0
793.36,49.0
793.42,72.0
793.48,69.0
793.55,61.0
793.61,67.0
793.67,63.0
793.74,62.0
793.8,79.0
793.86,80.0
793.93,57.0
793.99,71.0
794.05,55.0
794.11,50.0
794.18,60.0
794.24,47.0
794.3,44.0
794.37,57.0
794.43,54.0
794.49,71.0
794.56,89.0
794.62,78.0
794.68,78.0
794.74,87.0
794.81,61.0
794.87,91.0
794.93,63.0
795.0,66.0
795.06,64.0
795.12,62.0
795.19,68.0
795.25,56.0
795.31,72.0
795.37,83.0
795.44,105.0
795.5,80.0
795.56,68.0
795.63,72.0
795.69,60.0
795.75,72.0
795.82,64.0
795.88,53.0
795.94,66.0
796.0,50.0
796.07,94.0
796.13,86.0
796.19,54.0
796.26,61.0
796.32,57.0
796.38,46.0
796.45,28.0
796.51,46.0
796.57,18.0
796.63,5.0
796.7,20.0
796.76,47.0
796.82,75.0
796.89,56.0
796.95,61.0
797.01,51.0
797.08,30.0
797.14,39.0
797.2,75.0
797.26,81.0
797.33,67.0
797.39,38.0
797.45,43.0
797.52,64.0
797.58,49.0
797.64,46.0
797.71,61.0
797.77,69.0
797.83,76.0
797.89,88.0
797.96,91.0
798.02,75.0
798.08,91.0
798.15,104.0
798.21,105.0
798.27,106.0
798.34,104.0
798.4,79.0
798.46,74.0
798.52,57.0
798.59,57.0
798.65,89.0
798.71,91.0
798.78,94.0
798.84,55.0
798.9,46.0
798.97,58.0
799.03,52.0
799.09,69.0
799.15,71.0
799.22,75.0
799.28,69.0
799.34,50.0
799.41,82.0
799.47,74.0
799.53,105.0
799.6,118.0
799.66,108.0
799.72,95.0
799.78,103.0
799.85,102.0
799.91,120.0
799.97,113.0
800.04,113.0
800.1,128.0
800.16,119.0
800.23,138.0
800.29,151.0
800.35,134.0
800.41,141.0
800.48,131.0
800.54,126.0
800.6,119.0
800.67,125.0
800.73,124.0
800.79,124.0
800.86,127.0
800.92,142.0
800.98,122.0
801.04,110.0
801.11,133.0
801.17,161.0
801.23,142.0
801.3,130.0
801.36,137.0
801.42,135.0
801.49,137.0
801.55,147.0
801.61,129.0
801.67,124.0
801.74,123.0
801.8,108.0
801.86,126.0
801.93,134.0
801.99,132.0
802.05,152.0
802.12,141.0
802.18,119.0
802.24,104.0
802.3,115.0
802.37,105.0
802.43,122.0
802.49,110.0
802.56,105.0
802.62,112.0
802.68,99.0
802.75,123.0
802.81,124.0
802.87,143.0
802.93,143.0
803.0,148.0
803.06,140.0
803.12,122.0
803.19,131.0
803.25,124.0
803.31,131.0
803.38,127.0
803.44,120.0
803.5,110.0
803.56,106.0
803.63,104.0
803.69,115.0
803.75,116.0
803.82,110.0
803.88,118.0
803.94,118.0
804.01,116.0
804.07,120.0
804.13,105.0
804.19,94.0
804.26,101.0
804.32,119.0
804.38,93.0
804.45,94.0
804.51,130.0
804.57,110.0
804.64,108.0
804.7,126.0
804.76,111.0
804.82,85.0
804.89,105.0
804.95,104.0
805.01,73.0
805.08,87.0
805.14,98.0
805.2,102.0
805.27,87.0
805.33,67.0
805.39,65.0
805.45,65.0
805.52,51.0
805.58,60.0
805.64,59.0
805.71,71.0
805.77,65.0
805.83,51.0
805.9,71.0
805.96,63.0
806.02,69.0
806.08,75.0
806.15,68.0
806.21,95.0
806.27,105.0
806.34,87.0
806.4,76.0
806.46,82.0
806.53,69.0
806.59,65.0
806.65,79.0
806.71,87.0
806.78,63.0
806.84,65.0
806.9,75.0
806.97,76.0
807.03,61.0
807.09,70.0
807.16,68.0
807.22,47.0
807.28,56.0
807.34,52.0
807.41,51.0
807.47,72.0
807.53,86.0
807.6,87.0
807.66,93.0
807.72,78.0
807.79,86.0
807.85,84.0
807.91,82.0
807.97,87.0
808.04,82.0
808.1,92.0
808.16,82.0
808.23,72.0
808.29,73.0
808.35,77.0
808.42,77.0
808.48,83.0
808.54,77.0
808.6,81.0
808.67,87.0
808.73,68.0
808.79,51.0
808.86,82.0
808.92,79.0
808.98,99.0
809.05,107.0
809.11,112.0
809.17,118.0
809.23,118.0
809.3,117.0
809.36,112.0
809.42,107.0
809.49,90.0
809.55,96.0
809.61,87.0
809.68,88.0
809.74,76.0
809.8,71.0
809.86,70.0
809.93,62.0
809.99,72.0
810.05,74.0
810.12,80.0
810.18,81.0
810.24,86.0
810.31,100.0
810.37,100.0
810.43,98.0
810.49,91.0
810.56,105.0
810.62,104.0
810.68,105.0
810.75,96.0
810.81,109.0
810.87,112.0
810.94,122.0
811.0,122.0
811.06,115.0
811.12,112.0
811.19,104.0
811.25,96.0
811.31,102.0
811.38,132.0
811.44,135.0
811.5,157.0
811.57,134.0
811.63,113.0
811.69,121.0
811.75,127.0
811.82,119.0
811.88,101.0
811.94,98.0
812.01,94.0
812.07,90.0
812.13,76.0
812.2,88.0
812.26,90.0
812.32,87.0
812.38,90.0
812.45,103.0
812.51,78.0
812.57,83.0
812.64,97.0
812.7,92.0
812.76,88.0
812.83,75.0
812.89,60.0
812.95,70.0
813.01,79.0
813.08,92.0
813.14,98.0
813.2,101.0
813.27,90.0
813.33,78.0
813.39,74.0
813.46,55.0
813.52,69.0
813.58,72.0
813.64,70.0
813.71,63.0
813.77,66.0
813.83,63.0
813.9,45.0
813.96,36.0
814.02,62.0
814.09,48.0
814.15,54.0
814.21,44.0
814.27,36.0
814.34,47.0
814.4,20.0
814.46,38.0
814.53,35.0
814.59,18.0
814.65,31.0
814.72,45.0
814.78,31.0
814.84,23.0
814.9,63.0
814.97,44.0
815.03,43.0
815.09,76.0
815.16,62.0
815.22,75.0
815.28,54.0
815.35,63.0
815.41,67.0
815.47,86.0
815.53,64.0
815.6,73.0
815.66,68.0
815.72,70.0
815.79,85.0
815.85,92.0
815.91,79.0
815.98,93.0
816.04,90.0
816.1,68.0
816.16,83.0
816.23,83.0
816.29,90.0
816.35,101.0
816.42,114.0
816.48,108.0
816.54,108.0
816.61,112.0
816.67,127.0
816.73,128.0
816.79,126.0
816.86,105.0
816.92,107.0
816.98,93.0
817.05,117.0
817.11,106.0
817.17,107.0
817.24,118.0
817.3,103.0
817.36,99.0
817.42,109.0
817.49,85.0
817.55,108.0
817.61,100.0
817.68,91.0
817.74,114.0
817.8,106.0
817.87,99.0
817.93,120.0
817.99,99.0
818.05,103.0
818.12,74.0
818.18,99.0
818.24,104.0
818.31,96.0
818.37,94.0
818.43,90.0
818.5,93.0
818.56,83.0
818.62,76.0
818.68,58.0
818.75,70.0
818.81,66.0
818.87,73.0
818.94,84.0
819.0,82.0
819.06,101.0
819.13,106.0
819.19,101.0
819.25,81.0
819.31,93.0
819.38,87.0
819.44,99.0
819.5,101.0
819.57,93.0
819.63,94.0
819.69,101.0
819.76,101.0
819.82,101.0
819.88,109.0
819.94,105.0
820.01,88.0
820.07,101.0
820.13,107.0
820.2,93.0
820.26,85.0
820.32,88.0
820.39,94.0
820.45,79.0
820.51,65.0
820.57,85.0
820.64,57.0
820.7,57.0
820.76,48.0
820.83,58.0
820.89,80.0
820.95,49.0
821.02,48.0
821.08,32.0
821.14,31.0
821.2,56.0
821.27,48.0
821.33,54.0
821.39,55.0
821.46,62.0
821.52,56.0
821.58,57.0
821.65,49.0
821.71,30.0
821.77,59.0
821.83,71.0
821.9,42.0
821.96,53.0
822.02,70.0
822.09,43.0
822.15,54.0
822.21,69.0
822.28,73.0
822.34,67.0
822.4,75.0
822.46,36.0
822.53,58.0
822.59,81.0
822.65,67.0
822.72,57.0
822.78,64.0
822.84,61.0
822.91,43.0
822.97,29.0
823.03,33.0
823.09,65.0
823.16,57.0
823.22,53.0
823.28,45.0
823.35,40.0
823.41,68.0
823.47,58.0
823.54,30.0
823.6,44.0
823.66,37.0
823.72,35.0
823.79,27.0
823.85,13.0
823.91,30.0
823.98,29.0
824.04,36.0
824.1,64.0
824.17,91.0
824.23,77.0
824.29,50.0
824.35,55.0
824.42,78.0
824.48,59.0
824.54,47.0
824.61,70.0
824.67,57.0
824.73,64.0
824.8,70.0
824.86,74.0
824.92,67.0
824.98,57.0
825.05,58.0
825.11,50.0
825.17,52.0
825.24,46.0
825.3,35.0
825.36,42.0
825.43,53.0
825.49,34.0
825.55,41.0
825.61,14.0
825.68,25.0
825.74,27.0
825.8,1.0
825.87,17.0
825.93,32.0
825.99,39.0
826.06,39.0
826.12,60.0
826.18,48.0
826.24,28.0
826.31,60.0
826.37,50.0
826.43,57.0
826.5,94.0
826.56,96.0
826.62,131.0
826.69,129.0
826.75,125.0
826.81,143.0
826.87,165.0
826.94,166.0
827.0,153.0
827.06,129.0
827.13,132.0
827.19,129.0
827.25,128.0
827.32,126.0
827.38,138.0
827.44,151.0
827.5,129.0
827.57,108.0
827.63,116.0
827.69,124.0
827.76,127.0
827.82,129.0
827.88,109.0
827.95,121.0
828.01,105.0
828.07,130.0
828.13,117.0
828.2,117.0
828.26,172.0
828.32,148.0
828.39,154.0
828.45,161.0
828.51,157.0
828.58,138.0
828.64,136.0
828.7,140.0
828.76,121.0
828.83,149.0
828.89,136.0
828.95,80.0
829.02,102.0
829.08,108.0
829.14,112.0
829.21,105.0
829.27,113.0
829.33,115.0
829.39,101.0
829.46,83.0
829.52,75.0
829.58,71.0
829.65,72.0
829.71,65.0
829.77,63.0
829.84,72.0
829.9,90.0
829.96,64.0
830.02,84.0
830.09,83.0
830.15,64.0
830.21,62.0
830.28,70.0
830.34,86.0
830.4,85.0
830.47,69.0
830.53,90.0
830.59,66.0
830.65,74.0
830.72,85.0
830.78,118.0
830.84,106.0
830.91,110.0
830.97,101.0
831.03,103.0
831.1,95.0
831.16,104.0
831.22,131.0
831.28,111.0
831.35,78.0
831.41,93.0
831.47,94.0
831.54,96.0
831.6,100.0
831.66,95.0
831.73,90.0
831.79,101.0
831.85,103.0
831.91,96.0
831.98,98.0
832.04,104.0
832.1,108.0
832.17,93.0
832.23,99.0
832.29,78.0
832.36,68.0
832.42,85.0
832.48,98.0
832.54,75.0
832.61,91.0
832.67,105.0
832.73,93.0
832.8,107.0
832.86,103.0
832.92,108.0
832.99,122.0
833.05,126.0
833.11,124.0
833.17,131.0
833.24,148.0
833.3,131.0
833.36,136.0
833.43,139.0
833.49,138.0
833.55,145.0
833.62,134.0
833.68,128.0
833.74,125.0
833.8,118.0
833.87,112.0
833.93,128.0
833.99,124.0
834.06,123.0
834.12,113.0
834.18,127.0
834.25,111.0
834.31,105.0
834.37,119.0
834.43,126.0
834.5,131.0
834.56,120.0
834.62,119.0
834.69,98.0
834.75,124.0
834.81,144.0
834.88,126.0
834.94,140.0
835.0,107.0
835.06,121.0
835.13,100.0
835.19,95.0
835.25,112.0
835.32,113.0
835.38,127.0
835.44,144.0
835.51,111.0
835.57,115.0
835.63,94.0
835.69,82.0
835.76,106.0
835.82,110.0
835.88,108.0
835.95,104.0
836.01,104.0
836.07,103.0
836.14,116.0
836.2,132.0
836.26,127.0
836.32,135.0
836.39,125.0
836.45,119.0
836.51,110.0
836.58,126.0
836.64,111.0
836.7,108.0
836.77,117.0
836.83,108.0
836.89,127.0
836.95,102.0
837.02,94.0
837.08,122.0
837.14,124.0
837.21,126.0
837.27,87.0
837.33,104.0
837.4,96.0
837.46,96.0
837.52,113.0
837.58,108.0
837.65,112.0
837.71,134.0
837.77,95.0
837.84,115.0
837.9,127.0
837.96,93.0
838.03,141.0
838.09,130.0
838.15,143.0
838.21,140.0
838.28,130.0
838.34,113.0
838.4,101.0
838.47,116.0
838.53,107.0
838.59,105.0
838.66,95.0
838.72,121.0
838.78,134.0
838.84,98.0
838.91,99.0
838.97,92.0
839.03,75.0
839.1,72.0
839.16,94.0
839.22,81.0
839.29,91.0
839.35,92.0
839.41,72.0
839.47,83.0
839.54,102.0
839.6,102.0
839.66,90.0
839.73,86.0
839.79,102.0
839.85,77.0
839.92,92.0
839.98,84.0
840.04,99.0
840.1,89.0
840.17,86.0
840.23,91.0
840.29,80.0
840.36,90.0
840.42,96.0
840.48,73.0
840.55,87.0
840.61,79.0
840.67,60.0
840.73,67.0
840.8,69.0
840.86,93.0
840.92,90.0
840.99,68.0
841.05,73.0
841.11,76.0
841.18,53.0
841.24,87.0
841.3,80.0
841.36,101.0
841.43,100.0
841.49,79.0
841.55,108.0
841.62,102.0
841.68,100.0
841.74,87.0
841.81,112.0
841.87,115.0
841.93,125.0
841.99,109.0
842.06,97.0
842.12,144.0
842.18,124.0
842.25,116.0
842.31,115.0
842.37,145.0
842.44,140.0
842.5,124.0
842.56,130.0
842.62,125.0
842.69,125.0
842.75,113.0
842.81,126.0
842.88,120.0
842.94,132.0
843.0,131.0
843.07,131.0
843.13,110.0
843.19,107.0
843.25,118.0
843.32,121.0
843.38,130.0
843.44,145.0
843.51,145.0
843.57,119.0
843.63,137.0
843.7,129.0
843.76,141.0
843.82,148.0
843.88,146.0
843.95,121.0
844.01,136.0
844.07,137.0
844.14,125.0
844.2,127.0
844.26,143.0
844.33,128.0
844.39,119.0
844.45,108.0
844.51,115.0
844.58,123.0
844.64,108.0
844.7,112.0
844.77,102.0
844.83,117.0
844.89,79.0
844.96,90.0
845.02,104.0
845.08,110.0
845.14,114.0
845.21,97.0
845.27,103.0
845.33,85.0
845.4,89.0
845.46,91.0
845.52,96.0
845.59,105.0
845.65,87.0
845.71,91.0
845.77,57.0
845.84,49.0
845.9,46.0
845.96,43.0
846.03,64.0
846.09,57.0
846.15,47.0
846.22,49.0
846.28,44.0
846.34,56.0
846.4,65.0
846.47,54.0
846.53,43.0
846.59,53.0
846.66,50.0
846.72,47.0
846.78,47.0
846.85,50.0
846.91,50.0
846.97,47.0
847.03,43.0
847.1,30.0
847.16,39.0
847.22,35.0
847.29,10.0
847.35,13.0
847.41,11.0
847.48,17.0
847.54,9.0
847.6,32.0
847.66,28.0
847.73,-2.0
847.79,-1.0
847.85,-6.0
847.92,-14.0
847.98,-11.0
848.04,6.0
848.11,22.0
848.17,2.0
848.23,16.0
848.29,-6.0
848.36,-6.0
848.42,-20.0
848.48,-2.0
848.55,14.0
848.61,-11.0
848.67,5.0
848.74,-1.0
848.8,29.0
848.86,11.0
848.92,-12.0
848.99,20.0
849.05,12.0
849.11,13.0
849.18,5.0
849.24,20.0
849.3,25.0
849.37,10.0
849.43,12.0
849.49,20.0
849.55,5.0
849.62,18.0
849.68,16.0
849.74,6.0
849.81,10.0
849.87,27.0
849.93,31.0
850.0,13.0
850.06,25.0
850.12,17.0
850.18,3.0
850.25,9.0
850.31,18.0
850.37,17.0
850.44,38.0
850.5,26.0
850.56,15.0
850.63,27.0
850.69,11.0
850.75,6.0
850.81,9.0
850.88,16.0
850.94,28.0
851.0,30.0
851.07,18.0
851.13,16.0
851.19,19.0
851.26,27.0
851.32,30.0
851.38,31.0
851.44,33.0
851.51,25.0
851.57,32.0
851.63,27.0
851.7,38.0
851.76,35.0
851.82,31.0
851.89,31.0
851.95,18.0
852.01,4.0
852.07,14.0
852.14,44.0
852.2,59.0
852.26,52.0
852.33,75.0
852.39,50.0
852.45,47.0
852.52,48.0
852.58,53.0
852.64,58.0
852.7,90.0
852.77,90.0
852.83,70.0
852.89,82.0
852.96,72.0
853.02,71.0
853.08,92.0
853.15,79.0
853.21,72.0
853.27,82.0
853.33,68.0
853.4,62.0
853.46,45.0
853.52,68.0
853.59,82.0
853.65,91.0
853.71,80.0
853.78,80.0
853.84,80.0
853.9,105.0
853.96,101.0
854.03,89.0
854.09,77.0
854.15,61.0
854.22,39.0
854.28,44.0
854.34,63.0
854.41,65.0
854.47,85.0
854.53,57.0
854.59,69.0
854.66,56.0
854.72,69.0
854.78,71.0
854.85,53.0
854.91,84.0
854.97,50.0
855.04,47.0
855.1,56.0
855.16,54.0
855.22,77.0
855.29,68.0
855.35,66.0
855.41,59.0
855.48,61.0
855.54,68.0
855.6,61.0
855.67,65.0
855.73,59.0
855.79,73.0
855.85,72.0
855.92,81.0
855.98,95.0
856.04,96.0
856.11,89.0
856.17,85.0
856.23,96.0
856.3,81.0
856.36,102.0
856.42,108.0
856.48,74.0
856.55,75.0
856.61,75.0
856.67,79.0
856.74,87.0
856.8,65.0
856.86,64.0
856.93,66.0
856.99,47.0
857.05,75.0
857.11,79.0
857.18,85.0
857.24,90.0
857.3,83.0
857.37,90.0
857.43,92.0
857.49,79.0
857.56,72.0
857.62,77.0
857.68,91.0
857.74,69.0
857.81,67.0
857.87,72.0
857.93,84.0
858.0,88.0
858.06,77.0
858.12,101.0
858.19,88.0
858.25,75.0
858.31,78.0
858.37,90.0
858.44,107.0
858.5,104.0
858.56,94.0
858.63,101.0
858.69,130.0
858.75,113.0
858.82,108.0
858.88,112.0
858.94,120.0
859.0,117.0
859.07,115.0
859.13,113.0
859.19,111.0
859.26,125.0
859.32,145.0
859.38,143.0
859.45,129.0
859.51,119.0
859.57,122.0
859.63,128.0
859.7,141.0
859.76,138.0
859.82,137.0
859.89,126.0
859.95,119.0
860.01,129.0
860.08,129.0
860.14,131.0
860.2,142.0
860.26,152.0
860.33,164.0
860.39,156.0
860.45,122.0
860.52,126.0
860.58,137.0
860.64,140.0
860.71,141.0
860.77,152.0
860.83,136.0
860.89,109.0
860.96,124.0
861.02,115.0
861.08,157.0
861.15,168.0
861.21,181.0
861.27,138.0
861.34,117.0
861.4,126.0
861.46,139.0
861.52,153.0
861.59,148.0
861.65,161.0
861.71,155.0
861.78,153.0
861.84,160.0
861.9,166.0
861.97,170.0
862.03,179.0
862.09,166.0
862.15,166.0
862.22,157.0
862.28,132.0
862.34,137.0
862.41,110.0
862.47,143.0
862.53,166.0
862.6,173.0
862.66,157.0
862.72,163.0
862.78,182.0
862.85,144.0
862.91,146.0
862.97,141.0
863.04,120.0
863.1,112.0
863.16,97.0
863.23,111.0
863.29,117.0
863.35,115.0
863.41,123.0
863.48,119.0
863.54,110.0
863.6,109.0
863.67,109.0
863.73,107.0
863.79,110.0
863.86,110.0
863.92,120.0
863.98,110.0
864.04,107.0
864.11,114.0
864.17,113.0
864.23,113.0
864.3,96.0
864.36,103.0
864.42,117.0
864.49,87.0
864.55,102.0
864.61,125.0
864.67,110.0
864.74,114.0
864.8,135.0
864.86,112.0
864.93,115.0
864.99,121.0
865.05,113.0
865.12,111.0
865.18,119.0
865.24,116.0
865.3,118.0
865.37,119.0
865.43,94.0
865.49,96.0
865.56,105.0
865.62,118.0
865.68,104.0
865.75,122.0
865.81,91.0
865.87,91.0
865.93,118.0
866.0,93.0
866.06,98.0
866.12,82.0
866.19,83.0
866.25,88.0
866.31,93.0
866.38,76.0
866.44,68.0
866.5,78.0
866.56,78.0
866.63,86.0
866.69,87.0
866.75,99.0
866.82,106.0
866.88,86.0
866.94,102.0
867.01,106.0
867.07,102.0
867.13,97.0
867.19,104.0
867.26,78.0
867.32,94.0
867.38,81.0
867.45,89.0
867.51,87.0
867.57,82.0
867.64,89.0
867.7,97.0
867.76,78.0
867.82,75.0
867.89,93.0
867.95,98.0
868.01,110.0
868.08,110.0
868.14,134.0
868.2,134.0
868.27,111.0
868.33,104.0
868.39,121.0
868.45,100.0
868.52,115.0
868.58,109.0
868.64,100.0
868.71,105.0
868.77,82.0
868.83,126.0
868.9,113.0
868.96,104.0
869.02,97.0
869.08,102.0
869.15,97.0
869.21,91.0
869.27,92.0
869.34,80.0
869.4,93.0
869.46,97.0
869.53,100.0
869.59,90.0
869.65,90.0
869.71,103.0
869.78,101.0
869.84,99.0
869.9,104.0
869.97,116.0
870.03,118.0
870.09,146.0
870.16,152.0
870.22,126.0
870.28,146.0
870.34,142.0
870.41,126.0
870.47,105.0
870.53,111.0
870.6,122.0
870.66,96.0
870.72,102.0
870.79,75.0
870.85,106.0
870.91,102.0
870.97,86.0
871.04,97.0
871.1,96.0
871.16,125.0
871.23,109.0
871.29,92.0
871.35,94.0
871.42,91.0
871.48,99.0
871.54,83.0
871.6,82.0
871.67,75.0
871.73,58.0
871.79,75.0
871.86,85.0
871.92,89.0
871.98,58.0
872.05,64.0
872.11,49.0
872.17,45.0
872.23,49.0
872.3,48.0
872.36,37.0
872.42,28.0
872.49,43.0
872.55,31.0
872.61,48.0
872.68,65.0
872.74,53.0
872.8,18.0
872.86,8.0
872.93,16.0
872.99,25.0
873.05,38.0
873.12,21.0
873.18,18.0
873.24,18.0
873.31,-9.0
873.37,-7.0
873.43,4.0
873.49,17.0
873.56,4.0
873.62,-19.0
873.68,-30.0
873.75,-23.0
873.81,-34.0
873.87,-9.0
873.94,-14.0
874.0,2.0
874.06,14.0
874.12,-8.0
874.19,-22.0
874.25,0.0
874.31,24.0
874.38,33.0
874.44,47.0
874.5,33.0
874.57,21.0
874.63,35.0
874.69,29.0
874.75,34.0
874.82,61.0
874.88,55.0
874.94,72.0
875.01,31.0
875.07,35.0
875.13,27.0
875.2,19.0
875.26,12.0
875.32,7.0
875.38,52.0
875.45,46.0
875.51,53.0
875.57,58.0
875.64,46.0
875.7,39.0
875.76,40.0
875.83,38.0
875.89,46.0
875.95,36.0
876.01,33.0
876.08,23.0
876.14,38.0
876.2,30.0
876.27,58.0
876.33,66.0
876.39,66.0
876.46,57.0
876.52,67.0
876.58,58.0
876.64,61.0
876.71,91.0
876.77,72.0
876.83,83.0
876.9,64.0
876.96,57.0
877.02,65.0
877.09,81.0
877.15,99.0
877.21,74.0
877.27,75.0
877.34,77.0
877.4,76.0
877.46,90.0
877.53,55.0
877.59,70.0
877.65,94.0
877.72,98.0
877.78,109.0
877.84,104.0
877.9,97.0
877.97,112.0
878.03,123.0
878.09,110.0
878.16,114.0
878.22,126.0
878.28,118.0
878.35,124.0
878.41,119.0
878.47,111.0
878.53,112.0
878.6,127.0
878.66,128.0
878.72,104.0
878.79,110.0
878.85,113.0
878.91,120.0
878.98,146.0
879.04,145.0
879.1,144.0
879.16,130.0
879.23,142.0
879.29,148.0
879.35,107.0
879.42,132.0
879.48,138.0
879.54,156.0
879.61,141.0
879.67,143.0
879.73,131.0
879.79,131.0
879.86,126.0
879.92,130.0
879.98,130.0
880.05,142.0
880.11,127.0
880.17,118.0
880.24,133.0
880.3,100.0
880.36,120.0
880.42,120.0
880.49,109.0
880.55,95.0
880.61,102.0
880.68,103.0
880.74,91.0
880.8,102.0
880.87,93.0
880.93,105.0
880.99,113.0
881.05,93.0
881.12,102.0
881.18,148.0
881.24,123.0
881.31,123.0
881.37,133.0
881.43,94.0
881.5,101.0
881.56,129.0
881.62,116.0
881.68,115.0
881.75,112.0
881.81,142.0
881.87,124.0
881.94,128.0
882.0,151.0
882.06,140.0
882.13,134.0
882.19,124.0
882.25,124.0
882.31,143.0
882.38,158.0
882.44,145.0
882.5,146.0
882.57,145.0
882.63,151.0
882.69,158.0
882.76,151.0
882.82,133.0
882.88,153.0
882.94,164.0
883.01,148.0
883.07,172.0
883.13,148.0
883.2,171.0
883.26,153.0
883.32,182.0
883.39,168.0
883.45,159.0
883.51,169.0
883.57,162.0
883.64,168.0
883.7,201.0
883.76,182.0
883.83,198.0
883.89,171.0
883.95,171.0
884.02,175.0
884.08,153.0
884.14,178.0
884.2,165.0
884.27,180.0
884.33,200.0
884.39,166.0
884.46,163.0
884.52,164.0
884.58,151.0
884.65,156.0
884.71,164.0
884.77,173.0
884.83,178.0
884.9,159.0
884.96,170.0
885.02,179.0
885.09,183.0
885.15,187.0
885.21,185.0
885.28,171.0
885.34,170.0
885.4,162.0
885.46,145.0
885.53,179.0
885.59,186.0
885.65,192.0
885.72,185.0
885.78,185.0
885.84,202.0
885.91,181.0
885.97,195.0
886.03,178.0
886.09,196.0
886.16,230.0
886.22,209.0
886.28,194.0
886.35,191.0
886.41,201.0
886.47,193.0
886.54,197.0
886.6,203.0
886.66,192.0
886.72,169.0
886.79,171.0
886.85,169.0
886.91,156.0
886.98,151.0
887.04,152.0
887.1,167.0
887.17,162.0
887.23,146.0
887.29,151.0
887.35,149.0
887.42,157.0
887.48,153.0
887.54,130.0
887.61,131.0
887.67,133.0
887.73,122.0
887.8,151.0
887.86,166.0
887.92,142.0
887.98,157.0
888.05,161.0
888.11,153.0
888.17,160.0
888.24,164.0
888.3,149.0
888.36,135.0
888.43,146.0
888.49,131.0
888.55,142.0
888.61,118.0
888.68,110.0
888.74,142.0
888.8,115.0
888.87,116.0
888.93,120.0
888.99,117.0
889.06,113.0
889.12,111.0
889.18,120.0
889.24,109.0
889.31,87.0
889.37,102.0
889.43,112.0
889.5,123.0
889.56,123.0
889.62,114.0
889.69,124.0
889.75,99.0
889.81,106.0
889.87,88.0
889.94,85.0
890.0,71.0
890.06,79.0
890.13,93.0
890.19,65.0
890.25,70.0
890.32,86.0
890.38,87.0
890.44,75.0
890.5,93.0
890.57,71.0
890.63,86.0
890.69,81.0
890.76,100.0
890.82,93.0
890.88,90.0
890.95,114.0
891.01,107.0
891.07,83.0
891.13,83.0
891.2,96.0
891.26,76.0
891.32,68.0
891.39,73.0
891.45,83.0
891.51,79.0
891.58,71.0
891.64,80.0
891.7,86.0
891.76,99.0
891.83,76.0
891.89,82.0
891.95,83.0
892.02,74.0
892.08,88.0
892.14,49.0
892.21,53.0
892.27,68.0
892.33,65.0
892.39,76.0
892.46,69.0
892.52,84.0
892.58,50.0
892.65,54.0
892.71,61.0
892.77,96.0
892.84,69.0
892.9,67.0
892.96,86.0
893.02,105.0
893.09,97.0
893.15,107.0
893.21,108.0
893.28,101.0
893.34,87.0
893.4,73.0
893.47,74.0
893.53,118.0
893.59,101.0
893.65,109.0
893.72,97.0
893.78,110.0
893.84,121.0
893.91,111.0
893.97,99.0
894.03,96.0
894.1,104.0
894.16,108.0
894.22,102.0
894.28,120.0
894.35,123.0
894.41,126.0
894.47,116.0
894.54,112.0
894.6,128.0
894.66,116.0
894.73,102.0
894.79,95.0
894.85,122.0
894.91,86.0
894.98,96.0
895.04,121.0
895.1,83.0
895.17,99.0
895.23,111.0
895.29,104.0
895.36,109.0
895.42,106.0
895.48,88.0
895.54,94.0
895.61,114.0
895.67,132.0
895.73,134.0
895.8,116.0
895.86,121.0
895.92,110.0
895.99,123.0
896.05,109.0
896.11,108.0
896.17,98.0
896.24,93.0
896.3,93.0
896.36,85.0
896.43,92.0
896.49,67.0
896.55,55.0
896.62,66.0
896.68,88.0
896.74,84.0
896.8,76.0
896.87,78.0
896.93,78.0
896.99,53.0
897.06,68.0
897.12,94.0
897.18,61.0
897.25,68.0
897.31,56.0
897.37,53.0
897.43,76.0
897.5,54.0
897.56,61.0
897.62,57.0
897.69,58.0
897.75,63.0
897.81,35.0
897.88,32.0
897.94,35.0
898.0,25.0
898.06,29.0
898.13,22.0
898.19,29.0
898.25,38.0
898.32,15.0
898.38,13.0
898.44,20.0
898.51,14.0
898.57,24.0
898.63,30.0
898.69,30.0
898.76,36.0
898.82,17.0
898.88,7.0
898.95,11.0
899.01,9.0
899.07,24.0
899.14,2.0
899.2,3.0
899.26,17.0
899.32,14.0
899.39,12.0
899.45,2.0
899.51,6.0
899.58,-6.0
899.64,15.0
899.7,11.0
899.77,8.0
899.83,27.0
899.89,17.0
899.95,9.0
900.02,23.0
900.08,41.0
900.14,28.0
900.21,44.0
900.27,75.0
900.33,20.0
900.4,40.0
900.46,49.0
900.52,48.0
900.58,45.0
900.65,38.0
900.71,38.0
900.77,24.0
900.84,27.0
900.9,32.0
900.96,13.0
901.03,35.0
901.09,11.0
901.15,6.0
901.21,6.0
901.28,-5.0
901.34,30.0
901.4,41.0
901.47,22.0
901.53,30.0
901.59,45.0
901.66,26.0
901.72,36.0
901.78,27.0
901.84,34.0
901.91,20.0
901.97,1.0
902.03,6.0
902.1,12.0
902.16,20.0
902.22,26.0
902.29,7.0
902.35,3.0
902.41,7.0
902.47,19.0
902.54,18.0
902.6,20.0
902.66,25.0
902.73,27.0
902.79,14.0
902.85,19.0
902.92,17.0
902.98,5.0
903.04,21.0
903.1,22.0
903.17,24.0
903.23,16.0
903.29,-6.0
903.36,8.0
903.42,14.0
903.48,9.0
903.55,24.0
903.61,40.0
903.67,54.0
903.73,28.0
903.8,17.0
903.86,25.0
903.92,38.0
903.99,52.0
904.05,34.0
904.11,47.0
904.18,41.0
904.24,47.0
904.3,16.0
904.36,43.0
904.43,46.0
904.49,43.0
904.55,51.0
904.62,47.0
904.68,53.0
904.74,48.0
904.81,54.0
904.87,26.0
904.93,49.0
904.99,46.0
905.06,55.0
905.12,67.0
905.18,59.0
905.25,60.0
905.31,87.0
905.37,52.0
905.44,70.0
905.5,67.0
905.56,55.0
905.62,44.0
905.69,48.0
905.75,30.0
905.81,30.0
905.88,56.0
905.94,51.0
906.0,37.0
906.07,44.0
906.13,54.0
906.19,43.0
906.25,31.0
906.32,23.0
906.38,40.0
906.44,40.0
906.51,25.0
906.57,33.0
906.63,51.0
906.7,31.0
906.76,26.0
906.82,41.0
906.88,47.0
906.95,43.0
907.01,51.0
907.07,48.0
907.14,30.0
907.2,36.0
907.26,31.0
907.33,11.0
907.39,14.0
907.45,12.0
907.51,7.0
907.58,42.0
907.64,43.0
907.7,40.0
907.77,50.0
907.83,50.0
907.89,55.0
907.96,49.0
908.02,49.0
908.08,63.0
908.14,58.0
908.21,37.0
908.27,30.0
908.33,46.0
908.4,52.0
908.46,59.0
908.52,66.0
908.59,55.0
908.65,67.0
908.71,74.0
908.77,78.0
908.84,75.0
908.9,87.0
908.96,101.0
909.03,100.0
909.09,106.0
909.15,97.0
909.22,86.0
909.28,80.0
909.34,80.0
909.4,84.0
909.47,98.0
909.53,94.0
909.59,96.0
909.66,91.0
909.72,101.0
909.78,103.0
909.85,110.0
909.91,124.0
909.97,112.0
910.03,114.0
910.1,121.0
910.16,125.0
910.22,115.0
910.29,123.0
910.35,149.0
910.41,158.0
910.48,132.0
910.54,119.0
910.6,139.0
910.66,132.0
910.73,132.0
910.79,125.0
910.85,124.0
910.92,136.0
910.98,134.0
911.04,128.0
911.11,144.0
911.17,135.0
911.23,127.0
911.29,113.0
911.36,130.0
911.42,150.0
911.48,150.0
911.55,134.0
911.61,152.0
911.67,170.0
911.74,166.0
911.8,166.0
911.86,174.0
911.92,173.0
911.99,152.0
912.05,174.0
912.11,165.0
912.18,169.0
912.24,187.0
912.3,180.0
912.37,165.0
912.43,167.0
912.49,163.0
912.55,161.0
912.62,146.0
912.68,136.0
912.74,157.0
912.81,155.0
912.87,160.0
912.93,152.0
913.0,163.0
913.06,160.0
913.12,149.0
913.18,156.0
913.25,134.0
913.31,151.0
913.37,158.0
913.44,132.0
913.5,114.0
913.56,123.0
913.63,125.0
913.69,130.0
913.75,140.0
913.81,140.0
913.88,145.0
913.94,140.0
914.0,134.0
914.07,158.0
914.13,132.0
914.19,140.0
914.26,143.0
914.32,139.0
914.38,150.0
914.44,141.0
914.51,157.0
914.57,164.0
914.63,165.0
914.7,169.0
914.76,180.0
914.82,154.0
914.89,175.0
914.95,162.0
915.01,125.0
915.07,140.0
915.14,147.0
915.2,143.0
915.26,159.0
915.33,161.0
915.39,168.0
915.45,165.0
915.52,173.0
915.58,152.0
915.64,160.0
915.7,168.0
915.77,180.0
915.83,166.0
915.89,155.0
915.96,156.0
916.02,166.0
916.08,154.0
916.15,167.0
916.21,153.0
916.27,154.0
916.33,170.0
916.4,146.0
916.46,128.0
916.52,127.0
916.59,147.0
916.65,142.0
916.71,141.0
916.78,155.0
916.84,168.0
916.9,146.0
916.96,139.0
917.03,149.0
917.09,161.0
917.15,152.0
917.22,155.0
917.28,158.0
917.34,121.0
917.41,136.0
917.47,150.0
917.53,151.0
917.59,161.0
917.66,147.0
917.72,127.0
917.78,140.0
917.85,135.0
917.91,123.0
917.97,116.0
918.04,135.0
918.1,128.0
918.16,129.0
918.22,137.0
918.29,144.0
918.35,155.0
918.41,106.0
918.48,130.0
918.54,118.0
918.6,124.0
918.67,117.0
918.73,90.0
918.79,92.0
918.85,85.0
918.92,99.0
918.98,112.0
919.04,118.0
919.11,109.0
919.17,102.0
919.23,105.0
919.3,83.0
919.36,72.0
919.42,77.0
919.48,108.0
919.55,111.0
919.61,74.0
919.67,87.0
919.74,90.0
919.8,105.0
919.86,111.0
919.93,110.0
919.99,107.0
920.05,95.0
920.11,110.0
920.18,108.0
920.24,106.0
920.3,115.0
920.37,110.0
920.43,95.0
920.49,106.0
920.56,104.0
920.62,111.0
920.68,110.0
920.74,108.0
920.81,142.0
920.87,129.0
920.93,122.0
921.0,123.0
921.06,138.0
921.12,135.0
921.19,120.0
921.25,163.0
921.31,162.0
921.37,135.0
921.44,126.0
921.5,132.0
921.56,145.0
921.63,122.0
921.69,144.0
921.75,118.0
921.82,104.0
921.88,79.0
921.94,103.0
922.0,86.0
922.07,96.0
922.13,115.0
922.19,81.0
922.26,74.0
922.32,74.0
922.38,104.0
922.45,94.0
922.51,86.0
922.57,97.0
922.63,83.0
922.7,78.0
922.76,64.0
922.82,37.0
922.89,68.0
922.95,54.0
923.01,84.0
923.08,63.0
923.14,60.0
923.2,63.0
923.26,41.0
923.33,47.0
923.39,56.0
923.45,60.0
923.52,52.0
923.58,45.0
923.64,31.0
923.71,34.0
923.77,53.0
923.83,36.0
923.89,21.0
923.96,48.0
924.02,43.0
924.08,42.0
924.15,48.0
924.21,50.0
924.27,45.0
924.34,52.0
924.4,36.0
924.46,27.0
924.52,41.0
924.59,54.0
924.65,42.0
924.71,38.0
924.78,42.0
924.84,49.0
924.9,26.0
924.97,12.0
925.03,9.0
925.09,7.0
925.15,3.0
925.22,18.0
925.28,23.0
925.34,57.0
925.41,26.0
925.47,32.0
925.53,47.0
925.6,48.0
925.66,33.0
925.72,44.0
925.78,54.0
925.85,53.0
925.91,43.0
925.97,35.0
926.04,50.0
926.1,59.0
926.16,54.0
926.23,54.0
926.29,64.0
926.35,70.0
926.41,70.0
926.48,70.0
926.54,84.0
926.6,78.0
926.67,99.0
926.73,92.0
926.79,100.0
926.86,94.0
926.92,93.0
926.98,87.0
927.04,79.0
927.11,86.0
927.17,88.0
927.23,90.0
927.3,75.0
927.36,81.0
927.42,85.0
927.49,78.0
927.55,90.0
927.61,66.0
927.67,71.0
927.74,93.0
927.8,105.0
927.86,103.0
927.93,99.0
927.99,109.0
928.05,120.0
928.12,92.0
928.18,88.0
928.24,75.0
928.3,88.0
928.37,88.0
928.43,70.0
928.49,94.0
928.56,100.0
928.62,114.0
928.68,105.0
928.75,105.0
928.81,120.0
928.87,119.0
928.93,118.0
929.0,122.0
929.06,95.0
929.12,105.0
929.19,113.0
929.25,109.0
929.31,116.0
929.38,67.0
929.44,71.0
929.5,79.0
929.56,85.0
929.63,81.0
929.69,48.0
929.75,45.0
929.82,68.0
929.88,62.0
929.94,67.0
930.01,59.0
930.07,67.0
930.13,70.0
930.19,80.0
930.26,54.0
930.32,45.0
930.38,79.0
930.45,63.0
930.51,50.0
930.57,43.0
930.64,52.0
930.7,50.0
930.76,55.0
930.82,59.0
930.89,84.0
930.95,92.0
931.01,81.0
931.08,75.0
931.14,70.0
931.2,84.0
931.27,76.0
931.33,77.0
931.39,73.0
931.45,75.0
931.52,70.0
931.58,64.0
931.64,67.0
931.71,81.0
931.77,83.0
931.83,103.0
931.9,103.0
931.96,89.0
932.02,84.0
932.08,86.0
932.15,88.0
932.21,116.0
932.27,110.0
932.34,122.0
932.4,106.0
932.46,78.0
932.53,77.0
932.59,65.0
932.65,121.0
932.71,115.0
932.78,135.0
932.84,117.0
932.9,92.0
932.97,122.0
933.03,111.0
933.09,129.0
933.16,116.0
933.22,124.0
933.28,154.0
933.34,145.0
933.41,142.0
933.47,133.0
933.53,126.0
933.6,137.0
933.66,180.0
933.72,157.0
933.79,127.0
933.85,165.0
933.91,153.0
933.97,152.0
934.04,156.0
934.1,169.0
934.16,173.0
934.23,147.0
934.29,155.0
934.35,175.0
934.42,160.0
934.48,158.0
934.54,179.0
934.6,197.0
934.67,172.0
934.73,170.0
934.79,169.0
934.86,195.0
934.92,194.0
934.98,192.0
935.05,241.0
935.11,212.0
935.17,217.0
935.23,205.0
935.3,208.0
935.36,204.0
935.42,201.0
935.49,194.0
935.55,223.0
935.61,230.0
935.68,214.0
935.74,229.0
935.8,186.0
935.86,179.0
935.93,194.0
935.99,176.0
936.05,181.0
936.12,183.0
936.18,197.0
936.24,180.0
936.31,180.0
936.37,193.0
936.43,158.0
936.49,166.0
936.56,192.0
936.62,181.0
936.68,170.0
936.75,179.0
936.81,159.0
936.87,163.0
936.94,159.0
937.0,163.0
937.06,184.0
937.12,175.0
937.19,183.0
937.25,188.0
937.31,181.0
937.38,187.0
937.44,186.0
937.5,196.0
937.57,197.0
937.63,181.0
937.69,184.0
937.75,195.0
937.82,188.0
937.88,201.0
937.94,201.0
938.01,180.0
938.07,173.0
938.13,178.0
938.2,179.0
938.26,176.0
938.32,185.0
938.38,162.0
938.45,171.0
938.51,161.0
938.57,168.0
938.64,180.0
938.7,120.0
938.76,154.0
938.83,153.0
938.89,133.0
938.95,163.0
939.01,145.0
939.08,132.0
939.14,165.0
939.2,162.0
939.27,154.0
939.33,136.0
939.39,159.0
939.46,130.0
939.52,118.0
939.58,136.0
939.64,109.0
939.71,111.0
939.77,121.0
939.83,114.0
939.9,121.0
939.96,102.0
940.02,114.0
940.09,99.0
940.15,107.0
940.21,106.0
940.27,102.0
940.34,103.0
940.4,92.0
940.46,102.0
940.53,106.0
940.59,88.0
940.65,106.0
940.72,107.0
940.78,106.0
940.84,88.0
940.9,86.0
940.97,67.0
941.03,84.0
941.09,75.0
941.16,78.0
941.22,70.0
941.28,79.0
941.35,102.0
941.41,85.0
941.47,99.0
941.53,113.0
941.6,103.0
941.66,114.0
941.72,107.0
941.79,69.0
941.85,76.0
941.91,74.0
941.98,88.0
942.04,85.0
942.1,58.0
942.16,68.0
942.23,49.0
942.29,58.0
942.35,63.0
942.42,69.0
942.48,75.0
942.54,63.0
942.61,46.0
942.67,45.0
942.73,48.0
942.79,48.0
942.86,55.0
942.92,72.0
942.98,64.0
943.05,82.0
943.11,60.0
943.17,56.0
943.24,64.0
943.3,45.0
943.36,59.0
943.42,51.0
943.49,52.0
943.55,67.0
943.61,70.0
943.68,52.0
943.74,80.0
943.8,81.0
943.87,96.0
943.93,91.0
943.99,102.0
944.05,105.0
944.12,88.0
944.18,110.0
944.24,123.0
944.31,113.0
944.37,91.0
944.43,94.0
944.5,101.0
944.56,95.0
944.62,106.0
944.68,110.0
944.75,98.0
944.81,84.0
944.87,70.0
944.94,56.0
945.0,49.0
945.06,53.0
945.13,66.0
945.19,59.0
945.25,64.0
945.31,45.0
945.38,53.0
945.44,69.0
945.5,50.0
945.57,44.0
945.63,56.0
945.69,76.0
945.76,48.0
945.82,44.0
945.88,59.0
945.94,46.0
946.01,76.0
946.07,82.0
946.13,73.0
946.2,82.0
946.26,81.0
946.32,74.0
946.39,76.0
946.45,49.0
946.51,53.0
946.57,44.0
946.64,36.0
946.7,52.0
946.76,37.0
946.83,45.0
946.89,51.0
946.95,48.0
947.02,48.0
947.08,18.0
947.14,40.0
947.2,17.0
947.27,15.0
947.33,24.0
947.39,18.0
947.46,31.0
947.52,41.0
947.58,27.0
947.65,23.0
947.71,39.0
947.77,42.0
947.83,26.0
947.9,31.0
947.96,25.0
948.02,23.0
948.09,17.0
948.15,21.0
948.21,24.0
948.28,32.0
948.34,18.0
948.4,39.0
948.46,54.0
948.53,44.0
948.59,42.0
948.65,48.0
948.72,36.0
948.78,15.0
948.84,7.0
948.91,29.0
948.97,11.0
949.03,21.0
949.09,34.0
949.16,48.0
949.22,34.0
949.28,37.0
949.35,36.0
949.41,17.0
949.47,25.0
949.54,25.0
949.6,48.0
949.66,43.0
949.72,27.0
949.79,19.0
949.85,45.0
949.91,57.0
949.98,68.0
950.04,65.0
950.1,38.0
950.17,62.0
950.23,39.0
950.29,50.0
950.35,55.0
950.42,43.0
950.48,50.0
950.54,31.0
950.61,44.0
950.67,69.0
950.73,63.0
950.8,77.0
950.86,79.0
950.92,58.0
950.98,43.0
951.05,44.0
951.11,26.0
951.17,37.0
951.24,57.0
951.3,40.0
951.36,41.0
951.43,29.0
951.49,9.0
951.55,26.0
951.61,4.0
951.68,-3.0
951.74,21.0
951.8,1.0
951.87,9.0
951.93,6.0
951.99,15.0
952.06,19.0
952.12,0.0
952.18,-8.0
952.24,-12.0
952.31,-6.0
952.37,-11.0
952.43,16.0
952.5,19.0
952.56,8.0
952.62,24.0
952.69,22.0
952.75,9.0
952.81,23.0
952.87,19.0
952.94,21.0
953.0,23.0
953.06,13.0
953.13,24.0
953.19,26.0
953.25,39.0
953.32,39.0
953.38,42.0
953.44,30.0
953.5,34.0
953.57,48.0
953.63,41.0
953.69,43.0
953.76,36.0
953.82,23.0
953.88,24.0
953.95,24.0
954.01,75.0
954.07,67.0
954.13,84.0
954.2,77.0
954.26,52.0
954.32,39.0
954.39,54.0
954.45,21.0
954.51,12.0
954.58,21.0
954.64,16.0
954.7,15.0
954.76,27.0
954.83,8.0
954.89,11.0
954.95,6.0
955.02,12.0
955.08,32.0
955.14,43.0
955.21,24.0
955.27,29.0
955.33,21.0
955.39,32.0
955.46,24.0
955.52,7.0
955.58,40.0
955.65,40.0
955.71,21.0
955.77,22.0
955.84,15.0
955.9,13.0
955.96,20.0
956.02,36.0
956.09,35.0
956.15,32.0
956.21,42.0
956.28,34.0
956.34,48.0
956.4,60.0
956.47,43.0
956.53,44.0
956.59,47.0
956.65,37.0
956.72,5.0
956.78,22.0
956.84,-2.0
956.91,5.0
956.97,35.0
957.03,29.0
957.1,11.0
957.16,29.0
957.22,35.0
957.28,18.0
957.35,-1.0
957.41,4.0
957.47,14.0
957.54,-1.0
957.6,-23.0
957.66,-6.0
957.73,-12.0
957.79,-7.0
957.85,11.0
957.91,8.0
957.98,21.0
958.04,-1.0
958.1,8.0
958.17,-10.0
958.23,-18.0
958.29,-6.0
958.36,31.0
958.42,21.0
958.48,24.0
958.54,16.0
958.61,50.0
958.67,33.0
958.73,29.0
958.8,25.0
958.86,35.0
958.92,29.0
958.99,41.0
959.05,31.0
959.11,29.0
959.17,46.0
959.24,22.0
959.3,33.0
959.36,29.0
959.43,16.0
959.49,11.0
959.55,-7.0
959.62,17.0
959.68,21.0
959.74,28.0
959.8,29.0
959.87,29.0
959.93,11.0
959.99,2.0
960.06,22.0
960.12,35.0
960.18,41.0
960.25,23.0
960.31,47.0
960.37,52.0
960.43,54.0
960.5,55.0
960.56,76.0
960.62,76.0
960.69,71.0
960.75,76.0
960.81,91.0
960.88,75.0
960.94,80.0
961.0,95.0
961.06,85.0
961.13,94.0
961.19,84.0
961.25,116.0
961.32,119.0
961.38,118.0
961.44,111.0
961.51,135.0
961.57,151.0
961.63,143.0
961.69,136.0
961.76,158.0
961.82,164.0
961.88,164.0
961.95,157.0
962.01,147.0
962.07,164.0
962.14,172.0
962.2,166.0
962.26,159.0
962.32,173.0
962.39,158.0
962.45,159.0
962.51,159.0
962.58,158.0
962.64,161.0
962.7,173.0
962.77,137.0
962.83,161.0
962.89,183.0
962.95,183.0
963.02,157.0
963.08,169.0
963.14,172.0
963.21,158.0
963.27,172.0
963.33,178.0
963.4,181.0
963.46,183.0
963.52,175.0
963.58,176.0
963.65,156.0
963.71,178.0
963.77,162.0
963.84,151.0
963.9,154.0
963.96,159.0
964.03,151.0
964.09,145.0
964.15,137.0
964.21,145.0
964.28,140.0
964.34,139.0
964.4,148.0
964.47,149.0
964.53,152.0
964.59,153.0
964.66,138.0
964.72,150.0
964.78,135.0
964.84,129.0
964.91,146.0
964.97,150.0
965.03,166.0
965.1,154.0
965.16,167.0
965.22,168.0
965.29,142.0
965.35,139.0
965.41,140.0
965.47,132.0
965.54,126.0
965.6,141.0
965.66,144.0
965.73,133.0
965.79,131.0
965.85,104.0
965.92,137.0
965.98,151.0
966.04,136.0
966.1,157.0
966.17,145.0
966.23,136.0
966.29,135.0
966.36,140.0
966.42,144.0
966.48,136.0
966.55,160.0
966.61,150.0
966.67,142.0
966.73,160.0
966.8,134.0
966.86,153.0
966.92,161.0
966.99,146.0
967.05,156.0
967.11,175.0
967.18,173.0
967.24,165.0
967.3,174.0
967.36,179.0
967.43,154.0
967.49,172.0
967.55,176.0
967.62,178.0
967.68,159.0
967.74,163.0
967.81,174.0
967.87,158.0
967.93,174.0
967.99,176.0
968.06,163.0
968.12,171.0
968.18,173.0
968.25,175.0
968.31,175.0
968.37,167.0
968.44,162.0
968.5,183.0
968.56,150.0
968.62,174.0
968.69,173.0
968.75,165.0
968.81,162.0
968.88,126.0
968.94,138.0
969.0,150.0
969.07,128.0
969.13,141.0
969.19,144.0
969.25,149.0
969.32,109.0
969.38,154.0
969.44,152.0
969.51,110.0
969.57,125.0
969.63,131.0
969.7,121.0
969.76,125.0
969.82,135.0
969.88,132.0
969.95,155.0
970.01,137.0
970.07,142.0
970.14,156.0
970.2,150.0
970.26,155.0
970.33,161.0
970.39,161.0
970.45,179.0
970.51,181.0
970.58,172.0
970.64,181.0
970.7,175.0
970.77,172.0
970.83,183.0
970.89,171.0
970.96,188.0
971.02,182.0
971.08,172.0
971.14,161.0
971.21,188.0
971.27,188.0
971.33,176.0
971.4,174.0
971.46,173.0
971.52,180.0
971.59,150.0
971.65,150.0
971.71,173.0
971.77,153.0
971.84,143.0
971.9,136.0
971.96,142.0
972.03,148.0
972.09,136.0
972.15,147.0
972.22,163.0
972.28,133.0
972.34,156.0
972.4,144.0
972.47,138.0
972.53,148.0
972.59,113.0
972.66,148.0
972.72,106.0
972.78,107.0
972.85,107.0
972.91,97.0
972.97,112.0
973.03,118.0
973.1,120.0
973.16,103.0
973.22,91.0
973.29,88.0
973.35,104.0
973.41,101.0
973.48,120.0
973.54,138.0
973.6,123.0
973.66,132.0
973.73,98.0
973.79,114.0
973.85,114.0
973.92,104.0
973.98,124.0
974.04,102.0
974.11,82.0
974.17,123.0
974.23,142.0
974.29,133.0
974.36,106.0
974.42,110.0
974.48,86.0
974.55,76.0
974.61,45.0
974.67,75.0
974.74,73.0
974.8,75.0
974.86,81.0
974.92,98.0
974.99,90.0
975.05,88.0
975.11,77.0
975.18,88.0
975.24,88.0
975.3,107.0
975.37,87.0
975.43,67.0
975.49,96.0
975.55,86.0
975.62,77.0
975.68,108.0
975.74,68.0
975.81,72.0
975.87,98.0
975.93,61.0
976.0,93.0
976.06,90.0
976.12,85.0
976.18,103.0
976.25,102.0
976.31,96.0
976.37,91.0
976.44,79.0
976.5,65.0
976.56,96.0
976.63,84.0
976.69,66.0
976.75,81.0
976.81,82.0
976.88,92.0
976.94,79.0
977.0,88.0
977.07,95.0
977.13,104.0
977.19,96.0
977.26,109.0
977.32,120.0
977.38,109.0
977.44,121.0
977.51,134.0
977.57,115.0
977.63,98.0
977.7,110.0
977.76,115.0
977.82,107.0
977.89,137.0
977.95,133.0
978.01,110.0
978.07,119.0
978.14,103.0
978.2,114.0
978.26,110.0
978.33,103.0
978.39,115.0
978.45,113.0
978.52,114.0
978.58,100.0
978.64,118.0
978.7,107.0
978.77,110.0
978.83,125.0
978.89,133.0
978.96,123.0
979.02,106.0
979.08,123.0
979.15,95.0
979.21,108.0
979.27,147.0
979.33,125.0
979.4,124.0
979.46,123.0
979.52,125.0
979.59,128.0
979.65,114.0
979.71,117.0
979.78,108.0
979.84,114.0
979.9,121.0
979.96,111.0
980.03,123.0
980.09,114.0
980.15,100.0
980.22,118.0
980.28,111.0
980.34,94.0
980.41,99.0
980.47,101.0
980.53,109.0
980.59,95.0
980.66,97.0
980.72,103.0
980.78,91.0
980.85,90.0
980.91,64.0
980.97,65.0
981.04,54.0
981.1,76.0
981.16,86.0
981.22,78.0
981.29,85.0
981.35,87.0
981.41,90.0
981.48,78.0
981.54,60.0
981.6,65.0
981.67,83.0
981.73,82.0
981.79,82.0
981.85,88.0
981.92,99.0
981.98,87.0
982.04,108.0
982.11,87.0
982.17,99.0
982.23,111.0
982.3,106.0
982.36,92.0
982.42,98.0
982.48,98.0
982.55,74.0
982.61,102.0
982.67,87.0
982.74,77.0
982.8,87.0
982.86,90.0
982.93,49.0
982.99,61.0
983.05,76.0
983.11,27.0
983.18,80.0
983.24,75.0
983.3,66.0
983.37,102.0
983.43,80.0
983.49,94.0
983.56,86.0
983.62,93.0
983.68,108.0
983.74,119.0
983.81,103.0
983.87,106.0
983.93,103.0
984.0,91.0
984.06,80.0
984.12,87.0
984.19,107.0
984.25,100.0
984.31,77.0
984.37,99.0
984.44,101.0
984.5,85.0
984.56,65.0
984.63,99.0
984.69,89.0
984.75,73.0
984.82,99.0
984.88,84.0
984.94,92.0
985.0,75.0
985.07,94.0
985.13,102.0
985.19,117.0
985.26,134.0
985.32,103.0
985.38,106.0
985.45,112.0
985.51,101.0
985.57,124.0
985.63,125.0
985.7,111.0
985.76,108.0
985.82,99.0
985.89,96.0
985.95,102.0
986.01,124.0
986.08,113.0
986.14,123.0
986.2,131.0
986.26,125.0
986.33,129.0
986.39,127.0
986.45,113.0
986.52,113.0
986.58,119.0
986.64,130.0
986.71,139.0
986.77,136.0
986.83,114.0
986.89,135.0
986.96,117.0
987.02,109.0
987.08,117.0
987.15,104.0
987.21,125.0
987.27,126.0
987.34,136.0
987.4,135.0
987.46,139.0
987.52,147.0
987.59,146.0
987.65,158.0
987.71,141.0
987.78,158.0
987.84,165.0
987.9,166.0
987.97,155.0
988.03,159.0
988.09,156.0
988.15,140.0
988.22,134.0
988.28,146.0
988.34,158.0
988.41,139.0
988.47,151.0
988.53,157.0
988.6,140.0
988.66,145.0
988.72,152.0
988.78,127.0
988.85,140.0
988.91,150.0
988.97,136.0
989.04,147.0
989.1,120.0
989.16,116.0
989.23,145.0
989.29,123.0
989.35,144.0
989.41,169.0
989.48,170.0
989.54,161.0
989.6,164.0
989.67,179.0
989.73,162.0
989.79,179.0
989.86,172.0
989.92,163.0
989.98,170.0
990.04,125.0
990.11,162.0
990.17,142.0
990.23,128.0
990.3,112.0
990.36,122.0
990.42,146.0
990.49,140.0
990.55,146.0
990.61,117.0
990.67,102.0
990.74,125.0
990.8,116.0
990.86,123.0
990.93,113.0
990.99,96.0
991.05,104.0
991.12,114.0
991.18,103.0
991.24,148.0
991.3,166.0
991.37,146.0
991.43,138.0
991.49,140.0
991.56,125.0
991.62,132.0
991.68,124.0
991.75,129.0
991.81,138.0
991.87,134.0
991.93,140.0
992.0,143.0
992.06,148.0
992.12,157.0
992.19,139.0
992.25,154.0
992.31,167.0
992.38,143.0
992.44,143.0
992.5,128.0
992.56,121.0
992.63,129.0
992.69,138.0
992.75,133.0
992.82,136.0
992.88,131.0
992.94,146.0
993.01,154.0
993.07,119.0
993.13,143.0
993.19,147.0
993.26,153.0
993.32,178.0
993.38,124.0
993.45,140.0
993.51,148.0
993.57,158.0
993.64,152.0
993.7,152.0
993.76,144.0
993.82,121.0
993.89,154.0
993.95,142.0
994.01,131.0
994.08,145.0
994.14,137.0
994.2,139.0
994.27,138.0
994.33,131.0
994.39,161.0
994.45,137.0
994.52,135.0
994.58,118.0
994.64,138.0
994.71,135.0
994.77,122.0
994.83,143.0
994.9,151.0
994.96,148.0
995.02,156.0
995.08,122.0
995.15,127.0
995.21,141.0
995.27,144.0
995.34,137.0
995.4,138.0
995.46,148.0
995.53,140.0
995.59,138.0
995.65,138.0
995.71,141.0
995.78,131.0
995.84,126.0
995.9,133.0
995.97,128.0
996.03,121.0
996.09,117.0
996.16,148.0
996.22,136.0
996.28,136.0
996.34,129.0
996.41,131.0
996.47,131.0
996.53,125.0
996.6,106.0
996.66,93.0
996.72,99.0
996.79,113.0
996.85,108.0
996.91,107.0
996.97,107.0
997.04,103.0
997.1,93.0
997.16,105.0
997.23,107.0
997.29,102.0
997.35,124.0
997.42,112.0
997.48,118.0
997.54,117.0
997.6,129.0
997.67,109.0
997.73,122.0
997.79,118.0
997.86,119.0
997.92,128.0
997.98,114.0
998.05,106.0
998.11,112.0
998.17,109.0
998.23,93.0
998.3,112.0
998.36,127.0
998.42,109.0
998.49,102.0
998.55,116.0
998.61,133.0
998.68,131.0
998.74,116.0
998.8,117.0
998.86,123.0
998.93,112.0
998.99,83.0
999.05,87.0
999.12,86.0
999.18,109.0
999.24,113.0
999.31,142.0
999.37,116.0
999.43,107.0
999.49,82.0
999.56,84.0
999.62,80.0
999.68,87.0
999.75,96.0
999.81,87.0
999.87,86.0
