timestamp,intensity
0,-377.0
0.06,-378.0
0.13,-342.0
0.19,-374.0
0.25,-368.0
0.32,-362.0
0.38,-360.0
0.44,-370.0
0.5,-337.0
0.57,-330.0
0.63,-323.0
0.69,-328.0
0.76,-350.0
0.82,-342.0
0.88,-342.0
0.94,-327.0
1.01,-361.0
1.07,-361.0
1.13,-347.0
1.2,-355.0
1.26,-331.0
1.32,-328.0
1.39,-317.0
1.45,-322.0
1.51,-337.0
1.57,-330.0
1.64,-327.0
1.7,-337.0
1.76,-354.0
1.83,-349.0
1.89,-347.0
1.95,-347.0
2.02,-330.0
2.08,-329.0
2.14,-332.0
2.2,-333.0
2.27,-338.0
2.33,-324.0
2.39,-328.0
2.46,-336.0
2.52,-332.0
2.58,-326.0
2.65,-335.0
2.71,-322.0
2.77,-329.0
2.84,-330.0
2.9,-331.0
2.96,-353.0
3.02,-366.0
3.09,-352.0
3.15,-352.0
3.21,-334.0
3.28,-331.0
3.34,-345.0
3.4,-330.0
3.47,-349.0
3.53,-344.0
3.59,-338.0
3.65,-337.0
3.72,-332.0
3.78,-351.0
3.84,-318.0
3.91,-299.0
3.97,-294.0
4.03,-321.0
4.1,-317.0
4.16,-323.0
4.22,-321.0
4.28,-325.0
4.35,-333.0
4.41,-328.0
4.47,-336.0
4.54,-321.0
4.6,-306.0
4.66,-325.0
4.73,-318.0
4.79,-297.0
4.85,-313.0
4.91,-310.0
4.98,-305.0
5.04,-307.0
5.1,-312.0
5.17,-296.0
5.23,-290.0
5.29,-283.0
5.35,-294.0
5.42,-300.0
5.48,-295.0
5.54,-287.0
5.61,-300.0
5.67,-294.0
5.73,-277.0
5.8,-288.0
5.86,-280.0
5.92,-269.0
5.98,-260.0
6.05,-263.0
6.11,-263.0
6.17,-257.0
6.24,-251.0
6.3,-236.0
6.36,-234.0
6.43,-226.0
6.49,-213.0
6.55,-201.0
6.61,-225.0
6.68,-241.0
6.74,-212.0
6.8,-209.0
6.87,-218.0
6.93,-217.0
6.99,-204.0
7.06,-195.0
7.12,-197.0
7.18,-193.0
7.24,-195.0
7.31,-189.0
7.37,-189.0
7.43,-211.0
7.5,-193.0
7.56,-182.0
7.62,-183.0
7.69,-166.0
7.75,-180.0
7.81,-195.0
7.87,-171.0
7.94,-178.0
8.0,-177.0
8.06,-188.0
8.13,-191.0
8.19,-176.0
8.25,-177.0
8.32,-173.0
8.38,-185.0
8.44,-177.0
8.5,-157.0
8.57,-182.0
8.63,-185.0
8.69,-164.0
8.76,-167.0
8.82,-160.0
8.88,-150.0
8.95,-157.0
9.01,-158.0
9.07,-152.0
9.13,-160.0
9.2,-151.0
9.26,-146.0
9.32,-147.0
9.39,-146.0
9.45,-146.0
9.51,-156.0
9.58,-157.0
9.64,-150.0
9.7,-144.0
9.77,-150.0
9.83,-140.0
9.89,-128.0
9.95,-133.0
10.02,-134.0
10.08,-145.0
10.14,-149.0
10.21,-160.0
10.27,-171.0
10.33,-165.0
10.4,-144.0
10.46,-176.0
10.52,-170.0
10.58,-163.0
10.65,-161.0
10.71,-170.0
10.77,-147.0
10.84,-152.0
10.9,-160.0
10.96,-183.0
11.03,-190.0
11.09,-188.0
11.15,-189.0
11.21,-207.0
11.28,-211.0
11.34,-200.0
11.4,-210.0
11.47,-216.0
11.53,-204.0
11.59,-213.0
11.66,-208.0
11.72,-209.0
11.78,-206.0
11.84,-214.0
11.91,-197.0
11.97,-204.0
12.03,-213.0
12.1,-209.0
12.16,-206.0
12.22,-205.0
12.29,-224.0
12.35,-223.0
12.41,-228.0
12.47,-227.0
12.54,-242.0
12.6,-234.0
12.66,-247.0
12.73,-237.0
12.79,-229.0
12.85,-249.0
12.92,-255.0
12.98,-275.0
13.04,-288.0
13.1,-289.0
13.17,-288.0
13.23,-282.0
13.29,-291.0
13.36,-281.0
13.42,-282.0
13.48,-274.0
13.55,-287.0
13.61,-299.0
13.67,-293.0
13.73,-302.0
13.8,-297.0
13.86,-310.0
13.92,-335.0
13.99,-321.0
14.05,-329.0
14.11,-322.0
14.18,-329.0
14.24,-333.0
14.3,-319.0
14.36,-317.0
14.43,-318.0
14.49,-320.0
14.55,-313.0
14.62,-305.0
14.68,-317.0
14.74,-322.0
14.81,-317.0
14.87,-306.0
14.93,-309.0
14.99,-306.0
15.06,-295.0
15.12,-317.0
15.18,-317.0
15.25,-311.0
15.31,-330.0
15.37,-324.0
15.44,-310.0
15.5,-316.0
15.56,-323.0
15.62,-345.0
15.69,-339.0
15.75,-304.0
15.81,-315.0
15.88,-324.0
15.94,-313.0
16.0,-308.0
16.07,-288.0
16.13,-307.0
16.19,-302.0
16.25,-287.0
16.32,-302.0
16.38,-311.0
16.44,-296.0
16.51,-296.0
16.57,-293.0
16.63,-273.0
16.7,-276.0
16.76,-268.0
16.82,-272.0
16.88,-266.0
16.95,-265.0
17.01,-273.0
17.07,-268.0
17.14,-266.0
17.2,-281.0
17.26,-274.0
17.33,-255.0
17.39,-265.0
17.45,-270.0
17.51,-272.0
17.58,-278.0
17.64,-263.0
17.7,-249.0
17.77,-259.0
17.83,-263.0
17.89,-256.0
17.96,-257.0
18.02,-254.0
18.08,-272.0
18.14,-277.0
18.21,-272.0
18.27,-275.0
18.33,-290.0
18.4,-285.0
18.46,-271.0
18.52,-271.0
18.59,-289.0
18.65,-282.0
18.71,-277.0
18.77,-284.0
18.84,-302.0
18.9,-278.0
18.96,-285.0
19.03,-266.0
19.09,-257.0
19.15,-284.0
19.22,-280.0
19.28,-273.0
19.34,-283.0
19.4,-298.0
19.47,-303.0
19.53,-280.0
19.59,-263.0
19.66,-253.0
19.72,-265.0
19.78,-272.0
19.84,-267.0
19.91,-272.0
19.97,-282.0
20.03,-273.0
20.1,-278.0
20.16,-281.0
20.22,-259.0
20.29,-279.0
20.35,-264.0
20.41,-279.0
20.47,-280.0
20.54,-248.0
20.6,-269.0
20.66,-285.0
20.73,-261.0
20.79,-276.0
20.85,-277.0
20.92,-291.0
20.98,-286.0
21.04,-286.0
21.1,-286.0
21.17,-264.0
21.23,-285.0
21.29,-283.0
21.36,-278.0
21.42,-292.0
21.48,-284.0
21.55,-262.0
21.61,-269.0
21.67,-281.0
21.73,-278.0
21.8,-299.0
21.86,-297.0
21.92,-286.0
21.99,-295.0
22.05,-302.0
22.11,-293.0
22.18,-275.0
22.24,-284.0
22.3,-285.0
22.36,-286.0
22.43,-275.0
22.49,-276.0
22.55,-290.0
22.62,-292.0
22.68,-274.0
22.74,-273.0
22.81,-275.0
22.87,-270.0
22.93,-278.0
22.99,-263.0
23.06,-242.0
23.12,-253.0
23.18,-238.0
23.25,-240.0
23.31,-254.0
23.37,-231.0
23.44,-232.0
23.5,-229.0
23.56,-219.0
23.62,-240.0
23.69,-209.0
23.75,-222.0
23.81,-219.0
23.88,-217.0
23.94,-212.0
24.0,-196.0
24.07,-216.0
24.13,-212.0
24.19,-217.0
24.25,-205.0
24.32,-201.0
24.38,-205.0
24.44,-200.0
24.51,-207.0
24.57,-198.0
24.63,-197.0
24.7,-203.0
24.76,-194.0
24.82,-196.0
24.88,-204.0
24.95,-195.0
25.01,-187.0
25.07,-173.0
25.14,-167.0
25.2,-152.0
25.26,-170.0
25.33,-174.0
25.39,-169.0
25.45,-155.0
25.51,-156.0
25.58,-151.0
25.64,-155.0
25.7,-145.0
25.77,-134.0
25.83,-129.0
25.89,-129.0
25.96,-131.0
26.02,-141.0
26.08,-171.0
26.14,-143.0
26.21,-139.0
26.27,-148.0
26.33,-162.0
26.4,-159.0
26.46,-153.0
26.52,-157.0
26.59,-172.0
26.65,-156.0
26.71,-134.0
26.77,-122.0
26.84,-150.0
26.9,-117.0
26.96,-152.0
27.03,-143.0
27.09,-148.0
27.15,-132.0
27.22,-130.0
27.28,-143.0
27.34,-143.0
27.4,-122.0
27.47,-114.0
27.53,-122.0
27.59,-130.0
27.66,-141.0
27.72,-122.0
27.78,-125.0
27.85,-126.0
27.91,-141.0
27.97,-138.0
28.03,-135.0
28.1,-134.0
28.16,-128.0
28.22,-117.0
28.29,-136.0
28.35,-140.0
28.41,-151.0
28.48,-148.0
28.54,-131.0
28.6,-150.0
28.66,-130.0
28.73,-130.0
28.79,-153.0
28.85,-160.0
28.92,-153.0
28.98,-160.0
29.04,-165.0
29.11,-147.0
29.17,-179.0
29.23,-179.0
29.29,-156.0
29.36,-150.0
29.42,-164.0
29.48,-160.0
29.55,-150.0
29.61,-155.0
29.67,-165.0
29.74,-179.0
29.8,-177.0
29.86,-164.0
29.92,-174.0
29.99,-177.0
30.05,-192.0
30.11,-172.0
30.18,-208.0
30.24,-205.0
30.3,-188.0
30.37,-190.0
30.43,-193.0
30.49,-202.0
30.55,-191.0
30.62,-196.0
30.68,-180.0
30.74,-180.0
30.81,-194.0
30.87,-201.0
30.93,-195.0
31.0,-197.0
31.06,-190.0
31.12,-192.0
31.18,-207.0
31.25,-207.0
31.31,-196.0
31.37,-227.0
31.44,-214.0
31.5,-183.0
31.56,-186.0
31.63,-188.0
31.69,-183.0
31.75,-180.0
31.81,-194.0
31.88,-180.0
31.94,-189.0
32.0,-196.0
32.07,-196.0
32.13,-188.0
32.19,-173.0
32.26,-180.0
32.32,-176.0
32.38,-149.0
32.44,-154.0
32.51,-149.0
32.57,-132.0
32.63,-141.0
32.7,-130.0
32.76,-141.0
32.82,-143.0
32.89,-134.0
32.95,-137.0
33.01,-150.0
33.07,-150.0
33.14,-128.0
33.2,-135.0
33.26,-148.0
33.33,-137.0
33.39,-157.0
33.45,-146.0
33.52,-162.0
33.58,-164.0
33.64,-159.0
33.7,-137.0
33.77,-137.0
33.83,-146.0
33.89,-144.0
33.96,-155.0
34.02,-137.0
34.08,-138.0
34.15,-123.0
34.21,-121.0
34.27,-126.0
34.33,-136.0
34.4,-133.0
34.46,-124.0
34.52,-132.0
34.59,-125.0
34.65,-118.0
34.71,-115.0
34.78,-110.0
34.84,-96.0
34.9,-102.0
34.96,-93.0
35.03,-106.0
35.09,-89.0
35.15,-94.0
35.22,-95.0
35.28,-78.0
35.34,-92.0
35.41,-71.0
35.47,-81.0
35.53,-84.0
35.59,-78.0
35.66,-88.0
35.72,-63.0
35.78,-68.0
35.85,-62.0
35.91,-77.0
35.97,-67.0
36.04,-77.0
36.1,-80.0
36.16,-63.0
36.22,-80.0
36.29,-69.0
36.35,-86.0
36.41,-75.0
36.48,-96.0
36.54,-97.0
36.6,-88.0
36.67,-78.0
36.73,-96.0
36.79,-101.0
36.85,-89.0
36.92,-85.0
36.98,-71.0
37.04,-76.0
37.11,-87.0
37.17,-78.0
37.23,-75.0
37.3,-84.0
37.36,-82.0
37.42,-108.0
37.48,-119.0
37.55,-113.0
37.61,-91.0
37.67,-97.0
37.74,-113.0
37.8,-125.0
37.86,-135.0
37.93,-122.0
37.99,-116.0
38.05,-121.0
38.12,-119.0
38.18,-127.0
38.24,-131.0
38.3,-110.0
38.37,-109.0
38.43,-128.0
38.49,-136.0
38.56,-130.0
38.62,-124.0
38.68,-127.0
38.75,-139.0
38.81,-124.0
38.87,-156.0
38.93,-176.0
39.0,-167.0
39.06,-171.0
39.12,-147.0
39.19,-135.0
39.25,-153.0
39.31,-139.0
39.38,-123.0
39.44,-125.0
39.5,-130.0
39.56,-145.0
39.63,-142.0
39.69,-146.0
39.75,-157.0
39.82,-150.0
39.88,-150.0
39.94,-155.0
40.01,-164.0
40.07,-147.0
40.13,-140.0
40.19,-124.0
40.26,-124.0
40.32,-127.0
40.38,-118.0
40.45,-103.0
40.51,-113.0
40.57,-112.0
40.64,-86.0
40.7,-98.0
40.76,-113.0
40.82,-91.0
40.89,-94.0
40.95,-98.0
41.01,-91.0
41.08,-91.0
41.14,-88.0
41.2,-79.0
41.27,-82.0
41.33,-74.0
41.39,-80.0
41.45,-95.0
41.52,-92.0
41.58,-85.0
41.64,-77.0
41.71,-62.0
41.77,-88.0
41.83,-81.0
41.9,-86.0
41.96,-80.0
42.02,-70.0
42.08,-57.0
42.15,-60.0
42.21,-53.0
42.27,-60.0
42.34,-55.0
42.4,-55.0
42.46,-62.0
42.53,-63.0
42.59,-51.0
42.65,-44.0
42.71,-62.0
42.78,-51.0
42.84,-49.0
42.9,-64.0
42.97,-56.0
43.03,-38.0
43.09,-56.0
43.16,-34.0
43.22,-53.0
43.28,-69.0
43.34,-81.0
43.41,-75.0
43.47,-79.0
43.53,-75.0
43.6,-75.0
43.66,-68.0
43.72,-53.0
43.79,-84.0
43.85,-71.0
43.91,-88.0
43.97,-100.0
44.04,-96.0
44.1,-75.0
44.16,-83.0
44.23,-83.0
44.29,-70.0
44.35,-67.0
44.42,-67.0
44.48,-71.0
44.54,-74.0
44.6,-95.0
44.67,-85.0
44.73,-99.0
44.79,-94.0
44.86,-83.0
44.92,-95.0
44.98,-77.0
45.05,-80.0
45.11,-102.0
45.17,-105.0
45.23,-91.0
45.3,-91.0
45.36,-105.0
45.42,-96.0
45.49,-105.0
45.55,-114.0
45.61,-116.0
45.68,-116.0
45.74,-113.0
45.8,-129.0
45.86,-123.0
45.93,-116.0
45.99,-121.0
46.05,-116.0
46.12,-134.0
46.18,-135.0
46.24,-133.0
46.31,-138.0
46.37,-137.0
46.43,-120.0
46.49,-121.0
46.56,-133.0
46.62,-145.0
46.68,-146.0
46.75,-142.0
46.81,-155.0
46.87,-164.0
46.94,-155.0
47.0,-168.0
47.06,-168.0
47.12,-177.0
47.19,-163.0
47.25,-174.0
47.31,-179.0
47.38,-167.0
47.44,-156.0
47.5,-168.0
47.57,-186.0
47.63,-174.0
47.69,-196.0
47.75,-202.0
47.82,-177.0
47.88,-200.0
47.94,-187.0
48.01,-190.0
48.07,-165.0
48.13,-201.0
48.2,-200.0
48.26,-200.0
48.32,-189.0
48.38,-179.0
48.45,-181.0
48.51,-167.0
48.57,-193.0
48.64,-185.0
48.7,-206.0
48.76,-205.0
48.83,-205.0
48.89,-202.0
48.95,-185.0
49.01,-196.0
49.08,-191.0
49.14,-183.0
49.2,-165.0
49.27,-185.0
49.33,-167.0
49.39,-177.0
49.46,-185.0
49.52,-197.0
49.58,-196.0
49.64,-158.0
49.71,-188.0
49.77,-177.0
49.83,-165.0
49.9,-159.0
49.96,-161.0
50.02,-145.0
50.09,-140.0
50.15,-160.0
50.21,-148.0
50.27,-161.0
50.34,-158.0
50.4,-164.0
50.46,-146.0
50.53,-134.0
50.59,-141.0
50.65,-137.0
50.72,-150.0
50.78,-131.0
50.84,-146.0
50.9,-123.0
50.97,-111.0
51.03,-109.0
51.09,-118.0
51.16,-102.0
51.22,-111.0
51.28,-112.0
51.35,-97.0
51.41,-101.0
51.47,-89.0
51.53,-101.0
51.6,-98.0
51.66,-106.0
51.72,-93.0
51.79,-105.0
51.85,-104.0
51.91,-104.0
51.98,-105.0
52.04,-115.0
52.1,-83.0
52.16,-102.0
52.23,-99.0
52.29,-96.0
52.35,-82.0
52.42,-94.0
52.48,-89.0
52.54,-69.0
52.61,-70.0
52.67,-102.0
52.73,-93.0
52.79,-64.0
52.86,-84.0
52.92,-90.0
52.98,-70.0
53.05,-90.0
53.11,-97.0
53.17,-72.0
53.24,-92.0
53.3,-64.0
53.36,-59.0
53.42,-66.0
53.49,-52.0
53.55,-51.0
53.61,-35.0
53.68,-43.0
53.74,-53.0
53.8,-52.0
53.87,-45.0
53.93,-60.0
53.99,-70.0
54.05,-59.0
54.12,-55.0
54.18,-50.0
54.24,-49.0
54.31,-45.0
54.37,-46.0
54.43,-42.0
54.5,-57.0
54.56,-50.0
54.62,-66.0
54.68,-64.0
54.75,-56.0
54.81,-40.0
54.87,-35.0
54.94,-57.0
55.0,-62.0
55.06,-44.0
55.13,-51.0
55.19,-57.0
55.25,-55.0
55.31,-53.0
55.38,-41.0
55.44,-26.0
55.5,-11.0
55.57,-10.0
55.63,-28.0
55.69,-23.0
55.76,-34.0
55.82,-34.0
55.88,-23.0
55.94,-18.0
56.01,-10.0
56.07,5.0
56.13,-8.0
56.2,-6.0
56.26,-31.0
56.32,-24.0
56.39,-29.0
56.45,-14.0
56.51,-13.0
56.57,-9.0
56.64,-13.0
56.7,-37.0
56.76,-16.0
56.83,-3.0
56.89,-3.0
56.95,-11.0
57.02,-25.0
57.08,-16.0
57.14,-8.0
57.2,-26.0
57.27,-12.0
57.33,-6.0
57.39,-7.0
57.46,-10.0
57.52,15.0
57.58,-7.0
57.65,-2.0
57.71,14.0
57.77,0.0
57.83,5.0
57.9,15.0
57.96,0.0
58.02,0.0
58.09,-10.0
58.15,1.0
58.21,10.0
58.28,2.0
58.34,-6.0
58.4,-10.0
58.46,-12.0
58.53,-7.0
58.59,16.0
58.65,10.0
58.72,18.0
58.78,-13.0
58.84,-1.0
58.91,2.0
58.97,-6.0
59.03,2.0
59.09,0.0
59.16,-7.0
59.22,-17.0
59.28,-11.0
59.35,-5.0
59.41,-6.0
59.47,5.0
59.54,8.0
59.6,-15.0
59.66,-13.0
59.72,-2.0
59.79,-5.0
59.85,-6.0
59.91,-20.0
59.98,-12.0
60.04,-20.0
60.1,11.0
60.17,-23.0
60.23,-16.0
60.29,-2.0
60.35,-13.0
60.42,10.0
60.48,-21.0
60.54,1.0
60.61,2.0
60.67,3.0
60.73,13.0
60.8,1.0
60.86,12.0
60.92,-11.0
60.98,20.0
61.05,24.0
61.11,12.0
61.17,1.0
61.24,-2.0
61.3,16.0
61.36,-3.0
61.43,4.0
61.49,-1.0
61.55,23.0
61.61,2.0
61.68,5.0
61.74,-16.0
61.8,-15.0
61.87,-17.0
61.93,-8.0
61.99,-24.0
62.06,-7.0
62.12,-18.0
62.18,-23.0
62.24,-5.0
62.31,-16.0
62.37,-35.0
62.43,-1.0
62.5,-18.0
62.56,-4.0
62.62,-16.0
62.69,-17.0
62.75,-10.0
62.81,-24.0
62.87,-25.0
62.94,-36.0
63.0,-23.0
63.06,-20.0
63.13,-42.0
63.19,-47.0
63.25,-69.0
63.32,-68.0
63.38,-77.0
63.44,-76.0
63.5,-71.0
63.57,-84.0
63.63,-89.0
63.69,-71.0
63.76,-91.0
63.82,-103.0
63.88,-105.0
63.95,-113.0
64.01,-106.0
64.07,-89.0
64.13,-110.0
64.2,-98.0
64.26,-99.0
64.32,-93.0
64.39,-105.0
64.45,-112.0
64.51,-102.0
64.58,-92.0
64.64,-100.0
64.7,-102.0
64.76,-104.0
64.83,-115.0
64.89,-120.0
64.95,-118.0
65.02,-108.0
65.08,-116.0
65.14,-115.0
65.21,-115.0
65.27,-125.0
65.33,-111.0
65.39,-127.0
65.46,-137.0
65.52,-121.0
65.58,-129.0
65.65,-115.0
65.71,-142.0
65.77,-120.0
65.84,-127.0
65.9,-131.0
65.96,-125.0
66.02,-138.0
66.09,-114.0
66.15,-122.0
66.21,-128.0
66.28,-123.0
66.34,-114.0
66.4,-78.0
66.47,-92.0
66.53,-89.0
66.59,-80.0
66.65,-87.0
66.72,-82.0
66.78,-82.0
66.84,-74.0
66.91,-71.0
66.97,-71.0
67.03,-75.0
67.1,-74.0
67.16,-57.0
67.22,-62.0
67.28,-64.0
67.35,-72.0
67.41,-66.0
67.47,-82.0
67.54,-80.0
67.6,-73.0
67.66,-81.0
67.73,-78.0
67.79,-65.0
67.85,-68.0
67.91,-80.0
67.98,-87.0
68.04,-88.0
68.1,-74.0
68.17,-57.0
68.23,-67.0
68.29,-54.0
68.36,-39.0
68.42,-48.0
68.48,-49.0
68.54,-46.0
68.61,-50.0
68.67,-60.0
68.73,-66.0
68.8,-51.0
68.86,-57.0
68.92,-64.0
68.99,-63.0
69.05,-62.0
69.11,-73.0
69.17,-63.0
69.24,-54.0
69.3,-43.0
69.36,-64.0
69.43,-54.0
69.49,-53.0
69.55,-42.0
69.62,-44.0
69.68,-55.0
69.74,-22.0
69.8,-30.0
69.87,-28.0
69.93,-37.0
69.99,-34.0
70.06,-28.0
70.12,-29.0
70.18,-25.0
70.25,-58.0
70.31,-44.0
70.37,-31.0
70.43,-28.0
70.5,-21.0
70.56,-31.0
70.62,-37.0
70.69,-35.0
70.75,-37.0
70.81,-23.0
70.88,-41.0
70.94,-38.0
71.0,-44.0
71.06,-28.0
71.13,-32.0
71.19,-39.0
71.25,-51.0
71.32,-49.0
71.38,-42.0
71.44,-31.0
71.51,-38.0
71.57,-41.0
71.63,-28.0
71.69,-41.0
71.76,-39.0
71.82,-43.0
71.88,-47.0
71.95,-29.0
72.01,-19.0
72.07,-55.0
72.14,-45.0
72.2,-29.0
72.26,-52.0
72.32,-35.0
72.39,-45.0
72.45,-43.0
72.51,-39.0
72.58,-37.0
72.64,-52.0
72.7,-58.0
72.77,-29.0
72.83,-44.0
72.89,-30.0
72.95,-17.0
73.02,-18.0
73.08,-16.0
73.14,-25.0
73.21,-11.0
73.27,-20.0
73.33,-35.0
73.4,-31.0
73.46,-23.0
73.52,-44.0
73.58,-49.0
73.65,-43.0
73.71,-51.0
73.77,-24.0
73.84,-39.0
73.9,-33.0
73.96,-25.0
74.03,-38.0
74.09,-35.0
74.15,-35.0
74.21,-22.0
74.28,-42.0
74.34,-41.0
74.4,-44.0
74.47,-53.0
74.53,-31.0
74.59,-26.0
74.66,-18.0
74.72,-22.0
74.78,-31.0
74.84,-20.0
74.91,-43.0
74.97,-55.0
75.03,-36.0
75.1,-55.0
75.16,-44.0
75.22,-48.0
75.29,-43.0
75.35,-40.0
75.41,-24.0
75.47,-12.0
75.54,-27.0
75.6,-30.0
75.66,-28.0
75.73,-19.0
75.79,-19.0
75.85,-24.0
75.92,-19.0
75.98,-18.0
76.04,6.0
76.1,6.0
76.17,-10.0
76.23,-5.0
76.29,21.0
76.36,6.0
76.42,-6.0
76.48,0.0
76.55,-12.0
76.61,-6.0
76.67,-7.0
76.73,-18.0
76.8,-20.0
76.86,-17.0
76.92,-14.0
76.99,-8.0
77.05,0.0
77.11,-21.0
77.18,-11.0
77.24,-11.0
77.3,-6.0
77.36,-5.0
77.43,4.0
77.49,11.0
77.55,0.0
77.62,2.0
77.68,11.0
77.74,-15.0
77.81,0.0
77.87,-16.0
77.93,-21.0
77.99,20.0
78.06,29.0
78.12,3.0
78.18,-7.0
78.25,4.0
78.31,17.0
78.37,-14.0
78.44,2.0
78.5,-7.0
78.56,0.0
78.62,1.0
78.69,17.0
78.75,20.0
78.81,11.0
78.88,21.0
78.94,7.0
79.0,17.0
79.07,4.0
79.13,12.0
79.19,-3.0
79.25,21.0
79.32,45.0
79.38,18.0
79.44,31.0
79.51,1.0
79.57,14.0
79.63,3.0
79.7,17.0
79.76,28.0
79.82,9.0
79.88,20.0
79.95,-7.0
80.01,-17.0
80.07,1.0
80.14,-10.0
80.2,-24.0
80.26,-27.0
80.33,-42.0
80.39,-33.0
80.45,-31.0
80.51,-35.0
80.58,-18.0
80.64,-27.0
80.7,-34.0
80.77,-30.0
80.83,-49.0
80.89,-43.0
80.96,-54.0
81.02,-56.0
81.08,-28.0
81.14,-13.0
81.21,-21.0
81.27,-31.0
81.33,-40.0
81.4,-26.0
81.46,-31.0
81.52,-36.0
81.59,-33.0
81.65,-22.0
81.71,-20.0
81.77,-12.0
81.84,2.0
81.9,-6.0
81.96,-19.0
82.03,-19.0
82.09,-8.0
82.15,5.0
82.22,-8.0
82.28,-7.0
82.34,-12.0
82.4,-17.0
82.47,1.0
82.53,-2.0
82.59,30.0
82.66,21.0
82.72,10.0
82.78,11.0
82.85,3.0
82.91,18.0
82.97,-14.0
83.03,25.0
83.1,25.0
83.16,36.0
83.22,37.0
83.29,44.0
83.35,41.0
83.41,45.0
83.48,26.0
83.54,51.0
83.6,77.0
83.66,76.0
83.73,61.0
83.79,75.0
83.85,75.0
83.92,72.0
83.98,71.0
84.04,74.0
84.11,64.0
84.17,64.0
84.23,61.0
84.29,67.0
84.36,80.0
84.42,53.0
84.48,52.0
84.55,49.0
84.61,47.0
84.67,73.0
84.74,74.0
84.8,93.0
84.86,99.0
84.92,97.0
84.99,87.0
85.05,89.0
85.11,101.0
85.18,75.0
85.24,99.0
85.3,90.0
85.37,94.0
85.43,102.0
85.49,92.0
85.55,91.0
85.62,94.0
85.68,93.0
85.74,92.0
85.81,61.0
85.87,86.0
85.93,89.0
86.0,95.0
86.06,87.0
86.12,88.0
86.18,91.0
86.25,67.0
86.31,103.0
86.37,97.0
86.44,55.0
86.5,66.0
86.56,79.0
86.63,83.0
86.69,98.0
86.75,94.0
86.81,92.0
86.88,113.0
86.94,121.0
87.0,101.0
87.07,101.0
87.13,109.0
87.19,105.0
87.26,101.0
87.32,90.0
87.38,73.0
87.44,69.0
87.51,64.0
87.57,52.0
87.63,66.0
87.7,80.0
87.76,111.0
87.82,105.0
87.89,64.0
87.95,86.0
88.01,87.0
88.07,75.0
88.14,103.0
88.2,76.0
88.26,87.0
88.33,77.0
88.39,74.0
88.45,72.0
88.52,84.0
88.58,90.0
88.64,64.0
88.7,73.0
88.77,94.0
88.83,96.0
88.89,107.0
88.96,79.0
89.02,82.0
89.08,72.0
89.15,55.0
89.21,67.0
89.27,67.0
89.33,63.0
89.4,71.0
89.46,64.0
89.52,57.0
89.59,72.0
89.65,80.0
89.71,95.0
89.78,99.0
89.84,79.0
89.9,85.0
89.96,94.0
90.03,82.0
90.09,93.0
90.15,99.0
90.22,94.0
90.28,93.0
90.34,76.0
90.41,87.0
90.47,94.0
90.53,105.0
90.59,111.0
90.66,122.0
90.72,115.0
90.78,101.0
90.85,98.0
90.91,119.0
90.97,121.0
91.04,111.0
91.1,80.0
91.16,105.0
91.22,127.0
91.29,109.0
91.35,114.0
91.41,104.0
91.48,102.0
91.54,97.0
91.6,120.0
91.67,109.0
91.73,106.0
91.79,105.0
91.85,101.0
91.92,134.0
91.98,126.0
92.04,156.0
92.11,142.0
92.17,146.0
92.23,160.0
92.3,156.0
92.36,136.0
92.42,161.0
92.48,156.0
92.55,156.0
92.61,131.0
92.67,132.0
92.74,135.0
92.8,132.0
92.86,141.0
92.93,141.0
92.99,147.0
93.05,141.0
93.11,121.0
93.18,130.0
93.24,129.0
93.3,132.0
93.37,101.0
93.43,109.0
93.49,115.0
93.56,126.0
93.62,121.0
93.68,83.0
93.74,126.0
93.81,128.0
93.87,124.0
93.93,121.0
94.0,116.0
94.06,115.0
94.12,108.0
94.19,105.0
94.25,104.0
94.31,123.0
94.37,124.0
94.44,138.0
94.5,141.0
94.56,133.0
94.63,118.0
94.69,146.0
94.75,127.0
94.82,122.0
94.88,143.0
94.94,123.0
95.0,135.0
95.07,134.0
95.13,138.0
95.19,126.0
95.26,126.0
95.32,129.0
95.38,101.0
95.45,86.0
95.51,66.0
95.57,76.0
95.63,79.0
95.7,83.0
95.76,80.0
95.82,63.0
95.89,63.0
95.95,53.0
96.01,76.0
96.08,72.0
96.14,82.0
96.2,64.0
96.26,62.0
96.33,63.0
96.39,72.0
96.45,57.0
96.52,52.0
96.58,46.0
96.64,42.0
96.71,42.0
96.77,42.0
96.83,39.0
96.89,17.0
96.96,-5.0
97.02,-5.0
97.08,-6.0
97.15,4.0
97.21,-12.0
97.27,-9.0
97.34,12.0
97.4,0.0
97.46,-27.0
97.52,-23.0
97.59,-1.0
97.65,6.0
97.71,1.0
97.78,-3.0
97.84,-15.0
97.9,-40.0
97.97,-38.0
98.03,-36.0
98.09,-25.0
98.15,-30.0
98.22,-26.0
98.28,-34.0
98.34,-33.0
98.41,-32.0
98.47,-55.0
98.53,-52.0
98.6,-43.0
98.66,-37.0
98.72,-34.0
98.78,-52.0
98.85,-66.0
98.91,-35.0
98.97,-37.0
99.04,-57.0
99.1,-67.0
99.16,-60.0
99.23,-56.0
99.29,-59.0
99.35,-68.0
99.41,-65.0
99.48,-40.0
99.54,-59.0
99.6,-51.0
99.67,-42.0
99.73,-73.0
99.79,-67.0
99.86,-47.0
99.92,-63.0
99.98,-67.0
100.04,-64.0
100.11,-52.0
100.17,-50.0
100.23,-58.0
100.3,-62.0
100.36,-75.0
100.42,-71.0
100.49,-78.0
100.55,-65.0
100.61,-47.0
100.67,-61.0
100.74,-72.0
100.8,-61.0
100.86,-33.0
100.93,-55.0
100.99,-57.0
101.05,-54.0
101.12,-38.0
101.18,-52.0
101.24,-34.0
101.3,-13.0
101.37,-2.0
101.43,-20.0
101.49,-21.0
101.56,-8.0
101.62,-1.0
101.68,-12.0
101.75,-27.0
101.81,-42.0
101.87,-62.0
101.93,-46.0
102.0,-22.0
102.06,-22.0
102.12,-13.0
102.19,-12.0
102.25,-10.0
102.31,-21.0
102.38,-31.0
102.44,-1.0
102.5,2.0
102.56,9.0
102.63,5.0
102.69,0.0
102.75,-4.0
102.82,-20.0
102.88,-37.0
102.94,-35.0
103.01,-47.0
103.07,-44.0
103.13,-25.0
103.19,-7.0
103.26,-26.0
103.32,-37.0
103.38,-34.0
103.45,-30.0
103.51,-39.0
103.57,-32.0
103.64,-25.0
103.7,-41.0
103.76,-35.0
103.82,-40.0
103.89,-48.0
103.95,-51.0
104.01,-48.0
104.08,-56.0
104.14,-25.0
104.2,-29.0
104.27,-43.0
104.33,-67.0
104.39,-61.0
104.45,-53.0
104.52,-54.0
104.58,-73.0
104.64,-73.0
104.71,-76.0
104.77,-92.0
104.83,-65.0
104.9,-50.0
104.96,-59.0
105.02,-70.0
105.08,-66.0
105.15,-60.0
105.21,-64.0
105.27,-60.0
105.34,-62.0
105.4,-73.0
105.46,-65.0
105.53,-59.0
105.59,-66.0
105.65,-72.0
105.71,-53.0
105.78,-50.0
105.84,-53.0
105.9,-66.0
105.97,-55.0
106.03,-55.0
106.09,-57.0
106.16,-39.0
106.22,-48.0
106.28,-43.0
106.34,-64.0
106.41,-48.0
106.47,-75.0
106.53,-53.0
106.6,-59.0
106.66,-41.0
106.72,-21.0
106.79,-41.0
106.85,-50.0
106.91,-36.0
106.97,-27.0
107.04,-1.0
107.1,-1.0
107.16,17.0
107.23,18.0
107.29,5.0
107.35,22.0
107.42,-1.0
107.48,-17.0
107.54,-13.0
107.6,-2.0
107.67,0.0
107.73,3.0
107.79,-7.0
107.86,7.0
107.92,-21.0
107.98,-28.0
108.05,4.0
108.11,12.0
108.17,13.0
108.23,2.0
108.3,22.0
108.36,6.0
108.42,6.0
108.49,-2.0
108.55,-3.0
108.61,16.0
108.68,13.0
108.74,8.0
108.8,13.0
108.86,19.0
108.93,14.0
108.99,3.0
109.05,37.0
109.12,54.0
109.18,62.0
109.24,56.0
109.31,63.0
109.37,71.0
109.43,59.0
109.49,55.0
109.56,61.0
109.62,69.0
109.68,74.0
109.75,77.0
109.81,107.0
109.87,114.0
109.94,111.0
110.0,101.0
110.06,89.0
110.12,99.0
110.19,87.0
110.25,83.0
110.31,75.0
110.38,89.0
110.44,100.0
110.5,108.0
110.57,108.0
110.63,95.0
110.69,81.0
110.75,67.0
110.82,85.0
110.88,92.0
110.94,79.0
111.01,83.0
111.07,107.0
111.13,80.0
111.2,81.0
111.26,85.0
111.32,81.0
111.38,65.0
111.45,103.0
111.51,107.0
111.57,114.0
111.64,125.0
111.7,124.0
111.76,120.0
111.83,104.0
111.89,109.0
111.95,118.0
112.01,116.0
112.08,114.0
112.14,110.0
112.2,139.0
112.27,140.0
112.33,140.0
112.39,142.0
112.46,122.0
112.52,97.0
112.58,136.0
112.64,135.0
112.71,129.0
112.77,126.0
112.83,121.0
112.9,107.0
112.96,119.0
113.02,107.0
113.09,99.0
113.15,104.0
113.21,121.0
113.27,121.0
113.34,115.0
113.4,122.0
113.46,101.0
113.53,112.0
113.59,109.0
113.65,97.0
113.72,101.0
113.78,104.0
113.84,74.0
113.9,74.0
113.97,92.0
114.03,67.0
114.09,74.0
114.16,88.0
114.22,76.0
114.28,46.0
114.35,58.0
114.41,85.0
114.47,76.0
114.53,77.0
114.6,74.0
114.66,57.0
114.72,52.0
114.79,66.0
114.85,73.0
114.91,58.0
114.98,70.0
115.04,81.0
115.1,67.0
115.16,82.0
115.23,86.0
115.29,75.0
115.35,80.0
115.42,73.0
115.48,81.0
115.54,101.0
115.61,76.0
115.67,96.0
115.73,85.0
115.79,70.0
115.86,77.0
115.92,81.0
115.98,85.0
116.05,76.0
116.11,65.0
116.17,71.0
116.24,92.0
116.3,100.0
116.36,85.0
116.42,92.0
116.49,95.0
116.55,107.0
116.61,81.0
116.68,89.0
116.74,93.0
116.8,102.0
116.87,92.0
116.93,110.0
116.99,111.0
117.05,101.0
117.12,90.0
117.18,86.0
117.24,92.0
117.31,87.0
117.37,86.0
117.43,83.0
117.5,91.0
117.56,90.0
117.62,96.0
117.68,84.0
117.75,90.0
117.81,74.0
117.87,80.0
117.94,81.0
118.0,70.0
118.06,74.0
118.13,90.0
118.19,117.0
118.25,112.0
118.31,118.0
118.38,134.0
118.44,123.0
118.5,114.0
118.57,103.0
118.63,115.0
118.69,108.0
118.76,110.0
118.82,104.0
118.88,88.0
118.94,77.0
119.01,79.0
119.07,81.0
119.13,77.0
119.2,59.0
119.26,71.0
119.32,93.0
119.39,95.0
119.45,73.0
119.51,102.0
119.57,67.0
119.64,54.0
119.7,60.0
119.76,74.0
119.83,93.0
119.89,88.0
119.95,81.0
120.02,84.0
120.08,58.0
120.14,87.0
120.2,80.0
120.27,90.0
120.33,81.0
120.39,70.0
120.46,89.0
120.52,85.0
120.58,71.0
120.65,71.0
120.71,81.0
120.77,118.0
120.83,81.0
120.9,90.0
120.96,102.0
121.02,95.0
121.09,99.0
121.15,92.0
121.21,101.0
121.28,99.0
121.34,99.0
121.4,91.0
121.46,89.0
121.53,61.0
121.59,49.0
121.65,58.0
121.72,39.0
121.78,24.0
121.84,38.0
121.91,48.0
121.97,34.0
122.03,40.0
122.09,35.0
122.16,0.0
122.22,6.0
122.28,7.0
122.35,12.0
122.41,5.0
122.47,10.0
122.54,13.0
122.6,18.0
122.66,8.0
122.72,0.0
122.79,15.0
122.85,19.0
122.91,17.0
122.98,15.0
123.04,41.0
123.1,52.0
123.17,25.0
123.23,37.0
123.29,34.0
123.35,18.0
123.42,15.0
123.48,19.0
123.54,11.0
123.61,23.0
123.67,29.0
123.73,15.0
123.8,9.0
123.86,15.0
123.92,25.0
123.98,17.0
124.05,10.0
124.11,2.0
124.17,2.0
124.24,-17.0
124.3,-20.0
124.36,-34.0
124.43,14.0
124.49,1.0
124.55,-12.0
124.61,-17.0
124.68,-13.0
124.74,3.0
124.8,-21.0
124.87,-21.0
124.93,-34.0
124.99,-14.0
125.06,-32.0
125.12,-20.0
125.18,0.0
125.24,-36.0
125.31,-30.0
125.37,-40.0
125.43,-43.0
125.5,-44.0
125.56,-47.0
125.62,-27.0
125.69,-29.0
125.75,-30.0
125.81,-43.0
125.87,-14.0
125.94,-31.0
126.0,-22.0
126.06,-17.0
126.13,-9.0
126.19,-27.0
126.25,-30.0
126.32,-26.0
126.38,-19.0
126.44,-25.0
126.5,-38.0
126.57,-51.0
126.63,-44.0
126.69,-17.0
126.76,-1.0
126.82,-15.0
126.88,-22.0
126.95,0.0
127.01,-8.0
127.07,-33.0
127.13,-14.0
127.2,-2.0
127.26,16.0
127.32,13.0
127.39,1.0
127.45,4.0
127.51,8.0
127.58,8.0
127.64,16.0
127.7,26.0
127.76,29.0
127.83,27.0
127.89,23.0
127.95,7.0
128.02,20.0
128.08,16.0
128.14,25.0
128.21,37.0
128.27,39.0
128.33,8.0
128.39,13.0
128.46,7.0
128.52,10.0
128.58,15.0
128.65,-21.0
128.71,19.0
128.77,37.0
128.84,8.0
128.9,23.0
128.96,26.0
129.02,25.0
129.09,24.0
129.15,15.0
129.21,28.0
129.28,34.0
129.34,20.0
129.4,23.0
129.47,38.0
129.53,12.0
129.59,16.0
129.65,31.0
129.72,26.0
129.78,14.0
129.84,-26.0
129.91,-12.0
129.97,7.0
130.03,19.0
130.1,2.0
130.16,23.0
130.22,2.0
130.28,-7.0
130.35,11.0
130.41,22.0
130.47,6.0
130.54,13.0
130.6,-14.0
130.66,-25.0
130.73,0.0
130.79,-12.0
130.85,-27.0
130.91,-18.0
130.98,-17.0
131.04,1.0
131.1,-7.0
131.17,-4.0
131.23,-24.0
131.29,-23.0
131.36,-34.0
131.42,-30.0
131.48,-12.0
131.54,-27.0
131.61,-39.0
131.67,-58.0
131.73,-42.0
131.8,-14.0
131.86,-28.0
131.92,-36.0
131.99,-26.0
132.05,-18.0
132.11,-25.0
132.17,-22.0
132.24,-2.0
132.3,-5.0
132.36,-17.0
132.43,-13.0
132.49,-8.0
132.55,5.0
132.62,3.0
132.68,-29.0
132.74,-7.0
132.8,-3.0
132.87,-17.0
132.93,-2.0
132.99,-5.0
133.06,-7.0
133.12,-16.0
133.18,-20.0
133.25,1.0
133.31,6.0
133.37,15.0
133.43,14.0
133.5,20.0
133.56,9.0
133.62,-5.0
133.69,4.0
133.75,-2.0
133.81,0.0
133.88,10.0
133.94,13.0
134.0,38.0
134.06,16.0
134.13,17.0
134.19,20.0
134.25,19.0
134.32,10.0
134.38,21.0
134.44,31.0
134.51,27.0
134.57,28.0
134.63,25.0
134.69,24.0
134.76,23.0
134.82,51.0
134.88,38.0
134.95,32.0
135.01,26.0
135.07,82.0
135.14,64.0
135.2,71.0
135.26,53.0
135.32,43.0
135.39,60.0
135.45,49.0
135.51,62.0
135.58,44.0
135.64,54.0
135.7,40.0
135.77,45.0
135.83,65.0
135.89,63.0
135.95,47.0
136.02,55.0
136.08,56.0
136.14,66.0
136.21,52.0
136.27,56.0
136.33,52.0
136.4,40.0
136.46,57.0
136.52,78.0
136.58,74.0
136.65,76.0
136.71,71.0
136.77,70.0
136.84,65.0
136.9,51.0
136.96,82.0
137.03,66.0
137.09,83.0
137.15,70.0
137.21,85.0
137.28,99.0
137.34,92.0
137.4,60.0
137.47,80.0
137.53,95.0
137.59,56.0
137.66,74.0
137.72,46.0
137.78,62.0
137.84,95.0
137.91,78.0
137.97,84.0
138.03,81.0
138.1,64.0
138.16,78.0
138.22,100.0
138.29,73.0
138.35,97.0
138.41,108.0
138.47,103.0
138.54,89.0
138.6,107.0
138.66,136.0
138.73,111.0
138.79,133.0
138.85,106.0
138.92,91.0
138.98,88.0
139.04,97.0
139.1,114.0
139.17,113.0
139.23,99.0
139.29,122.0
139.36,106.0
139.42,109.0
139.48,133.0
139.55,139.0
139.61,97.0
139.67,114.0
139.73,120.0
139.8,136.0
139.86,113.0
139.92,110.0
139.99,115.0
140.05,123.0
140.11,135.0
140.18,133.0
140.24,125.0
140.3,118.0
140.36,126.0
140.43,131.0
140.49,148.0
140.55,162.0
140.62,156.0
140.68,159.0
140.74,165.0
140.81,150.0
140.87,164.0
140.93,172.0
140.99,168.0
141.06,156.0
141.12,180.0
141.18,144.0
141.25,127.0
141.31,141.0
141.37,138.0
141.44,149.0
141.5,165.0
141.56,141.0
141.62,133.0
141.69,158.0
141.75,133.0
141.81,140.0
141.88,156.0
141.94,147.0
142.0,143.0
142.07,140.0
142.13,155.0
142.19,141.0
142.25,120.0
142.32,134.0
142.38,153.0
142.44,136.0
142.51,141.0
142.57,147.0
142.63,156.0
142.7,161.0
142.76,148.0
142.82,133.0
142.88,149.0
142.95,152.0
143.01,159.0
143.07,191.0
143.14,188.0
143.2,186.0
143.26,169.0
143.33,202.0
143.39,199.0
143.45,200.0
143.51,207.0
143.58,220.0
143.64,211.0
143.7,211.0
143.77,205.0
143.83,200.0
143.89,213.0
143.96,215.0
144.02,218.0
144.08,214.0
144.14,211.0
144.21,221.0
144.27,221.0
144.33,215.0
144.4,200.0
144.46,210.0
144.52,228.0
144.59,224.0
144.65,211.0
144.71,205.0
144.77,194.0
144.84,187.0
144.9,189.0
144.96,192.0
145.03,194.0
145.09,200.0
145.15,182.0
145.22,154.0
145.28,157.0
145.34,193.0
145.4,196.0
145.47,203.0
145.53,191.0
145.59,185.0
145.66,193.0
145.72,175.0
145.78,181.0
145.85,199.0
145.91,193.0
145.97,165.0
146.03,178.0
146.1,196.0
146.16,195.0
146.22,190.0
146.29,184.0
146.35,164.0
146.41,201.0
146.47,173.0
146.54,156.0
146.6,178.0
146.66,170.0
146.73,167.0
146.79,159.0
146.85,158.0
146.92,155.0
146.98,140.0
147.04,122.0
147.1,129.0
147.17,131.0
147.23,112.0
147.29,133.0
147.36,120.0
147.42,130.0
147.48,129.0
147.55,125.0
147.61,128.0
147.67,115.0
147.73,110.0
147.8,112.0
147.86,130.0
147.92,87.0
147.99,82.0
148.05,96.0
148.11,98.0
148.18,91.0
148.24,99.0
148.3,109.0
148.36,100.0
148.43,74.0
148.49,79.0
148.55,75.0
148.62,73.0
148.68,92.0
148.74,71.0
148.81,65.0
148.87,70.0
148.93,64.0
148.99,73.0
149.06,65.0
149.12,72.0
149.18,93.0
149.25,95.0
149.31,91.0
149.37,94.0
149.44,75.0
149.5,88.0
149.56,56.0
149.62,68.0
149.69,82.0
149.75,79.0
149.81,96.0
149.88,78.0
149.94,59.0
150.0,72.0
150.07,77.0
150.13,60.0
150.19,73.0
150.25,57.0
150.32,47.0
150.38,56.0
150.44,53.0
150.51,64.0
150.57,68.0
150.63,75.0
150.7,68.0
150.76,64.0
150.82,46.0
150.88,66.0
150.95,64.0
151.01,57.0
151.07,80.0
151.14,81.0
151.2,67.0
151.26,81.0
151.33,62.0
151.39,60.0
151.45,60.0
151.51,59.0
151.58,47.0
151.64,25.0
151.7,1.0
151.77,27.0
151.83,27.0
151.89,32.0
151.96,40.0
152.02,29.0
152.08,56.0
152.14,23.0
152.21,25.0
152.27,20.0
152.33,7.0
152.4,16.0
152.46,19.0
152.52,17.0
152.59,11.0
152.65,12.0
152.71,-5.0
152.77,-3.0
152.84,14.0
152.9,-6.0
152.96,-11.0
153.03,-3.0
153.09,0.0
153.15,-7.0
153.22,-19.0
153.28,-19.0
153.34,-18.0
153.4,-10.0
153.47,-21.0
153.53,-2.0
153.59,7.0
153.66,-8.0
153.72,-19.0
153.78,-11.0
153.85,-14.0
153.91,1.0
153.97,20.0
154.03,6.0
154.1,-14.0
154.16,3.0
154.22,1.0
154.29,-14.0
154.35,0.0
154.41,6.0
154.48,-16.0
154.54,20.0
154.6,18.0
154.66,25.0
154.73,28.0
154.79,13.0
154.85,17.0
154.92,29.0
154.98,18.0
155.04,28.0
155.11,8.0
155.17,28.0
155.23,28.0
155.29,-10.0
155.36,-3.0
155.42,-12.0
155.48,-2.0
155.55,21.0
155.61,-3.0
155.67,22.0
155.74,13.0
155.8,8.0
155.86,22.0
155.92,7.0
155.99,4.0
156.05,-12.0
156.11,-10.0
156.18,-14.0
156.24,-10.0
156.3,-11.0
156.37,-19.0
156.43,-17.0
156.49,-26.0
156.55,-14.0
156.62,-5.0
156.68,-9.0
156.74,11.0
156.81,31.0
156.87,16.0
156.93,45.0
157.0,16.0
157.06,6.0
157.12,39.0
157.18,19.0
157.25,43.0
157.31,34.0
157.37,42.0
157.44,43.0
157.5,38.0
157.56,22.0
157.63,38.0
157.69,38.0
157.75,46.0
157.81,53.0
157.88,34.0
157.94,36.0
158.0,54.0
158.07,63.0
158.13,68.0
158.19,65.0
158.26,60.0
158.32,55.0
158.38,53.0
158.44,60.0
158.51,47.0
158.57,52.0
158.63,46.0
158.7,60.0
158.76,48.0
158.82,50.0
158.89,43.0
158.95,48.0
159.01,52.0
159.07,43.0
159.14,38.0
159.2,22.0
159.26,34.0
159.33,28.0
159.39,11.0
159.45,33.0
159.52,32.0
159.58,61.0
159.64,40.0
159.7,17.0
159.77,48.0
159.83,33.0
159.89,40.0
159.96,39.0
160.02,35.0
160.08,38.0
160.15,66.0
160.21,55.0
160.27,51.0
160.33,62.0
160.4,70.0
160.46,74.0
160.52,74.0
160.59,73.0
160.65,74.0
160.71,73.0
160.78,65.0
160.84,65.0
160.9,62.0
160.96,77.0
161.03,90.0
161.09,97.0
161.15,99.0
161.22,109.0
161.28,102.0
161.34,106.0
161.41,105.0
161.47,91.0
161.53,98.0
161.59,108.0
161.66,101.0
161.72,118.0
161.78,115.0
161.85,108.0
161.91,110.0
161.97,96.0
162.04,111.0
162.1,114.0
162.16,113.0
162.22,101.0
162.29,105.0
162.35,109.0
162.41,102.0
162.48,89.0
162.54,107.0
162.6,105.0
162.67,93.0
162.73,113.0
162.79,102.0
162.85,92.0
162.92,81.0
162.98,106.0
163.04,105.0
163.11,96.0
163.17,103.0
163.23,107.0
163.3,101.0
163.36,98.0
163.42,103.0
163.48,96.0
163.55,94.0
163.61,84.0
163.67,95.0
163.74,85.0
163.8,95.0
163.86,121.0
163.93,65.0
163.99,62.0
164.05,68.0
164.11,63.0
164.18,71.0
164.24,50.0
164.3,56.0
164.37,40.0
164.43,24.0
164.49,28.0
164.56,30.0
164.62,49.0
164.68,30.0
164.74,44.0
164.81,43.0
164.87,41.0
164.93,51.0
165.0,57.0
165.06,57.0
165.12,53.0
165.19,62.0
165.25,46.0
165.31,48.0
165.37,38.0
165.44,56.0
165.5,26.0
165.56,27.0
165.63,36.0
165.69,36.0
165.75,35.0
165.82,22.0
165.88,28.0
165.94,24.0
166.0,21.0
166.07,8.0
166.13,11.0
166.19,21.0
166.26,25.0
166.32,24.0
166.38,25.0
166.45,26.0
166.51,7.0
166.57,5.0
166.63,13.0
166.7,16.0
166.76,15.0
166.82,54.0
166.89,66.0
166.95,43.0
167.01,33.0
167.08,18.0
167.14,21.0
167.2,33.0
167.26,37.0
167.33,47.0
167.39,36.0
167.45,40.0
167.52,37.0
167.58,21.0
167.64,30.0
167.71,32.0
167.77,18.0
167.83,22.0
167.89,39.0
167.96,47.0
168.02,30.0
168.08,-1.0
168.15,14.0
168.21,36.0
168.27,26.0
168.34,36.0
168.4,65.0
168.46,47.0
168.52,40.0
168.59,30.0
168.65,37.0
168.71,50.0
168.78,47.0
168.84,39.0
168.9,30.0
168.97,35.0
169.03,38.0
169.09,46.0
169.15,41.0
169.22,39.0
169.28,39.0
169.34,32.0
169.41,42.0
169.47,41.0
169.53,20.0
169.6,20.0
169.66,25.0
169.72,65.0
169.78,50.0
169.85,59.0
169.91,47.0
169.97,57.0
170.04,62.0
170.1,29.0
170.16,42.0
170.23,68.0
170.29,60.0
170.35,60.0
170.41,70.0
170.48,71.0
170.54,83.0
170.6,80.0
170.67,107.0
170.73,82.0
170.79,75.0
170.86,95.0
170.92,83.0
170.98,67.0
171.04,78.0
171.11,93.0
171.17,54.0
171.23,80.0
171.3,85.0
171.36,76.0
171.42,79.0
171.49,61.0
171.55,87.0
171.61,83.0
171.67,77.0
171.74,100.0
171.8,71.0
171.86,85.0
171.93,87.0
171.99,71.0
172.05,75.0
172.12,39.0
172.18,36.0
172.24,86.0
172.3,74.0
172.37,63.0
172.43,73.0
172.49,66.0
172.56,68.0
172.62,53.0
172.68,75.0
172.75,60.0
172.81,66.0
172.87,65.0
172.93,61.0
173.0,47.0
173.06,57.0
173.12,69.0
173.19,34.0
173.25,27.0
173.31,55.0
173.38,65.0
173.44,40.0
173.5,41.0
173.56,39.0
173.63,57.0
173.69,37.0
173.75,49.0
173.82,57.0
173.88,63.0
173.94,61.0
174.01,59.0
174.07,71.0
174.13,76.0
174.19,71.0
174.26,78.0
174.32,76.0
174.38,52.0
174.45,40.0
174.51,53.0
174.57,58.0
174.64,62.0
174.7,79.0
174.76,97.0
174.82,84.0
174.89,58.0
174.95,65.0
175.01,55.0
175.08,65.0
175.14,83.0
175.2,68.0
175.27,83.0
175.33,84.0
175.39,104.0
175.45,104.0
175.52,102.0
175.58,134.0
175.64,95.0
175.71,92.0
175.77,96.0
175.83,107.0
175.9,132.0
175.96,115.0
176.02,94.0
176.08,101.0
176.15,79.0
176.21,84.0
176.27,88.0
176.34,107.0
176.4,104.0
176.46,94.0
176.53,109.0
176.59,97.0
176.65,88.0
176.71,82.0
176.78,105.0
176.84,73.0
176.9,81.0
176.97,96.0
177.03,74.0
177.09,77.0
177.16,76.0
177.22,79.0
177.28,64.0
177.34,79.0
177.41,94.0
177.47,80.0
177.53,79.0
177.6,66.0
177.66,57.0
177.72,62.0
177.79,43.0
177.85,31.0
177.91,44.0
177.97,64.0
178.04,47.0
178.1,66.0
178.16,90.0
178.23,49.0
178.29,73.0
178.35,75.0
178.42,63.0
178.48,58.0
178.54,69.0
178.6,82.0
178.67,60.0
178.73,68.0
178.79,72.0
178.86,82.0
178.92,68.0
178.98,78.0
179.05,85.0
179.11,71.0
179.17,76.0
179.23,84.0
179.3,93.0
179.36,114.0
179.42,124.0
179.49,84.0
179.55,90.0
179.61,89.0
179.68,76.0
179.74,94.0
179.8,82.0
179.86,91.0
179.93,74.0
179.99,69.0
180.05,74.0
180.12,91.0
180.18,72.0
180.24,61.0
180.31,79.0
180.37,65.0
180.43,39.0
180.49,43.0
180.56,56.0
180.62,69.0
180.68,54.0
180.75,55.0
180.81,57.0
180.87,35.0
180.94,41.0
181.0,32.0
181.06,28.0
181.12,37.0
181.19,46.0
181.25,43.0
181.31,44.0
181.38,44.0
181.44,38.0
181.5,30.0
181.57,40.0
181.63,27.0
181.69,23.0
181.75,13.0
181.82,27.0
181.88,16.0
181.94,14.0
182.01,35.0
182.07,19.0
182.13,27.0
182.2,38.0
182.26,44.0
182.32,32.0
182.38,27.0
182.45,28.0
182.51,35.0
182.57,25.0
182.64,36.0
182.7,49.0
182.76,32.0
182.83,41.0
182.89,36.0
182.95,32.0
183.01,22.0
183.08,7.0
183.14,22.0
183.2,36.0
183.27,11.0
183.33,36.0
183.39,36.0
183.46,27.0
183.52,4.0
183.58,8.0
183.64,19.0
183.71,3.0
183.77,2.0
183.83,15.0
183.9,18.0
183.96,1.0
184.02,26.0
184.09,34.0
184.15,39.0
184.21,22.0
184.27,33.0
184.34,43.0
184.4,29.0
184.46,28.0
184.53,37.0
184.59,38.0
184.65,22.0
184.72,38.0
184.78,37.0
184.84,32.0
184.9,31.0
184.97,17.0
185.03,39.0
185.09,35.0
185.16,49.0
185.22,44.0
185.28,32.0
185.35,54.0
185.41,43.0
185.47,20.0
185.53,33.0
185.6,36.0
185.66,32.0
185.72,44.0
185.79,43.0
185.85,36.0
185.91,54.0
185.98,67.0
186.04,43.0
186.1,33.0
186.16,32.0
186.23,59.0
186.29,43.0
186.35,50.0
186.42,79.0
186.48,62.0
186.54,82.0
186.61,62.0
186.67,63.0
186.73,69.0
186.79,56.0
186.86,74.0
186.92,73.0
186.98,77.0
187.05,65.0
187.11,61.0
187.17,65.0
187.24,65.0
187.3,75.0
187.36,84.0
187.42,69.0
187.49,102.0
187.55,102.0
187.61,79.0
187.68,87.0
187.74,87.0
187.8,88.0
187.87,89.0
187.93,113.0
187.99,85.0
188.05,84.0
188.12,76.0
188.18,69.0
188.24,81.0
188.31,88.0
188.37,87.0
188.43,95.0
188.5,124.0
188.56,81.0
188.62,91.0
188.68,91.0
188.75,98.0
188.81,101.0
188.87,91.0
188.94,90.0
189.0,110.0
189.06,97.0
189.13,66.0
189.19,68.0
189.25,65.0
189.31,74.0
189.38,60.0
189.44,94.0
189.5,98.0
189.57,88.0
189.63,126.0
189.69,111.0
189.76,91.0
189.82,98.0
189.88,107.0
189.94,98.0
190.01,90.0
190.07,120.0
190.13,123.0
190.2,112.0
190.26,126.0
190.32,126.0
190.39,134.0
190.45,139.0
190.51,115.0
190.57,138.0
190.64,135.0
190.7,151.0
190.76,165.0
190.83,147.0
190.89,160.0
190.95,143.0
191.02,148.0
191.08,161.0
191.14,150.0
191.2,167.0
191.27,164.0
191.33,166.0
191.39,159.0
191.46,167.0
191.52,180.0
191.58,185.0
191.65,182.0
191.71,194.0
191.77,199.0
191.83,189.0
191.9,182.0
191.96,186.0
192.02,189.0
192.09,176.0
192.15,163.0
192.21,182.0
192.28,191.0
192.34,201.0
192.4,189.0
192.46,173.0
192.53,190.0
192.59,176.0
192.65,157.0
192.72,167.0
192.78,168.0
192.84,208.0
192.91,204.0
192.97,203.0
193.03,194.0
193.09,190.0
193.16,208.0
193.22,221.0
193.28,234.0
193.35,240.0
193.41,219.0
193.47,226.0
193.54,225.0
193.6,215.0
193.66,232.0
193.72,237.0
193.79,234.0
193.85,205.0
193.91,209.0
193.98,202.0
194.04,203.0
194.1,220.0
194.17,214.0
194.23,221.0
194.29,229.0
194.35,209.0
194.42,198.0
194.48,190.0
194.54,200.0
194.61,200.0
194.67,203.0
194.73,192.0
194.8,202.0
194.86,213.0
194.92,183.0
194.98,191.0
195.05,192.0
195.11,205.0
195.17,208.0
195.24,216.0
195.3,219.0
195.36,195.0
195.43,189.0
195.49,209.0
195.55,197.0
195.61,189.0
195.68,206.0
195.74,208.0
195.8,166.0
195.87,185.0
195.93,207.0
195.99,211.0
196.06,183.0
196.12,175.0
196.18,186.0
196.24,191.0
196.31,190.0
196.37,186.0
196.43,183.0
196.5,175.0
196.56,186.0
196.62,184.0
196.69,209.0
196.75,192.0
196.81,183.0
196.87,178.0
196.94,155.0
197.0,181.0
197.06,193.0
197.13,181.0
197.19,175.0
197.25,188.0
197.32,205.0
197.38,192.0
197.44,173.0
197.5,164.0
197.57,168.0
197.63,146.0
197.69,154.0
197.76,159.0
197.82,141.0
197.88,155.0
197.95,172.0
198.01,174.0
198.07,153.0
198.13,132.0
198.2,136.0
198.26,124.0
198.32,126.0
198.39,138.0
198.45,143.0
198.51,162.0
198.58,146.0
198.64,149.0
198.7,163.0
198.76,150.0
198.83,153.0
198.89,154.0
198.95,142.0
199.02,145.0
199.08,140.0
199.14,142.0
199.21,120.0
199.27,131.0
199.33,152.0
199.39,147.0
199.46,153.0
199.52,149.0
199.58,151.0
199.65,130.0
199.71,139.0
199.77,150.0
199.84,158.0
199.9,139.0
199.96,152.0
200.02,141.0
200.09,139.0
200.15,144.0
200.21,153.0
200.28,148.0
200.34,146.0
200.4,155.0
200.47,130.0
200.53,131.0
200.59,131.0
200.65,160.0
200.72,153.0
200.78,139.0
200.84,148.0
200.91,148.0
200.97,157.0
201.03,142.0
201.1,143.0
201.16,174.0
201.22,153.0
201.28,136.0
201.35,159.0
201.41,135.0
201.47,153.0
201.54,131.0
201.6,146.0
201.66,151.0
201.73,140.0
201.79,153.0
201.85,137.0
201.91,143.0
201.98,111.0
202.04,133.0
202.1,123.0
202.17,133.0
202.23,98.0
202.29,113.0
202.36,80.0
202.42,90.0
202.48,69.0
202.54,69.0
202.61,74.0
202.67,63.0
202.73,85.0
202.8,65.0
202.86,73.0
202.92,82.0
202.99,59.0
203.05,76.0
203.11,57.0
203.17,63.0
203.24,52.0
203.3,71.0
203.36,61.0
203.43,42.0
203.49,61.0
203.55,71.0
203.62,32.0
203.68,28.0
203.74,22.0
203.8,27.0
203.87,44.0
203.93,34.0
203.99,41.0
204.06,33.0
204.12,36.0
204.18,25.0
204.25,42.0
204.31,68.0
204.37,45.0
204.43,68.0
204.5,48.0
204.56,30.0
204.62,38.0
204.69,47.0
204.75,43.0
204.81,58.0
204.88,64.0
204.94,82.0
205.0,51.0
205.06,50.0
205.13,67.0
205.19,54.0
205.25,57.0
205.32,47.0
205.38,55.0
205.44,27.0
205.51,19.0
205.57,24.0
205.63,42.0
205.69,49.0
205.76,58.0
205.82,66.0
205.88,66.0
205.95,69.0
206.01,60.0
206.07,43.0
206.14,53.0
206.2,43.0
206.26,35.0
206.32,54.0
206.39,50.0
206.45,41.0
206.51,28.0
206.58,28.0
206.64,36.0
206.7,32.0
206.77,39.0
206.83,35.0
206.89,33.0
206.95,40.0
207.02,44.0
207.08,31.0
207.14,30.0
207.21,25.0
207.27,42.0
207.33,43.0
207.4,9.0
207.46,2.0
207.52,12.0
207.58,-12.0
207.65,-2.0
207.71,3.0
207.77,5.0
207.84,34.0
207.9,43.0
207.96,12.0
208.03,8.0
208.09,3.0
208.15,33.0
208.21,31.0
208.28,31.0
208.34,46.0
208.4,41.0
208.47,52.0
208.53,35.0
208.59,32.0
208.66,42.0
208.72,18.0
208.78,5.0
208.84,11.0
208.91,16.0
208.97,20.0
209.03,18.0
209.1,22.0
209.16,22.0
209.22,17.0
209.29,17.0
209.35,29.0
209.41,27.0
209.47,11.0
209.54,17.0
209.6,23.0
209.66,16.0
209.73,33.0
209.79,38.0
209.85,24.0
209.92,29.0
209.98,46.0
210.04,42.0
210.1,23.0
210.17,53.0
210.23,44.0
210.29,36.0
210.36,28.0
210.42,41.0
210.48,41.0
210.55,25.0
210.61,20.0
210.67,38.0
210.73,42.0
210.8,14.0
210.86,22.0
210.92,18.0
210.99,36.0
211.05,32.0
211.11,30.0
211.18,4.0
211.24,42.0
211.3,23.0
211.36,8.0
211.43,13.0
211.49,20.0
211.55,38.0
211.62,0.0
211.68,21.0
211.74,25.0
211.81,23.0
211.87,19.0
211.93,9.0
211.99,-5.0
212.06,-7.0
212.12,2.0
212.18,13.0
212.25,-10.0
212.31,-4.0
212.37,27.0
212.44,18.0
212.5,25.0
212.56,28.0
212.62,18.0
212.69,14.0
212.75,13.0
212.81,32.0
212.88,26.0
212.94,37.0
213.0,50.0
213.07,37.0
213.13,32.0
213.19,39.0
213.25,44.0
213.32,30.0
213.38,23.0
213.44,7.0
213.51,-7.0
213.57,-10.0
213.63,-14.0
213.7,-7.0
213.76,6.0
213.82,3.0
213.88,5.0
213.95,3.0
214.01,5.0
214.07,3.0
214.14,20.0
214.2,12.0
214.26,13.0
214.33,13.0
214.39,29.0
214.45,11.0
214.51,11.0
214.58,5.0
214.64,4.0
214.7,3.0
214.77,-13.0
214.83,-4.0
214.89,-29.0
214.96,-17.0
215.02,-18.0
215.08,3.0
215.14,-5.0
215.21,-25.0
215.27,-12.0
215.33,-8.0
215.4,-9.0
215.46,-21.0
215.52,-17.0
215.59,-5.0
215.65,-22.0
215.71,2.0
215.77,-2.0
215.84,5.0
215.9,22.0
215.96,6.0
216.03,18.0
216.09,1.0
216.15,9.0
216.22,22.0
216.28,9.0
216.34,22.0
216.4,32.0
216.47,20.0
216.53,20.0
216.59,5.0
216.66,15.0
216.72,23.0
216.78,10.0
216.85,34.0
216.91,46.0
216.97,61.0
217.03,46.0
217.1,58.0
217.16,79.0
217.22,32.0
217.29,63.0
217.35,71.0
217.41,76.0
217.48,74.0
217.54,61.0
217.6,80.0
217.66,83.0
217.73,80.0
217.79,85.0
217.85,98.0
217.92,86.0
217.98,85.0
218.04,89.0
218.11,96.0
218.17,94.0
218.23,113.0
218.29,101.0
218.36,98.0
218.42,119.0
218.48,106.0
218.55,91.0
218.61,75.0
218.67,97.0
218.74,87.0
218.8,76.0
218.86,70.0
218.92,68.0
218.99,58.0
219.05,70.0
219.11,83.0
219.18,63.0
219.24,58.0
219.3,62.0
219.37,73.0
219.43,72.0
219.49,68.0
219.55,63.0
219.62,58.0
219.68,75.0
219.74,62.0
219.81,43.0
219.87,78.0
219.93,69.0
220.0,68.0
220.06,74.0
220.12,82.0
220.18,109.0
220.25,103.0
220.31,111.0
220.37,119.0
220.44,111.0
220.5,107.0
220.56,108.0
220.63,117.0
220.69,94.0
220.75,95.0
220.81,97.0
220.88,131.0
220.94,110.0
221.0,117.0
221.07,120.0
221.13,114.0
221.19,115.0
221.26,125.0
221.32,118.0
221.38,131.0
221.44,121.0
221.51,124.0
221.57,147.0
221.63,135.0
221.7,130.0
221.76,118.0
221.82,134.0
221.89,160.0
221.95,139.0
222.01,153.0
222.07,155.0
222.14,142.0
222.2,158.0
222.26,163.0
222.33,167.0
222.39,155.0
222.45,166.0
222.52,142.0
222.58,140.0
222.64,180.0
222.7,161.0
222.77,153.0
222.83,155.0
222.89,162.0
222.96,165.0
223.02,176.0
223.08,189.0
223.15,173.0
223.21,165.0
223.27,185.0
223.33,179.0
223.4,167.0
223.46,172.0
223.52,193.0
223.59,187.0
223.65,195.0
223.71,192.0
223.78,171.0
223.84,183.0
223.9,184.0
223.96,177.0
224.03,195.0
224.09,179.0
224.15,168.0
224.22,190.0
224.28,176.0
224.34,183.0
224.41,187.0
224.47,159.0
224.53,173.0
224.59,165.0
224.66,181.0
224.72,165.0
224.78,167.0
224.85,177.0
224.91,165.0
224.97,154.0
225.04,158.0
225.1,146.0
225.16,130.0
225.22,147.0
225.29,125.0
225.35,127.0
225.41,125.0
225.48,140.0
225.54,150.0
225.6,133.0
225.67,132.0
225.73,136.0
225.79,126.0
225.85,126.0
225.92,140.0
225.98,128.0
226.04,128.0
226.11,114.0
226.17,107.0
226.23,121.0
226.3,119.0
226.36,113.0
226.42,124.0
226.48,124.0
226.55,111.0
226.61,100.0
226.67,115.0
226.74,114.0
226.8,119.0
226.86,111.0
226.93,129.0
226.99,118.0
227.05,107.0
227.11,120.0
227.18,121.0
227.24,129.0
227.3,121.0
227.37,97.0
227.43,129.0
227.49,133.0
227.56,131.0
227.62,132.0
227.68,122.0
227.74,129.0
227.81,130.0
227.87,111.0
227.93,113.0
228.0,115.0
228.06,118.0
228.12,133.0
228.19,116.0
228.25,140.0
228.31,133.0
228.37,107.0
228.44,105.0
228.5,104.0
228.56,119.0
228.63,100.0
228.69,114.0
228.75,133.0
228.82,99.0
228.88,96.0
228.94,109.0
229.0,79.0
229.07,83.0
229.13,102.0
229.19,91.0
229.26,92.0
229.32,89.0
229.38,83.0
229.45,82.0
229.51,66.0
229.57,71.0
229.63,76.0
229.7,72.0
229.76,66.0
229.82,85.0
229.89,76.0
229.95,88.0
230.01,100.0
230.08,89.0
230.14,78.0
230.2,67.0
230.26,79.0
230.33,52.0
230.39,51.0
230.45,43.0
230.52,43.0
230.58,63.0
230.64,66.0
230.71,60.0
230.77,57.0
230.83,68.0
230.89,73.0
230.96,54.0
231.02,43.0
231.08,63.0
231.15,50.0
231.21,45.0
231.27,41.0
231.34,27.0
231.4,45.0
231.46,44.0
231.52,56.0
231.59,40.0
231.65,40.0
231.71,37.0
231.78,44.0
231.84,56.0
231.9,60.0
231.97,38.0
232.03,41.0
232.09,46.0
232.15,61.0
232.22,42.0
232.28,47.0
232.34,37.0
232.41,44.0
232.47,52.0
232.53,48.0
232.6,45.0
232.66,37.0
232.72,25.0
232.78,30.0
232.85,34.0
232.91,15.0
232.97,33.0
233.04,27.0
233.1,3.0
233.16,17.0
233.23,31.0
233.29,24.0
233.35,26.0
233.41,32.0
233.48,38.0
233.54,44.0
233.6,28.0
233.67,36.0
233.73,34.0
233.79,22.0
233.86,29.0
233.92,27.0
233.98,47.0
234.04,39.0
234.11,36.0
234.17,42.0
234.23,46.0
234.3,45.0
234.36,53.0
234.42,60.0
234.49,46.0
234.55,34.0
234.61,57.0
234.67,51.0
234.74,70.0
234.8,57.0
234.86,66.0
234.93,67.0
234.99,53.0
235.05,33.0
235.12,25.0
235.18,31.0
235.24,36.0
235.3,44.0
235.37,33.0
235.43,41.0
235.49,56.0
235.56,59.0
235.62,53.0
235.68,28.0
235.75,59.0
235.81,33.0
235.87,35.0
235.93,31.0
236.0,26.0
236.06,48.0
236.12,28.0
236.19,37.0
236.25,41.0
236.31,30.0
236.38,36.0
236.44,41.0
236.5,20.0
236.56,34.0
236.63,27.0
236.69,17.0
236.75,21.0
236.82,17.0
236.88,8.0
236.94,11.0
237.01,11.0
237.07,12.0
237.13,19.0
237.19,3.0
237.26,9.0
237.32,18.0
237.38,17.0
237.45,8.0
237.51,19.0
237.57,31.0
237.64,36.0
237.7,18.0
237.76,-6.0
237.82,3.0
237.89,14.0
237.95,19.0
238.01,31.0
238.08,37.0
238.14,48.0
238.2,33.0
238.27,25.0
238.33,28.0
238.39,67.0
238.45,67.0
238.52,51.0
238.58,62.0
238.64,61.0
238.71,68.0
238.77,52.0
238.83,70.0
238.9,72.0
238.96,70.0
239.02,70.0
239.08,72.0
239.15,69.0
239.21,92.0
239.27,91.0
239.34,95.0
239.4,98.0
239.46,77.0
239.53,72.0
239.59,86.0
239.65,80.0
239.71,66.0
239.78,93.0
239.84,78.0
239.9,88.0
239.97,87.0
240.03,66.0
240.09,80.0
240.16,77.0
240.22,66.0
240.28,55.0
240.34,52.0
240.41,48.0
240.47,70.0
240.53,53.0
240.6,38.0
240.66,54.0
240.72,26.0
240.79,40.0
240.85,29.0
240.91,34.0
240.97,36.0
241.04,31.0
241.1,37.0
241.16,40.0
241.23,66.0
241.29,85.0
241.35,82.0
241.42,95.0
241.48,93.0
241.54,81.0
241.6,75.0
241.67,91.0
241.73,87.0
241.79,99.0
241.86,99.0
241.92,75.0
241.98,72.0
242.05,81.0
242.11,70.0
242.17,99.0
242.23,70.0
242.3,80.0
242.36,75.0
242.42,69.0
242.49,88.0
242.55,88.0
242.61,96.0
242.68,96.0
242.74,88.0
242.8,74.0
242.86,90.0
242.93,92.0
242.99,76.0
243.05,91.0
243.12,94.0
243.18,64.0
243.24,93.0
243.31,105.0
243.37,92.0
243.43,88.0
243.49,98.0
243.56,87.0
243.62,76.0
243.68,57.0
243.75,56.0
243.81,69.0
243.87,63.0
243.94,85.0
244.0,87.0
244.06,90.0
244.12,98.0
244.19,74.0
244.25,82.0
244.31,73.0
244.38,88.0
244.44,89.0
244.5,94.0
244.57,121.0
244.63,104.0
244.69,107.0
244.75,118.0
244.82,125.0
244.88,127.0
244.94,136.0
245.01,110.0
245.07,126.0
245.13,111.0
245.2,109.0
245.26,95.0
245.32,99.0
245.38,101.0
245.45,104.0
245.51,114.0
245.57,114.0
245.64,114.0
245.7,113.0
245.76,138.0
245.83,130.0
245.89,130.0
245.95,133.0
246.01,155.0
246.08,139.0
246.14,116.0
246.2,120.0
246.27,124.0
246.33,124.0
246.39,136.0
246.46,126.0
246.52,143.0
246.58,146.0
246.64,152.0
246.71,153.0
246.77,130.0
246.83,168.0
246.9,177.0
246.96,165.0
247.02,173.0
247.09,169.0
247.15,178.0
247.21,165.0
247.27,169.0
247.34,166.0
247.4,172.0
247.46,161.0
247.53,150.0
247.59,139.0
247.65,163.0
247.72,157.0
247.78,155.0
247.84,158.0
247.9,154.0
247.97,161.0
248.03,147.0
248.09,141.0
248.16,153.0
248.22,154.0
248.28,167.0
248.35,169.0
248.41,158.0
248.47,135.0
248.53,161.0
248.6,169.0
248.66,150.0
248.72,162.0
248.79,156.0
248.85,153.0
248.91,164.0
248.98,152.0
249.04,163.0
249.1,156.0
249.16,169.0
249.23,172.0
249.29,157.0
249.35,164.0
249.42,158.0
249.48,148.0
249.54,149.0
249.61,140.0
249.67,121.0
249.73,133.0
249.79,152.0
249.86,157.0
249.92,149.0
249.98,167.0
250.05,165.0
250.11,160.0
250.17,165.0
250.24,159.0
250.3,180.0
250.36,190.0
250.42,176.0
250.49,187.0
250.55,179.0
250.61,165.0
250.68,169.0
250.74,188.0
250.8,190.0
250.87,194.0
250.93,185.0
250.99,183.0
251.05,169.0
251.12,175.0
251.18,198.0
251.24,180.0
251.31,195.0
251.37,188.0
251.43,198.0
251.5,190.0
251.56,206.0
251.62,212.0
251.68,207.0
251.75,203.0
251.81,191.0
251.87,176.0
251.94,187.0
252.0,174.0
252.06,174.0
252.13,184.0
252.19,168.0
252.25,160.0
252.31,153.0
252.38,168.0
252.44,158.0
252.5,167.0
252.57,169.0
252.63,143.0
252.69,139.0
252.76,131.0
252.82,127.0
252.88,132.0
252.94,122.0
253.01,140.0
253.07,134.0
253.13,151.0
253.2,137.0
253.26,132.0
253.32,126.0
253.39,133.0
253.45,110.0
253.51,121.0
253.57,129.0
253.64,139.0
253.7,130.0
253.76,129.0
253.83,121.0
253.89,139.0
253.95,147.0
254.02,125.0
254.08,119.0
254.14,143.0
254.2,125.0
254.27,133.0
254.33,127.0
254.39,105.0
254.46,102.0
254.52,106.0
254.58,91.0
254.65,78.0
254.71,97.0
254.77,87.0
254.83,81.0
254.9,79.0
254.96,113.0
255.02,105.0
255.09,87.0
255.15,92.0
255.21,68.0
255.28,88.0
255.34,71.0
255.4,82.0
255.46,85.0
255.53,97.0
255.59,95.0
255.65,74.0
255.72,85.0
255.78,85.0
255.84,66.0
255.91,80.0
255.97,93.0
256.03,85.0
256.09,93.0
256.16,77.0
256.22,88.0
256.28,89.0
256.35,88.0
256.41,75.0
256.47,71.0
256.54,70.0
256.6,83.0
256.66,92.0
256.72,94.0
256.79,81.0
256.85,80.0
256.91,70.0
256.98,66.0
257.04,81.0
257.1,73.0
257.17,66.0
257.23,62.0
257.29,54.0
257.35,67.0
257.42,76.0
257.48,106.0
257.54,78.0
257.61,66.0
257.67,86.0
257.73,77.0
257.8,75.0
257.86,77.0
257.92,87.0
257.98,99.0
258.05,102.0
258.11,108.0
258.17,77.0
258.24,96.0
258.3,74.0
258.36,60.0
258.43,72.0
258.49,49.0
258.55,70.0
258.61,70.0
258.68,41.0
258.74,53.0
258.8,50.0
258.87,52.0
258.93,55.0
258.99,38.0
259.06,53.0
259.12,65.0
259.18,50.0
259.24,49.0
259.31,47.0
259.37,52.0
259.43,53.0
259.5,52.0
259.56,33.0
259.62,50.0
259.69,54.0
259.75,52.0
259.81,50.0
259.87,33.0
259.94,58.0
260.0,67.0
260.06,47.0
260.13,55.0
260.19,47.0
260.25,22.0
260.32,19.0
260.38,3.0
260.44,15.0
260.5,28.0
260.57,36.0
260.63,23.0
260.69,39.0
260.76,38.0
260.82,37.0
260.88,40.0
260.95,37.0
261.01,42.0
261.07,43.0
261.13,71.0
261.2,58.0
261.26,44.0
261.32,44.0
261.39,31.0
261.45,19.0
261.51,38.0
261.58,40.0
261.64,33.0
261.7,18.0
261.76,14.0
261.83,38.0
261.89,62.0
261.95,47.0
262.02,32.0
262.08,40.0
262.14,36.0
262.21,41.0
262.27,51.0
262.33,53.0
262.39,59.0
262.46,58.0
262.52,58.0
262.58,75.0
262.65,77.0
262.71,85.0
262.77,84.0
262.84,72.0
262.9,69.0
262.96,71.0
263.02,81.0
263.09,102.0
263.15,88.0
263.21,111.0
263.28,105.0
263.34,100.0
263.4,83.0
263.47,56.0
263.53,92.0
263.59,92.0
263.65,75.0
263.72,73.0
263.78,75.0
263.84,73.0
263.91,62.0
263.97,62.0
264.03,36.0
264.1,53.0
264.16,64.0
264.22,58.0
264.28,48.0
264.35,70.0
264.41,92.0
264.47,95.0
264.54,94.0
264.6,101.0
264.66,97.0
264.73,96.0
264.79,66.0
264.85,62.0
264.91,82.0
264.98,85.0
265.04,70.0
265.1,86.0
265.17,80.0
265.23,70.0
265.29,79.0
265.36,90.0
265.42,84.0
265.48,78.0
265.54,91.0
265.61,83.0
265.67,85.0
265.73,86.0
265.8,77.0
265.86,56.0
265.92,70.0
265.99,63.0
266.05,59.0
266.11,69.0
266.17,62.0
266.24,72.0
266.3,75.0
266.36,70.0
266.43,68.0
266.49,56.0
266.55,65.0
266.62,52.0
266.68,62.0
266.74,60.0
266.8,55.0
266.87,58.0
266.93,57.0
266.99,75.0
267.06,79.0
267.12,93.0
267.18,80.0
267.25,71.0
267.31,75.0
267.37,67.0
267.43,77.0
267.5,70.0
267.56,84.0
267.62,69.0
267.69,84.0
267.75,71.0
267.81,80.0
267.88,81.0
267.94,91.0
268.0,102.0
268.06,78.0
268.13,87.0
268.19,79.0
268.25,96.0
268.32,91.0
268.38,100.0
268.44,97.0
268.51,94.0
268.57,94.0
268.63,70.0
268.69,95.0
268.76,90.0
268.82,67.0
268.88,84.0
268.95,78.0
269.01,66.0
269.07,73.0
269.14,83.0
269.2,88.0
269.26,100.0
269.32,81.0
269.39,90.0
269.45,88.0
269.51,74.0
269.58,66.0
269.64,81.0
269.7,77.0
269.77,68.0
269.83,55.0
269.89,62.0
269.95,53.0
270.02,47.0
270.08,74.0
270.14,60.0
270.21,51.0
270.27,51.0
270.33,54.0
270.4,53.0
270.46,36.0
270.52,30.0
270.58,43.0
270.65,50.0
270.71,29.0
270.77,39.0
270.84,35.0
270.9,26.0
270.96,29.0
271.03,25.0
271.09,24.0
271.15,30.0
271.21,44.0
271.28,27.0
271.34,30.0
271.4,59.0
271.47,48.0
271.53,59.0
271.59,56.0
271.66,51.0
271.72,67.0
271.78,53.0
271.84,44.0
271.91,55.0
271.97,54.0
272.03,41.0
272.1,47.0
272.16,56.0
272.22,52.0
272.29,32.0
272.35,36.0
272.41,31.0
272.47,13.0
272.54,19.0
272.6,24.0
272.66,36.0
272.73,24.0
272.79,29.0
272.85,37.0
272.92,34.0
272.98,52.0
273.04,67.0
273.1,70.0
273.17,64.0
273.23,66.0
273.29,75.0
273.36,77.0
273.42,64.0
273.48,60.0
273.55,63.0
273.61,52.0
273.67,70.0
273.73,77.0
273.8,41.0
273.86,47.0
273.92,66.0
273.99,65.0
274.05,51.0
274.11,67.0
274.18,65.0
274.24,81.0
274.3,76.0
274.36,67.0
274.43,73.0
274.49,70.0
274.55,61.0
274.62,63.0
274.68,59.0
274.74,58.0
274.81,65.0
274.87,88.0
274.93,73.0
274.99,76.0
275.06,78.0
275.12,79.0
275.18,78.0
275.25,92.0
275.31,108.0
275.37,104.0
275.44,108.0
275.5,90.0
275.56,82.0
275.62,96.0
275.69,94.0
275.75,90.0
275.81,88.0
275.88,96.0
275.94,93.0
276.0,88.0
276.07,91.0
276.13,91.0
276.19,80.0
276.25,84.0
276.32,89.0
276.38,92.0
276.44,71.0
276.51,89.0
276.57,86.0
276.63,98.0
276.7,83.0
276.76,88.0
276.82,112.0
276.88,116.0
276.95,110.0
277.01,101.0
277.07,110.0
277.14,97.0
277.2,96.0
277.26,101.0
277.33,105.0
277.39,102.0
277.45,119.0
277.51,126.0
277.58,107.0
277.64,114.0
277.7,114.0
277.77,106.0
277.83,92.0
277.89,107.0
277.96,151.0
278.02,143.0
278.08,139.0
278.14,147.0
278.21,121.0
278.27,136.0
278.33,132.0
278.4,138.0
278.46,136.0
278.52,142.0
278.59,128.0
278.65,138.0
278.71,151.0
278.77,118.0
278.84,146.0
278.9,141.0
278.96,136.0
279.03,151.0
279.09,125.0
279.15,131.0
279.22,131.0
279.28,151.0
279.34,140.0
279.4,137.0
279.47,139.0
279.53,142.0
279.59,139.0
279.66,147.0
279.72,130.0
279.78,145.0
279.85,130.0
279.91,132.0
279.97,143.0
280.03,144.0
280.1,146.0
280.16,135.0
280.22,149.0
280.29,129.0
280.35,136.0
280.41,123.0
280.48,99.0
280.54,117.0
280.6,107.0
280.66,102.0
280.73,114.0
280.79,114.0
280.85,118.0
280.92,117.0
280.98,129.0
281.04,132.0
281.11,118.0
281.17,142.0
281.23,127.0
281.29,131.0
281.36,123.0
281.42,125.0
281.48,121.0
281.55,111.0
281.61,116.0
281.67,112.0
281.74,86.0
281.8,81.0
281.86,112.0
281.92,107.0
281.99,105.0
282.05,71.0
282.11,83.0
282.18,71.0
282.24,63.0
282.3,87.0
282.37,67.0
282.43,77.0
282.49,77.0
282.55,87.0
282.62,80.0
282.68,97.0
282.74,96.0
282.81,106.0
282.87,84.0
282.93,81.0
283.0,83.0
283.06,95.0
283.12,99.0
283.18,105.0
283.25,117.0
283.31,112.0
283.37,113.0
283.44,112.0
283.5,120.0
283.56,133.0
283.63,117.0
283.69,110.0
283.75,138.0
283.81,134.0
283.88,127.0
283.94,126.0
284.0,134.0
284.07,121.0
284.13,114.0
284.19,93.0
284.26,111.0
284.32,134.0
284.38,115.0
284.44,118.0
284.51,105.0
284.57,125.0
284.63,132.0
284.7,130.0
284.76,114.0
284.82,110.0
284.89,115.0
284.95,108.0
285.01,100.0
285.07,112.0
285.14,105.0
285.2,95.0
285.26,92.0
285.33,105.0
285.39,75.0
285.45,92.0
285.52,98.0
285.58,108.0
285.64,94.0
285.7,94.0
285.77,91.0
285.83,75.0
285.89,83.0
285.96,81.0
286.02,89.0
286.08,81.0
286.15,72.0
286.21,85.0
286.27,67.0
286.33,67.0
286.4,50.0
286.46,59.0
286.52,59.0
286.59,43.0
286.65,57.0
286.71,79.0
286.78,50.0
286.84,67.0
286.9,77.0
286.96,69.0
287.03,81.0
287.09,74.0
287.15,82.0
287.22,78.0
287.28,78.0
287.34,53.0
287.41,50.0
287.47,61.0
287.53,45.0
287.59,57.0
287.66,44.0
287.72,38.0
287.78,61.0
287.85,59.0
287.91,37.0
287.97,22.0
288.04,28.0
288.1,52.0
288.16,52.0
288.22,44.0
288.29,32.0
288.35,54.0
288.41,55.0
288.48,79.0
288.54,42.0
288.6,44.0
288.67,53.0
288.73,36.0
288.79,63.0
288.85,66.0
288.92,56.0
288.98,47.0
289.04,34.0
289.11,35.0
289.17,70.0
289.23,37.0
289.3,40.0
289.36,43.0
289.42,18.0
289.48,43.0
289.55,52.0
289.61,52.0
289.67,48.0
289.74,52.0
289.8,28.0
289.86,41.0
289.93,38.0
289.99,54.0
290.05,37.0
290.11,52.0
290.18,40.0
290.24,23.0
290.3,19.0
290.37,25.0
290.43,35.0
290.49,40.0
290.56,39.0
290.62,26.0
290.68,22.0
290.74,23.0
290.81,14.0
290.87,23.0
290.93,29.0
291.0,29.0
291.06,45.0
291.12,14.0
291.19,40.0
291.25,26.0
291.31,25.0
291.37,33.0
291.44,39.0
291.5,26.0
291.56,32.0
291.63,44.0
291.69,24.0
291.75,33.0
291.82,37.0
291.88,53.0
291.94,26.0
292.0,34.0
292.07,48.0
292.13,42.0
292.19,49.0
292.26,51.0
292.32,45.0
292.38,52.0
292.45,51.0
292.51,29.0
292.57,42.0
292.63,39.0
292.7,37.0
292.76,34.0
292.82,50.0
292.89,42.0
292.95,37.0
293.01,39.0
293.08,48.0
293.14,59.0
293.2,58.0
293.26,56.0
293.33,45.0
293.39,48.0
293.45,67.0
293.52,38.0
293.58,36.0
293.64,48.0
293.71,68.0
293.77,80.0
293.83,74.0
293.89,81.0
293.96,59.0
294.02,62.0
294.08,79.0
294.15,81.0
294.21,91.0
294.27,84.0
294.34,62.0
294.4,64.0
294.46,68.0
294.52,78.0
294.59,105.0
294.65,82.0
294.71,70.0
294.78,83.0
294.84,96.0
294.9,90.0
294.97,87.0
295.03,91.0
295.09,97.0
295.15,74.0
295.22,78.0
295.28,90.0
295.34,111.0
295.41,98.0
295.47,84.0
295.53,92.0
295.6,88.0
295.66,67.0
295.72,54.0
295.78,60.0
295.85,57.0
295.91,51.0
295.97,53.0
296.04,45.0
296.1,54.0
296.16,59.0
296.23,52.0
296.29,54.0
296.35,41.0
296.41,45.0
296.48,57.0
296.54,54.0
296.6,55.0
296.67,70.0
296.73,71.0
296.79,56.0
296.86,56.0
296.92,58.0
296.98,63.0
297.04,63.0
297.11,58.0
297.17,47.0
297.23,37.0
297.3,40.0
297.36,68.0
297.42,63.0
297.49,67.0
297.55,69.0
297.61,52.0
297.67,72.0
297.74,72.0
297.8,69.0
297.86,95.0
297.93,89.0
297.99,69.0
298.05,74.0
298.12,92.0
298.18,81.0
298.24,91.0
298.3,86.0
298.37,86.0
298.43,83.0
298.49,92.0
298.56,82.0
298.62,65.0
298.68,65.0
298.75,65.0
298.81,79.0
298.87,66.0
298.93,59.0
299.0,71.0
299.06,60.0
299.12,65.0
299.19,69.0
299.25,89.0
299.31,84.0
299.38,92.0
299.44,64.0
299.5,75.0
299.56,69.0
299.63,88.0
299.69,99.0
299.75,81.0
299.82,71.0
299.88,82.0
299.94,93.0
300.01,91.0
300.07,84.0
300.13,92.0
300.19,92.0
300.26,84.0
300.32,99.0
300.38,89.0
300.45,109.0
300.51,106.0
300.57,93.0
300.64,88.0
300.7,98.0
300.76,105.0
300.82,93.0
300.89,107.0
300.95,118.0
301.01,113.0
301.08,129.0
301.14,130.0
301.2,123.0
301.27,110.0
301.33,103.0
301.39,100.0
301.45,112.0
301.52,98.0
301.58,100.0
301.64,96.0
301.71,89.0
301.77,113.0
301.83,122.0
301.9,116.0
301.96,115.0
302.02,123.0
302.08,120.0
302.15,118.0
302.21,119.0
302.27,107.0
302.34,128.0
302.4,130.0
302.46,131.0
302.53,126.0
302.59,111.0
302.65,128.0
302.71,114.0
302.78,114.0
302.84,110.0
302.9,104.0
302.97,107.0
303.03,111.0
303.09,110.0
303.16,118.0
303.22,97.0
303.28,103.0
303.34,104.0
303.41,105.0
303.47,97.0
303.53,103.0
303.6,119.0
303.66,97.0
303.72,104.0
303.79,91.0
303.85,95.0
303.91,110.0
303.97,138.0
304.04,125.0
304.1,106.0
304.16,122.0
304.23,113.0
304.29,127.0
304.35,121.0
304.42,127.0
304.48,112.0
304.54,99.0
304.6,118.0
304.67,124.0
304.73,110.0
304.79,110.0
304.86,122.0
304.92,97.0
304.98,103.0
305.05,96.0
305.11,90.0
305.17,95.0
305.23,81.0
305.3,96.0
305.36,93.0
305.42,78.0
305.49,111.0
305.55,100.0
305.61,102.0
305.68,79.0
305.74,80.0
305.8,105.0
305.86,95.0
305.93,90.0
305.99,106.0
306.05,126.0
306.12,92.0
306.18,113.0
306.24,99.0
306.31,111.0
306.37,116.0
306.43,122.0
306.49,132.0
306.56,135.0
306.62,125.0
306.68,115.0
306.75,120.0
306.81,119.0
306.87,107.0
306.94,128.0
307.0,141.0
307.06,124.0
307.12,154.0
307.19,147.0
307.25,147.0
307.31,133.0
307.38,136.0
307.44,152.0
307.5,158.0
307.57,169.0
307.63,173.0
307.69,174.0
307.75,179.0
307.82,176.0
307.88,160.0
307.94,174.0
308.01,180.0
308.07,168.0
308.13,164.0
308.2,160.0
308.26,150.0
308.32,140.0
308.38,139.0
308.45,150.0
308.51,134.0
308.57,158.0
308.64,136.0
308.7,161.0
308.76,147.0
308.83,140.0
308.89,176.0
308.95,160.0
309.01,157.0
309.08,149.0
309.14,137.0
309.2,135.0
309.27,145.0
309.33,127.0
309.39,140.0
309.46,143.0
309.52,143.0
309.58,138.0
309.64,150.0
309.71,158.0
309.77,166.0
309.83,175.0
309.9,168.0
309.96,179.0
310.02,168.0
310.09,184.0
310.15,198.0
310.21,163.0
310.27,170.0
310.34,165.0
310.4,145.0
310.46,147.0
310.53,145.0
310.59,141.0
310.65,121.0
310.72,138.0
310.78,149.0
310.84,133.0
310.9,146.0
310.97,147.0
311.03,139.0
311.09,148.0
311.16,148.0
311.22,151.0
311.28,154.0
311.35,161.0
311.41,143.0
311.47,146.0
311.53,158.0
311.6,160.0
311.66,165.0
311.72,163.0
311.79,173.0
311.85,166.0
311.91,182.0
311.98,183.0
312.04,176.0
312.1,173.0
312.16,180.0
312.23,178.0
312.29,158.0
312.35,136.0
312.42,143.0
312.48,133.0
312.54,140.0
312.61,143.0
312.67,136.0
312.73,132.0
312.79,128.0
312.86,128.0
312.92,121.0
312.98,119.0
313.05,127.0
313.11,133.0
313.17,124.0
313.24,151.0
313.3,107.0
313.36,116.0
313.42,113.0
313.49,110.0
313.55,121.0
313.61,91.0
313.68,115.0
313.74,123.0
313.8,104.0
313.87,109.0
313.93,116.0
313.99,103.0
314.05,114.0
314.12,121.0
314.18,130.0
314.24,104.0
314.31,94.0
314.37,108.0
314.43,105.0
314.5,87.0
314.56,74.0
314.62,84.0
314.68,102.0
314.75,88.0
314.81,102.0
314.87,118.0
314.94,97.0
315.0,105.0
315.06,112.0
315.13,121.0
315.19,104.0
315.25,100.0
315.31,109.0
315.38,111.0
315.44,109.0
315.5,124.0
315.57,108.0
315.63,90.0
315.69,84.0
315.76,96.0
315.82,85.0
315.88,99.0
315.94,94.0
316.01,87.0
316.07,91.0
316.13,78.0
316.2,91.0
316.26,85.0
316.32,81.0
316.39,78.0
316.45,85.0
316.51,88.0
316.57,75.0
316.64,69.0
316.7,80.0
316.76,74.0
316.83,51.0
316.89,64.0
316.95,56.0
317.02,66.0
317.08,66.0
317.14,59.0
317.2,35.0
317.27,53.0
317.33,65.0
317.39,53.0
317.46,40.0
317.52,36.0
317.58,47.0
317.65,57.0
317.71,58.0
317.77,44.0
317.83,56.0
317.9,77.0
317.96,67.0
318.02,68.0
318.09,69.0
318.15,102.0
318.21,85.0
318.28,73.0
318.34,88.0
318.4,84.0
318.46,107.0
318.53,102.0
318.59,85.0
318.65,80.0
318.72,72.0
318.78,78.0
318.84,87.0
318.91,86.0
318.97,79.0
319.03,90.0
319.09,83.0
319.16,72.0
319.22,68.0
319.28,61.0
319.35,53.0
319.41,57.0
319.47,57.0
319.54,47.0
319.6,58.0
319.66,60.0
319.72,50.0
319.79,59.0
319.85,55.0
319.91,58.0
319.98,35.0
320.04,55.0
320.1,67.0
320.17,51.0
320.23,60.0
320.29,59.0
320.35,49.0
320.42,72.0
320.48,55.0
320.54,59.0
320.61,47.0
320.67,57.0
320.73,67.0
320.8,36.0
320.86,55.0
320.92,70.0
320.98,48.0
321.05,55.0
321.11,45.0
321.17,50.0
321.24,47.0
321.3,59.0
321.36,47.0
321.43,60.0
321.49,38.0
321.55,45.0
321.61,69.0
321.68,45.0
321.74,26.0
321.8,19.0
321.87,35.0
321.93,30.0
321.99,34.0
322.06,20.0
322.12,20.0
322.18,11.0
322.24,19.0
322.31,24.0
322.37,2.0
322.43,-9.0
322.5,1.0
322.56,-12.0
322.62,-18.0
322.69,-9.0
322.75,-2.0
322.81,-6.0
322.87,-7.0
322.94,10.0
323.0,3.0
323.06,8.0
323.13,-6.0
323.19,0.0
323.25,6.0
323.32,6.0
323.38,13.0
323.44,14.0
323.5,36.0
323.57,26.0
323.63,47.0
323.69,19.0
323.76,50.0
323.82,58.0
323.88,45.0
323.95,28.0
324.01,59.0
324.07,61.0
324.13,52.0
324.2,40.0
324.26,47.0
324.32,91.0
324.39,84.0
324.45,64.0
324.51,87.0
324.58,88.0
324.64,98.0
324.7,69.0
324.76,72.0
324.83,89.0
324.89,78.0
324.95,92.0
325.02,96.0
325.08,77.0
325.14,81.0
325.21,88.0
325.27,94.0
325.33,78.0
325.39,77.0
325.46,108.0
325.52,79.0
325.58,74.0
325.65,98.0
325.71,70.0
325.77,90.0
325.84,93.0
325.9,88.0
325.96,108.0
326.02,95.0
326.09,94.0
326.15,88.0
326.21,73.0
326.28,96.0
326.34,113.0
326.4,106.0
326.47,90.0
326.53,98.0
326.59,95.0
326.65,99.0
326.72,87.0
326.78,87.0
326.84,94.0
326.91,106.0
326.97,131.0
327.03,132.0
327.1,115.0
327.16,109.0
327.22,114.0
327.28,121.0
327.35,111.0
327.41,129.0
327.47,124.0
327.54,135.0
327.6,162.0
327.66,138.0
327.73,134.0
327.79,156.0
327.85,156.0
327.91,167.0
327.98,160.0
328.04,152.0
328.1,154.0
328.17,153.0
328.23,162.0
328.29,153.0
328.36,178.0
328.42,168.0
328.48,158.0
328.54,140.0
328.61,150.0
328.67,156.0
328.73,160.0
328.8,165.0
328.86,175.0
328.92,155.0
328.99,175.0
329.05,178.0
329.11,165.0
329.17,176.0
329.24,160.0
329.3,178.0
329.36,172.0
329.43,175.0
329.49,185.0
329.55,195.0
329.62,190.0
329.68,185.0
329.74,178.0
329.8,198.0
329.87,178.0
329.93,187.0
329.99,186.0
330.06,177.0
330.12,185.0
330.18,166.0
330.25,177.0
330.31,182.0
330.37,153.0
330.43,176.0
330.5,197.0
330.56,185.0
330.62,171.0
330.69,163.0
330.75,153.0
330.81,145.0
330.88,174.0
330.94,173.0
331.0,159.0
331.06,175.0
331.13,160.0
331.19,167.0
331.25,177.0
331.32,154.0
331.38,145.0
331.44,182.0
331.51,145.0
331.57,167.0
331.63,152.0
331.69,170.0
331.76,159.0
331.82,165.0
331.88,165.0
331.95,161.0
332.01,175.0
332.07,167.0
332.14,177.0
332.2,191.0
332.26,171.0
332.32,173.0
332.39,186.0
332.45,160.0
332.51,164.0
332.58,164.0
332.64,165.0
332.7,164.0
332.77,168.0
332.83,168.0
332.89,184.0
332.95,174.0
333.02,175.0
333.08,177.0
333.14,166.0
333.21,143.0
333.27,160.0
333.33,159.0
333.4,149.0
333.46,145.0
333.52,127.0
333.58,112.0
333.65,122.0
333.71,140.0
333.77,102.0
333.84,135.0
333.9,137.0
333.96,115.0
334.03,153.0
334.09,149.0
334.15,131.0
334.21,149.0
334.28,141.0
334.34,123.0
334.4,128.0
334.47,124.0
334.53,145.0
334.59,145.0
334.66,139.0
334.72,139.0
334.78,151.0
334.84,161.0
334.91,123.0
334.97,141.0
335.03,145.0
335.1,145.0
335.16,167.0
335.22,167.0
335.29,164.0
335.35,164.0
335.41,166.0
335.47,170.0
335.54,175.0
335.6,182.0
335.66,174.0
335.73,182.0
335.79,171.0
335.85,156.0
335.92,176.0
335.98,157.0
336.04,168.0
336.1,178.0
336.17,171.0
336.23,172.0
336.29,149.0
336.36,141.0
336.42,143.0
336.48,136.0
336.55,141.0
336.61,156.0
336.67,164.0
336.73,140.0
336.8,124.0
336.86,132.0
336.92,135.0
336.99,129.0
337.05,112.0
337.11,106.0
337.18,115.0
337.24,134.0
337.3,117.0
337.36,137.0
337.43,140.0
337.49,107.0
337.55,112.0
337.62,71.0
337.68,81.0
337.74,91.0
337.81,77.0
337.87,73.0
337.93,58.0
337.99,70.0
338.06,61.0
338.12,69.0
338.18,72.0
338.25,77.0
338.31,60.0
338.37,57.0
338.44,65.0
338.5,82.0
338.56,46.0
338.62,55.0
338.69,50.0
338.75,60.0
338.81,55.0
338.88,51.0
338.94,28.0
339.0,25.0
339.07,39.0
339.13,45.0
339.19,46.0
339.25,53.0
339.32,53.0
339.38,35.0
339.44,39.0
339.51,50.0
339.57,54.0
339.63,40.0
339.7,30.0
339.76,38.0
339.82,36.0
339.88,16.0
339.95,13.0
340.01,28.0
340.07,0.0
340.14,4.0
340.2,3.0
340.26,-8.0
340.33,10.0
340.39,-5.0
340.45,1.0
340.51,20.0
340.58,1.0
340.64,1.0
340.7,17.0
340.77,9.0
340.83,-10.0
340.89,4.0
340.96,-11.0
341.02,-8.0
341.08,-11.0
341.14,-11.0
341.21,-23.0
341.27,-18.0
341.33,3.0
341.4,1.0
341.46,-10.0
341.52,12.0
341.59,14.0
341.65,6.0
341.71,12.0
341.77,-16.0
341.84,3.0
341.9,14.0
341.96,8.0
342.03,16.0
342.09,10.0
342.15,14.0
342.22,28.0
342.28,2.0
342.34,-2.0
342.4,-24.0
342.47,-18.0
342.53,13.0
342.59,1.0
342.66,0.0
342.72,25.0
342.78,11.0
342.85,10.0
342.91,40.0
342.97,21.0
343.03,43.0
343.1,15.0
343.16,20.0
343.22,15.0
343.29,-3.0
343.35,-17.0
343.41,-5.0
343.48,9.0
343.54,5.0
343.6,10.0
343.66,13.0
343.73,8.0
343.79,17.0
343.85,36.0
343.92,39.0
343.98,24.0
344.04,49.0
344.11,24.0
344.17,23.0
344.23,38.0
344.29,39.0
344.36,24.0
344.42,34.0
344.48,48.0
344.55,42.0
344.61,47.0
344.67,54.0
344.74,73.0
344.8,70.0
344.86,67.0
344.92,64.0
344.99,65.0
345.05,68.0
345.11,64.0
345.18,64.0
345.24,48.0
345.3,42.0
345.37,65.0
345.43,54.0
345.49,61.0
345.55,63.0
345.62,51.0
345.68,64.0
345.74,61.0
345.81,65.0
345.87,79.0
345.93,63.0
346.0,66.0
346.06,64.0
346.12,59.0
346.18,77.0
346.25,70.0
346.31,62.0
346.37,72.0
346.44,80.0
346.5,109.0
346.56,87.0
346.63,83.0
346.69,87.0
346.75,95.0
346.81,72.0
346.88,65.0
346.94,79.0
347.0,75.0
347.07,95.0
347.13,105.0
347.19,98.0
347.26,89.0
347.32,90.0
347.38,106.0
347.44,96.0
347.51,81.0
347.57,88.0
347.63,84.0
347.7,78.0
347.76,69.0
347.82,86.0
347.89,93.0
347.95,73.0
348.01,73.0
348.07,68.0
348.14,58.0
348.2,75.0
348.26,74.0
348.33,65.0
348.39,46.0
348.45,40.0
348.52,28.0
348.58,27.0
348.64,33.0
348.7,40.0
348.77,26.0
348.83,19.0
348.89,27.0
348.96,17.0
349.02,6.0
349.08,16.0
349.15,20.0
349.21,7.0
349.27,6.0
349.33,10.0
349.4,10.0
349.46,21.0
349.52,5.0
349.59,10.0
349.65,26.0
349.71,6.0
349.78,19.0
349.84,11.0
349.9,33.0
349.96,23.0
350.03,3.0
350.09,26.0
350.15,14.0
350.22,31.0
350.28,35.0
350.34,24.0
350.41,49.0
350.47,27.0
350.53,45.0
350.59,59.0
350.66,49.0
350.72,52.0
350.78,31.0
350.85,50.0
350.91,68.0
350.97,64.0
351.04,71.0
351.1,60.0
351.16,77.0
351.22,82.0
351.29,56.0
351.35,92.0
351.41,89.0
351.48,73.0
351.54,83.0
351.6,75.0
351.67,90.0
351.73,95.0
351.79,90.0
351.85,92.0
351.92,113.0
351.98,116.0
352.04,115.0
352.11,93.0
352.17,123.0
352.23,123.0
352.3,116.0
352.36,129.0
352.42,108.0
352.48,125.0
352.55,105.0
352.61,115.0
352.67,129.0
352.74,119.0
352.8,147.0
352.86,167.0
352.93,151.0
352.99,147.0
353.05,143.0
353.11,141.0
353.18,150.0
353.24,132.0
353.3,125.0
353.37,122.0
353.43,113.0
353.49,106.0
353.56,119.0
353.62,114.0
353.68,113.0
353.74,132.0
353.81,117.0
353.87,119.0
353.93,119.0
354.0,128.0
354.06,123.0
354.12,135.0
354.19,132.0
354.25,133.0
354.31,159.0
354.37,152.0
354.44,153.0
354.5,169.0
354.56,156.0
354.63,165.0
354.69,147.0
354.75,170.0
354.82,163.0
354.88,165.0
354.94,170.0
355.0,161.0
355.07,129.0
355.13,135.0
355.19,144.0
355.26,150.0
355.32,145.0
355.38,142.0
355.45,145.0
355.51,153.0
355.57,164.0
355.63,141.0
355.7,163.0
355.76,145.0
355.82,152.0
355.89,155.0
355.95,146.0
356.01,159.0
356.08,144.0
356.14,136.0
356.2,130.0
356.26,126.0
356.33,130.0
356.39,128.0
356.45,111.0
356.52,117.0
356.58,102.0
356.64,97.0
356.71,142.0
356.77,109.0
356.83,108.0
356.89,115.0
356.96,123.0
357.02,129.0
357.08,130.0
357.15,123.0
357.21,121.0
357.27,104.0
357.34,110.0
357.4,106.0
357.46,99.0
357.52,92.0
357.59,103.0
357.65,111.0
357.71,133.0
357.78,105.0
357.84,105.0
357.9,117.0
357.97,100.0
358.03,112.0
358.09,121.0
358.15,115.0
358.22,116.0
358.28,117.0
358.34,120.0
358.41,125.0
358.47,150.0
358.53,138.0
358.6,119.0
358.66,118.0
358.72,116.0
358.78,133.0
358.85,124.0
358.91,133.0
358.97,138.0
359.04,139.0
359.1,131.0
359.16,131.0
359.23,134.0
359.29,123.0
359.35,120.0
359.41,107.0
359.48,111.0
359.54,123.0
359.6,110.0
359.67,108.0
359.73,123.0
359.79,103.0
359.86,114.0
359.92,126.0
359.98,133.0
360.04,119.0
360.11,122.0
360.17,116.0
360.23,105.0
360.3,112.0
360.36,109.0
360.42,123.0
360.49,118.0
360.55,103.0
360.61,121.0
360.67,103.0
360.74,104.0
360.8,107.0
360.86,141.0
360.93,146.0
360.99,144.0
361.05,160.0
361.12,159.0
361.18,152.0
361.24,149.0
361.3,153.0
361.37,155.0
361.43,160.0
361.49,153.0
361.56,156.0
361.62,161.0
361.68,152.0
361.75,168.0
361.81,178.0
361.87,159.0
361.93,155.0
362.0,159.0
362.06,170.0
362.12,156.0
362.19,150.0
362.25,158.0
362.31,158.0
362.38,164.0
362.44,148.0
362.5,148.0
362.56,135.0
362.63,144.0
362.69,125.0
362.75,140.0
362.82,122.0
362.88,142.0
362.94,135.0
363.01,134.0
363.07,149.0
363.13,148.0
363.19,145.0
363.26,141.0
363.32,145.0
363.38,149.0
363.45,156.0
363.51,164.0
363.57,164.0
363.64,147.0
363.7,146.0
363.76,163.0
363.82,149.0
363.89,128.0
363.95,141.0
364.01,145.0
364.08,133.0
364.14,139.0
364.2,129.0
364.27,114.0
364.33,107.0
364.39,106.0
364.45,111.0
364.52,117.0
364.58,106.0
364.64,100.0
364.71,97.0
364.77,86.0
364.83,112.0
364.9,86.0
364.96,86.0
365.02,87.0
365.08,96.0
365.15,95.0
365.21,60.0
365.27,62.0
365.34,84.0
365.4,86.0
365.46,82.0
365.53,88.0
365.59,87.0
365.65,105.0
365.71,81.0
365.78,68.0
365.84,92.0
365.9,91.0
365.97,82.0
366.03,60.0
366.09,68.0
366.16,58.0
366.22,53.0
366.28,46.0
366.34,43.0
366.41,48.0
366.47,31.0
366.53,49.0
366.6,54.0
366.66,55.0
366.72,54.0
366.79,37.0
366.85,39.0
366.91,26.0
366.97,39.0
367.04,48.0
367.1,50.0
367.16,48.0
367.23,44.0
367.29,47.0
367.35,53.0
367.42,57.0
367.48,57.0
367.54,59.0
367.6,33.0
367.67,46.0
367.73,41.0
367.79,28.0
367.86,50.0
367.92,39.0
367.98,38.0
368.05,32.0
368.11,35.0
368.17,67.0
368.23,56.0
368.3,42.0
368.36,42.0
368.42,52.0
368.49,53.0
368.55,58.0
368.61,61.0
368.68,51.0
368.74,63.0
368.8,67.0
368.86,69.0
368.93,60.0
368.99,64.0
369.05,66.0
369.12,75.0
369.18,81.0
369.24,104.0
369.31,103.0
369.37,102.0
369.43,86.0
369.49,100.0
369.56,106.0
369.62,101.0
369.68,112.0
369.75,114.0
369.81,115.0
369.87,101.0
369.94,122.0
370.0,93.0
370.06,84.0
370.12,81.0
370.19,84.0
370.25,93.0
370.31,96.0
370.38,86.0
370.44,76.0
370.5,64.0
370.57,63.0
370.63,65.0
370.69,58.0
370.75,62.0
370.82,68.0
370.88,77.0
370.94,79.0
371.01,70.0
371.07,76.0
371.13,75.0
371.2,63.0
371.26,54.0
371.32,73.0
371.38,63.0
371.45,70.0
371.51,67.0
371.57,50.0
371.64,43.0
371.7,57.0
371.76,73.0
371.83,62.0
371.89,48.0
371.95,46.0
372.01,71.0
372.08,82.0
372.14,75.0
372.2,68.0
372.27,81.0
372.33,70.0
372.39,67.0
372.46,49.0
372.52,60.0
372.58,77.0
372.64,67.0
372.71,61.0
372.77,57.0
372.83,60.0
372.9,49.0
372.96,50.0
373.02,75.0
373.09,34.0
373.15,29.0
373.21,53.0
373.27,33.0
373.34,31.0
373.4,33.0
373.46,63.0
373.53,75.0
373.59,62.0
373.65,57.0
373.72,64.0
373.78,48.0
373.84,49.0
373.9,44.0
373.97,32.0
374.03,18.0
374.09,51.0
374.16,33.0
374.22,26.0
374.28,46.0
374.35,46.0
374.41,57.0
374.47,45.0
374.53,49.0
374.6,53.0
374.66,26.0
374.72,36.0
374.79,39.0
374.85,15.0
374.91,1.0
374.98,27.0
375.04,41.0
375.1,5.0
375.16,-7.0
375.23,-5.0
375.29,2.0
375.35,10.0
375.42,-6.0
375.48,2.0
375.54,19.0
375.61,7.0
375.67,8.0
375.73,35.0
375.79,21.0
375.86,20.0
375.92,26.0
375.98,36.0
376.05,48.0
376.11,51.0
376.17,49.0
376.24,68.0
376.3,66.0
376.36,55.0
376.42,55.0
376.49,38.0
376.55,54.0
376.61,43.0
376.68,41.0
376.74,67.0
376.8,51.0
376.87,48.0
376.93,38.0
376.99,58.0
377.05,61.0
377.12,57.0
377.18,76.0
377.24,84.0
377.31,85.0
377.37,77.0
377.43,87.0
377.5,81.0
377.56,83.0
377.62,90.0
377.68,91.0
377.75,89.0
377.81,84.0
377.87,86.0
377.94,70.0
378.0,78.0
378.06,79.0
378.13,95.0
378.19,100.0
378.25,111.0
378.31,103.0
378.38,107.0
378.44,105.0
378.5,99.0
378.57,108.0
378.63,105.0
378.69,116.0
378.76,110.0
378.82,107.0
378.88,93.0
378.94,103.0
379.01,106.0
379.07,101.0
379.13,110.0
379.2,108.0
379.26,126.0
379.32,116.0
379.39,102.0
379.45,116.0
379.51,118.0
379.57,117.0
379.64,132.0
379.7,130.0
379.76,135.0
379.83,126.0
379.89,115.0
379.95,124.0
380.02,132.0
380.08,135.0
380.14,141.0
380.2,148.0
380.27,133.0
380.33,129.0
380.39,119.0
380.46,134.0
380.52,131.0
380.58,137.0
380.65,119.0
380.71,135.0
380.77,124.0
380.83,105.0
380.9,116.0
380.96,117.0
381.02,133.0
381.09,119.0
381.15,104.0
381.21,117.0
381.28,109.0
381.34,111.0
381.4,105.0
381.46,141.0
381.53,119.0
381.59,124.0
381.65,136.0
381.72,123.0
381.78,115.0
381.84,105.0
381.91,107.0
381.97,109.0
382.03,106.0
382.09,99.0
382.16,107.0
382.22,93.0
382.28,107.0
382.35,103.0
382.41,121.0
382.47,107.0
382.54,120.0
382.6,100.0
382.66,93.0
382.72,114.0
382.79,106.0
382.85,118.0
382.91,103.0
382.98,102.0
383.04,112.0
383.1,106.0
383.17,106.0
383.23,113.0
383.29,100.0
383.35,116.0
383.42,118.0
383.48,97.0
383.54,111.0
383.61,90.0
383.67,93.0
383.73,95.0
383.8,98.0
383.86,94.0
383.92,103.0
383.98,99.0
384.05,101.0
384.11,105.0
384.17,106.0
384.24,86.0
384.3,98.0
384.36,120.0
384.43,127.0
384.49,146.0
384.55,151.0
384.61,142.0
384.68,148.0
384.74,147.0
384.8,135.0
384.87,142.0
384.93,143.0
384.99,169.0
385.06,173.0
385.12,167.0
385.18,161.0
385.24,157.0
385.31,165.0
385.37,155.0
385.43,165.0
385.5,159.0
385.56,180.0
385.62,187.0
385.69,165.0
385.75,155.0
385.81,170.0
385.87,172.0
385.94,169.0
386.0,170.0
386.06,147.0
386.13,153.0
386.19,162.0
386.25,178.0
386.32,176.0
386.38,173.0
386.44,183.0
386.5,172.0
386.57,171.0
386.63,157.0
386.69,160.0
386.76,180.0
386.82,167.0
386.88,159.0
386.95,192.0
387.01,201.0
387.07,207.0
387.13,204.0
387.2,190.0
387.26,195.0
387.32,200.0
387.39,184.0
387.45,167.0
387.51,180.0
387.58,169.0
387.64,165.0
387.7,176.0
387.76,140.0
387.83,129.0
387.89,130.0
387.95,137.0
388.02,148.0
388.08,124.0
388.14,160.0
388.21,154.0
388.27,147.0
388.33,146.0
388.39,128.0
388.46,157.0
388.52,148.0
388.58,154.0
388.65,172.0
388.71,135.0
388.77,140.0
388.84,151.0
388.9,147.0
388.96,138.0
389.02,135.0
389.09,128.0
389.15,149.0
389.21,111.0
389.28,123.0
389.34,110.0
389.4,132.0
389.47,120.0
389.53,103.0
389.59,94.0
389.65,87.0
389.72,105.0
389.78,77.0
389.84,84.0
389.91,90.0
389.97,70.0
390.03,82.0
390.1,94.0
390.16,90.0
390.22,85.0
390.28,75.0
390.35,57.0
390.41,58.0
390.47,65.0
390.54,66.0
390.6,55.0
390.66,48.0
390.73,65.0
390.79,70.0
390.85,66.0
390.91,45.0
390.98,49.0
391.04,53.0
391.1,70.0
391.17,87.0
391.23,74.0
391.29,80.0
391.36,65.0
391.42,59.0
391.48,29.0
391.54,30.0
391.61,48.0
391.67,48.0
391.73,53.0
391.8,58.0
391.86,65.0
391.92,30.0
391.99,27.0
392.05,47.0
392.11,21.0
392.17,30.0
392.24,25.0
392.3,37.0
392.36,50.0
392.43,33.0
392.49,31.0
392.55,36.0
392.62,29.0
392.68,33.0
392.74,25.0
392.8,27.0
392.87,37.0
392.93,23.0
392.99,22.0
393.06,22.0
393.12,19.0
393.18,15.0
393.25,44.0
393.31,14.0
393.37,-14.0
393.43,15.0
393.5,8.0
393.56,12.0
393.62,11.0
393.69,31.0
393.75,24.0
393.81,27.0
393.88,5.0
393.94,-8.0
394.0,4.0
394.06,-3.0
394.13,5.0
394.19,-1.0
394.25,8.0
394.32,1.0
394.38,6.0
394.44,11.0
394.51,7.0
394.57,26.0
394.63,34.0
394.69,51.0
394.76,34.0
394.82,28.0
394.88,34.0
394.95,56.0
395.01,51.0
395.07,73.0
395.14,70.0
395.2,82.0
395.26,83.0
395.32,63.0
395.39,64.0
395.45,69.0
395.51,79.0
395.58,61.0
395.64,54.0
395.7,71.0
395.77,81.0
395.83,57.0
395.89,78.0
395.95,78.0
396.02,73.0
396.08,80.0
396.14,73.0
396.21,82.0
396.27,82.0
396.33,82.0
396.4,91.0
396.46,78.0
396.52,78.0
396.58,87.0
396.65,89.0
396.71,91.0
396.77,107.0
396.84,111.0
396.9,104.0
396.96,98.0
397.03,85.0
397.09,102.0
397.15,92.0
397.21,105.0
397.28,112.0
397.34,111.0
397.4,114.0
397.47,121.0
397.53,107.0
397.59,94.0
397.66,93.0
397.72,102.0
397.78,107.0
397.84,102.0
397.91,92.0
397.97,92.0
398.03,95.0
398.1,80.0
398.16,64.0
398.22,64.0
398.29,70.0
398.35,80.0
398.41,58.0
398.47,41.0
398.54,61.0
398.6,66.0
398.66,56.0
398.73,48.0
398.79,51.0
398.85,49.0
398.92,39.0
398.98,50.0
399.04,60.0
399.1,56.0
399.17,68.0
399.23,45.0
399.29,67.0
399.36,75.0
399.42,63.0
399.48,60.0
399.55,50.0
399.61,38.0
399.67,34.0
399.73,40.0
399.8,42.0
399.86,49.0
399.92,45.0
399.99,39.0
400.05,35.0
400.11,23.0
400.18,36.0
400.24,37.0
400.3,30.0
400.36,30.0
400.43,-1.0
400.49,35.0
400.55,36.0
400.62,39.0
400.68,44.0
400.74,58.0
400.81,34.0
400.87,29.0
400.93,49.0
400.99,49.0
401.06,61.0
401.12,65.0
401.18,59.0
401.25,51.0
401.31,90.0
401.37,84.0
401.44,95.0
401.5,103.0
401.56,102.0
401.62,88.0
401.69,97.0
401.75,112.0
401.81,98.0
401.88,89.0
401.94,99.0
402.0,94.0
402.07,116.0
402.13,108.0
402.19,109.0
402.25,96.0
402.32,107.0
402.38,113.0
402.44,92.0
402.51,94.0
402.57,101.0
402.63,97.0
402.7,102.0
402.76,94.0
402.82,103.0
402.88,110.0
402.95,100.0
403.01,100.0
403.07,136.0
403.14,120.0
403.2,143.0
403.26,144.0
403.33,146.0
403.39,123.0
403.45,87.0
403.51,121.0
403.58,121.0
403.64,122.0
403.7,107.0
403.77,135.0
403.83,146.0
403.89,145.0
403.96,142.0
404.02,132.0
404.08,137.0
404.14,147.0
404.21,155.0
404.27,132.0
404.33,111.0
404.4,118.0
404.46,119.0
404.52,125.0
404.59,124.0
404.65,122.0
404.71,121.0
404.77,124.0
404.84,109.0
404.9,111.0
404.96,141.0
405.03,125.0
405.09,127.0
405.15,118.0
405.22,129.0
405.28,116.0
405.34,92.0
405.4,99.0
405.47,101.0
405.53,118.0
405.59,126.0
405.66,124.0
405.72,136.0
405.78,128.0
405.85,146.0
405.91,140.0
405.97,108.0
406.03,105.0
406.1,99.0
406.16,114.0
406.22,114.0
406.29,103.0
406.35,133.0
406.41,140.0
406.48,151.0
406.54,127.0
406.6,121.0
406.66,120.0
406.73,113.0
406.79,113.0
406.85,123.0
406.92,122.0
406.98,116.0
407.04,129.0
407.11,114.0
407.17,116.0
407.23,82.0
407.29,92.0
407.36,100.0
407.42,91.0
407.48,74.0
407.55,82.0
407.61,77.0
407.67,76.0
407.74,89.0
407.8,83.0
407.86,88.0
407.92,63.0
407.99,84.0
408.05,66.0
408.11,102.0
408.18,90.0
408.24,89.0
408.3,82.0
408.37,86.0
408.43,87.0
408.49,81.0
408.55,83.0
408.62,75.0
408.68,69.0
408.74,41.0
408.81,55.0
408.87,60.0
408.93,58.0
409.0,77.0
409.06,65.0
409.12,67.0
409.18,80.0
409.25,76.0
409.31,62.0
409.37,70.0
409.44,82.0
409.5,69.0
409.56,69.0
409.63,75.0
409.69,83.0
409.75,77.0
409.81,90.0
409.88,80.0
409.94,84.0
410.0,82.0
410.07,72.0
410.13,98.0
410.19,81.0
410.26,82.0
410.32,72.0
410.38,73.0
410.44,78.0
410.51,86.0
410.57,84.0
410.63,102.0
410.7,100.0
410.76,94.0
410.82,98.0
410.89,100.0
410.95,100.0
411.01,109.0
411.07,86.0
411.14,78.0
411.2,104.0
411.26,113.0
411.33,122.0
411.39,111.0
411.45,105.0
411.52,104.0
411.58,114.0
411.64,117.0
411.7,108.0
411.77,121.0
411.83,118.0
411.89,102.0
411.96,111.0
412.02,116.0
412.08,121.0
412.15,122.0
412.21,118.0
412.27,133.0
412.33,140.0
412.4,136.0
412.46,147.0
412.52,147.0
412.59,144.0
412.65,144.0
412.71,136.0
412.78,128.0
412.84,133.0
412.9,135.0
412.96,141.0
413.03,151.0
413.09,151.0
413.15,136.0
413.22,125.0
413.28,146.0
413.34,132.0
413.41,138.0
413.47,128.0
413.53,127.0
413.59,125.0
413.66,132.0
413.72,128.0
413.78,127.0
413.85,132.0
413.91,139.0
413.97,133.0
414.04,152.0
414.1,149.0
414.16,142.0
414.22,147.0
414.29,143.0
414.35,130.0
414.41,151.0
414.48,144.0
414.54,142.0
414.6,146.0
414.67,151.0
414.73,147.0
414.79,123.0
414.85,144.0
414.92,127.0
414.98,116.0
415.04,106.0
415.11,110.0
415.17,116.0
415.23,107.0
415.3,112.0
415.36,114.0
415.42,103.0
415.48,93.0
415.55,103.0
415.61,111.0
415.67,114.0
415.74,105.0
415.8,116.0
415.86,105.0
415.93,99.0
415.99,102.0
416.05,119.0
416.11,112.0
416.18,95.0
416.24,103.0
416.3,85.0
416.37,91.0
416.43,97.0
416.49,105.0
416.56,81.0
416.62,78.0
416.68,82.0
416.74,78.0
416.81,67.0
416.87,38.0
416.93,67.0
417.0,64.0
417.06,74.0
417.12,62.0
417.19,81.0
417.25,69.0
417.31,66.0
417.37,74.0
417.44,54.0
417.5,69.0
417.56,77.0
417.63,91.0
417.69,111.0
417.75,104.0
417.82,97.0
417.88,97.0
417.94,116.0
418.0,102.0
418.07,96.0
418.13,106.0
418.19,111.0
418.26,126.0
418.32,135.0
418.38,138.0
418.45,134.0
418.51,125.0
418.57,133.0
418.63,104.0
418.7,110.0
418.76,121.0
418.82,127.0
418.89,130.0
418.95,108.0
419.01,96.0
419.08,113.0
419.14,105.0
419.2,108.0
419.26,110.0
419.33,106.0
419.39,115.0
419.45,114.0
419.52,128.0
419.58,118.0
419.64,107.0
419.71,108.0
419.77,113.0
419.83,116.0
419.89,118.0
419.96,114.0
420.02,88.0
420.08,117.0
420.15,105.0
420.21,103.0
420.27,117.0
420.34,125.0
420.4,117.0
420.46,100.0
420.52,83.0
420.59,94.0
420.65,94.0
420.71,93.0
420.78,117.0
420.84,92.0
420.9,99.0
420.97,96.0
421.03,98.0
421.09,103.0
421.15,81.0
421.22,101.0
421.28,104.0
421.34,76.0
421.41,88.0
421.47,78.0
421.53,99.0
421.6,78.0
421.66,84.0
421.72,92.0
421.78,90.0
421.85,121.0
421.91,80.0
421.97,91.0
422.04,120.0
422.1,111.0
422.16,95.0
422.23,102.0
422.29,85.0
422.35,110.0
422.41,89.0
422.48,76.0
422.54,79.0
422.6,102.0
422.67,95.0
422.73,91.0
422.79,124.0
422.86,121.0
422.92,106.0
422.98,100.0
423.04,101.0
423.11,88.0
423.17,88.0
423.23,103.0
423.3,96.0
423.36,78.0
423.42,71.0
423.49,97.0
423.55,69.0
423.61,66.0
423.67,79.0
423.74,71.0
423.8,66.0
423.86,55.0
423.93,37.0
423.99,44.0
424.05,55.0
424.12,70.0
424.18,77.0
424.24,61.0
424.3,66.0
424.37,43.0
424.43,58.0
424.49,64.0
424.56,55.0
424.62,82.0
424.68,63.0
424.75,59.0
424.81,46.0
424.87,37.0
424.93,53.0
425.0,46.0
425.06,15.0
425.12,48.0
425.19,36.0
425.25,28.0
425.31,15.0
425.38,-6.0
425.44,20.0
425.5,36.0
425.56,23.0
425.63,28.0
425.69,20.0
425.75,22.0
425.82,36.0
425.88,9.0
425.94,4.0
426.01,12.0
426.07,16.0
426.13,26.0
426.19,32.0
426.26,29.0
426.32,25.0
426.38,47.0
426.45,40.0
426.51,23.0
426.57,55.0
426.64,54.0
426.7,41.0
426.76,34.0
426.82,54.0
426.89,70.0
426.95,59.0
427.01,51.0
427.08,76.0
427.14,69.0
427.2,46.0
427.27,51.0
427.33,58.0
427.39,60.0
427.45,64.0
427.52,69.0
427.58,80.0
427.64,84.0
427.71,87.0
427.77,90.0
427.83,92.0
427.9,84.0
427.96,102.0
428.02,116.0
428.08,128.0
428.15,121.0
428.21,99.0
428.27,113.0
428.34,126.0
428.4,138.0
428.46,134.0
428.53,147.0
428.59,146.0
428.65,149.0
428.71,134.0
428.78,151.0
428.84,143.0
428.9,142.0
428.97,144.0
429.03,141.0
429.09,137.0
429.16,138.0
429.22,142.0
429.28,127.0
429.34,135.0
429.41,138.0
429.47,118.0
429.53,105.0
429.6,128.0
429.66,140.0
429.72,141.0
429.79,150.0
429.85,155.0
429.91,150.0
429.97,153.0
430.04,150.0
430.1,157.0
430.16,132.0
430.23,142.0
430.29,148.0
430.35,146.0
430.42,138.0
430.48,143.0
430.54,171.0
430.6,166.0
430.67,155.0
430.73,125.0
430.79,132.0
430.86,143.0
430.92,150.0
430.98,136.0
431.05,142.0
431.11,127.0
431.17,138.0
431.23,106.0
431.3,126.0
431.36,114.0
431.42,108.0
431.49,112.0
431.55,106.0
431.61,118.0
431.68,102.0
431.74,106.0
431.8,104.0
431.86,118.0
431.93,117.0
431.99,113.0
432.05,125.0
432.12,117.0
432.18,124.0
432.24,111.0
432.31,131.0
432.37,118.0
432.43,101.0
432.49,117.0
432.56,130.0
432.62,141.0
432.68,110.0
432.75,119.0
432.81,114.0
432.87,111.0
432.94,120.0
433.0,102.0
433.06,100.0
433.12,103.0
433.19,119.0
433.25,124.0
433.31,119.0
433.38,110.0
433.44,110.0
433.5,117.0
433.57,105.0
433.63,106.0
433.69,68.0
433.75,94.0
433.82,95.0
433.88,97.0
433.94,117.0
434.01,97.0
434.07,92.0
434.13,97.0
434.2,117.0
434.26,95.0
434.32,106.0
434.38,101.0
434.45,101.0
434.51,97.0
434.57,108.0
434.64,111.0
434.7,110.0
434.76,107.0
434.83,108.0
434.89,104.0
434.95,142.0
435.01,123.0
435.08,116.0
435.14,132.0
435.2,135.0
435.27,116.0
435.33,156.0
435.39,159.0
435.46,168.0
435.52,180.0
435.58,183.0
435.64,175.0
435.71,172.0
435.77,172.0
435.83,159.0
435.9,169.0
435.96,168.0
436.02,182.0
436.09,154.0
436.15,162.0
436.21,181.0
436.27,169.0
436.34,157.0
436.4,153.0
436.46,150.0
436.53,174.0
436.59,168.0
436.65,145.0
436.72,153.0
436.78,167.0
436.84,168.0
436.9,188.0
436.97,185.0
437.03,181.0
437.09,171.0
437.16,172.0
437.22,173.0
437.28,194.0
437.35,185.0
437.41,209.0
437.47,209.0
437.53,190.0
437.6,197.0
437.66,183.0
437.72,186.0
437.79,178.0
437.85,154.0
437.91,168.0
437.98,161.0
438.04,168.0
438.1,178.0
438.16,177.0
438.23,158.0
438.29,164.0
438.35,172.0
438.42,157.0
438.48,160.0
438.54,177.0
438.61,178.0
438.67,168.0
438.73,155.0
438.79,166.0
438.86,158.0
438.92,161.0
438.98,148.0
439.05,162.0
439.11,172.0
439.17,172.0
439.24,166.0
439.3,161.0
439.36,154.0
439.42,153.0
439.49,161.0
439.55,153.0
439.61,145.0
439.68,154.0
439.74,144.0
439.8,150.0
439.87,153.0
439.93,141.0
439.99,146.0
440.05,130.0
440.12,112.0
440.18,102.0
440.24,122.0
440.31,76.0
440.37,95.0
440.43,124.0
440.5,114.0
440.56,101.0
440.62,118.0
440.68,119.0
440.75,98.0
440.81,101.0
440.87,85.0
440.94,94.0
441.0,87.0
441.06,66.0
441.13,94.0
441.19,95.0
441.25,89.0
441.31,92.0
441.38,78.0
441.44,65.0
441.5,65.0
441.57,54.0
441.63,67.0
441.69,59.0
441.76,74.0
441.82,52.0
441.88,47.0
441.94,47.0
442.01,54.0
442.07,44.0
442.13,36.0
442.2,55.0
442.26,54.0
442.32,51.0
442.39,49.0
442.45,62.0
442.51,48.0
442.57,43.0
442.64,32.0
442.7,41.0
442.76,53.0
442.83,48.0
442.89,62.0
442.95,51.0
443.02,37.0
443.08,59.0
443.14,37.0
443.2,55.0
443.27,56.0
443.33,57.0
443.39,40.0
443.46,23.0
443.52,48.0
443.58,53.0
443.65,45.0
443.71,43.0
443.77,61.0
443.83,51.0
443.9,62.0
443.96,51.0
444.02,49.0
444.09,74.0
444.15,58.0
444.21,63.0
444.28,85.0
444.34,72.0
444.4,83.0
444.46,76.0
444.53,70.0
444.59,83.0
444.65,62.0
444.72,44.0
444.78,73.0
444.84,73.0
444.91,69.0
444.97,59.0
445.03,58.0
445.09,55.0
445.16,76.0
445.22,57.0
445.28,46.0
445.35,62.0
445.41,38.0
445.47,45.0
445.54,58.0
445.6,51.0
445.66,45.0
445.72,48.0
445.79,26.0
445.85,33.0
445.91,37.0
445.98,27.0
446.04,34.0
446.1,48.0
446.17,43.0
446.23,53.0
446.29,53.0
446.35,62.0
446.42,62.0
446.48,65.0
446.54,73.0
446.61,89.0
446.67,93.0
446.73,81.0
446.8,53.0
446.86,62.0
446.92,77.0
446.98,80.0
447.05,94.0
447.11,66.0
447.17,87.0
447.24,82.0
447.3,76.0
447.36,59.0
447.43,71.0
447.49,41.0
447.55,61.0
447.61,66.0
447.68,69.0
447.74,91.0
447.8,65.0
447.87,62.0
447.93,65.0
447.99,80.0
448.06,88.0
448.12,75.0
448.18,84.0
448.24,80.0
448.31,74.0
448.37,101.0
448.43,89.0
448.5,59.0
448.56,61.0
448.62,55.0
448.69,72.0
448.75,69.0
448.81,78.0
448.87,81.0
448.94,81.0
449.0,72.0
449.06,61.0
449.13,58.0
449.19,64.0
449.25,40.0
449.32,43.0
449.38,55.0
449.44,61.0
449.5,47.0
449.57,66.0
449.63,64.0
449.69,38.0
449.76,45.0
449.82,59.0
449.88,41.0
449.95,32.0
450.01,40.0
450.07,43.0
450.13,15.0
450.2,0.0
450.26,20.0
450.32,10.0
450.39,7.0
450.45,6.0
450.51,-1.0
450.58,5.0
450.64,18.0
450.7,16.0
450.76,20.0
450.83,24.0
450.89,26.0
450.95,36.0
451.02,42.0
451.08,45.0
451.14,38.0
451.21,40.0
451.27,34.0
451.33,41.0
451.39,41.0
451.46,28.0
451.52,31.0
451.58,31.0
451.65,30.0
451.71,17.0
451.77,37.0
451.84,43.0
451.9,22.0
451.96,23.0
452.02,31.0
452.09,40.0
452.15,50.0
452.21,74.0
452.28,84.0
452.34,83.0
452.4,75.0
452.47,83.0
452.53,74.0
452.59,81.0
452.65,101.0
452.72,92.0
452.78,95.0
452.84,109.0
452.91,139.0
452.97,132.0
453.03,100.0
453.1,117.0
453.16,104.0
453.22,124.0
453.28,122.0
453.35,114.0
453.41,130.0
453.47,120.0
453.54,127.0
453.6,105.0
453.66,100.0
453.73,111.0
453.79,109.0
453.85,104.0
453.91,111.0
453.98,105.0
454.04,111.0
454.1,115.0
454.17,109.0
454.23,80.0
454.29,98.0
454.36,92.0
454.42,105.0
454.48,113.0
454.54,105.0
454.61,105.0
454.67,103.0
454.73,102.0
454.8,105.0
454.86,112.0
454.92,102.0
454.99,102.0
455.05,121.0
455.11,111.0
455.17,123.0
455.24,116.0
455.3,121.0
455.36,135.0
455.43,123.0
455.49,131.0
455.55,133.0
455.62,136.0
455.68,121.0
455.74,131.0
455.8,113.0
455.87,106.0
455.93,97.0
455.99,68.0
456.06,80.0
456.12,109.0
456.18,100.0
456.25,114.0
456.31,103.0
456.37,102.0
456.43,70.0
456.5,82.0
456.56,86.0
456.62,86.0
456.69,68.0
456.75,59.0
456.81,68.0
456.88,41.0
456.94,45.0
457.0,37.0
457.06,61.0
457.13,69.0
457.19,53.0
457.25,33.0
457.32,57.0
457.38,49.0
457.44,68.0
457.51,61.0
457.57,43.0
457.63,45.0
457.69,37.0
457.76,45.0
457.82,63.0
457.88,70.0
457.95,72.0
458.01,50.0
458.07,60.0
458.14,46.0
458.2,47.0
458.26,66.0
458.32,47.0
458.39,45.0
458.45,35.0
458.51,61.0
458.58,33.0
458.64,54.0
458.7,54.0
458.77,19.0
458.83,38.0
458.89,23.0
458.95,29.0
459.02,26.0
459.08,21.0
459.14,21.0
459.21,4.0
459.27,0.0
459.33,16.0
459.4,13.0
459.46,19.0
459.52,32.0
459.58,44.0
459.65,44.0
459.71,52.0
459.77,46.0
459.84,52.0
459.9,47.0
459.96,56.0
460.03,73.0
460.09,48.0
460.15,55.0
460.21,72.0
460.28,83.0
460.34,88.0
460.4,98.0
460.47,101.0
460.53,90.0
460.59,70.0
460.66,95.0
460.72,50.0
460.78,52.0
460.84,70.0
460.91,79.0
460.97,92.0
461.03,83.0
461.1,84.0
461.16,112.0
461.22,110.0
461.29,120.0
461.35,111.0
461.41,106.0
461.47,99.0
461.54,117.0
461.6,121.0
461.66,127.0
461.73,128.0
461.79,126.0
461.85,133.0
461.92,145.0
461.98,129.0
462.04,129.0
462.1,149.0
462.17,149.0
462.23,150.0
462.29,160.0
462.36,167.0
462.42,158.0
462.48,145.0
462.55,145.0
462.61,145.0
462.67,151.0
462.73,140.0
462.8,143.0
462.86,156.0
462.92,161.0
462.99,152.0
463.05,133.0
463.11,154.0
463.18,155.0
463.24,144.0
463.3,144.0
463.36,143.0
463.43,144.0
463.49,133.0
463.55,144.0
463.62,145.0
463.68,149.0
463.74,132.0
463.81,134.0
463.87,136.0
463.93,159.0
463.99,152.0
464.06,162.0
464.12,171.0
464.18,162.0
464.25,188.0
464.31,175.0
464.37,182.0
464.44,162.0
464.5,142.0
464.56,153.0
464.62,156.0
464.69,144.0
464.75,166.0
464.81,146.0
464.88,144.0
464.94,134.0
465.0,142.0
465.07,142.0
465.13,127.0
465.19,135.0
465.25,151.0
465.32,136.0
465.38,127.0
465.44,136.0
465.51,105.0
465.57,108.0
465.63,115.0
465.7,120.0
465.76,113.0
465.82,113.0
465.88,126.0
465.95,125.0
466.01,134.0
466.07,114.0
466.14,129.0
466.2,147.0
466.26,146.0
466.33,135.0
466.39,136.0
466.45,130.0
466.51,130.0
466.58,123.0
466.64,129.0
466.7,141.0
466.77,121.0
466.83,117.0
466.89,109.0
466.96,130.0
467.02,150.0
467.08,147.0
467.14,119.0
467.21,99.0
467.27,93.0
467.33,87.0
467.4,102.0
467.46,77.0
467.52,76.0
467.59,85.0
467.65,84.0
467.71,77.0
467.77,86.0
467.84,78.0
467.9,74.0
467.96,89.0
468.03,78.0
468.09,79.0
468.15,74.0
468.22,101.0
468.28,98.0
468.34,102.0
468.4,75.0
468.47,101.0
468.53,95.0
468.59,91.0
468.66,100.0
468.72,110.0
468.78,124.0
468.85,113.0
468.91,116.0
468.97,126.0
469.03,109.0
469.1,119.0
469.16,133.0
469.22,114.0
469.29,119.0
469.35,120.0
469.41,109.0
469.48,109.0
469.54,111.0
469.6,137.0
469.66,132.0
469.73,135.0
469.79,139.0
469.85,126.0
469.92,117.0
469.98,120.0
470.04,134.0
470.11,120.0
470.17,135.0
470.23,116.0
470.29,137.0
470.36,150.0
470.42,141.0
470.48,135.0
470.55,133.0
470.61,128.0
470.67,126.0
470.74,134.0
470.8,132.0
470.86,132.0
470.92,138.0
470.99,131.0
471.05,136.0
471.11,137.0
471.18,134.0
471.24,144.0
471.3,155.0
471.37,144.0
471.43,149.0
471.49,147.0
471.55,119.0
471.62,119.0
471.68,117.0
471.74,98.0
471.81,82.0
471.87,97.0
471.93,103.0
472.0,92.0
472.06,111.0
472.12,106.0
472.18,111.0
472.25,110.0
472.31,98.0
472.37,84.0
472.44,127.0
472.5,109.0
472.56,107.0
472.63,106.0
472.69,100.0
472.75,125.0
472.81,111.0
472.88,117.0
472.94,120.0
473.0,139.0
473.07,122.0
473.13,124.0
473.19,103.0
473.26,117.0
473.32,105.0
473.38,105.0
473.44,100.0
473.51,101.0
473.57,113.0
473.63,119.0
473.7,97.0
473.76,107.0
473.82,117.0
473.89,113.0
473.95,111.0
474.01,98.0
474.07,90.0
474.14,97.0
474.2,103.0
474.26,105.0
474.33,116.0
474.39,95.0
474.45,98.0
474.52,108.0
474.58,80.0
474.64,88.0
474.7,92.0
474.77,90.0
474.83,69.0
474.89,57.0
474.96,51.0
475.02,40.0
475.08,46.0
475.15,61.0
475.21,36.0
475.27,50.0
475.33,34.0
475.4,50.0
475.46,21.0
475.52,39.0
475.59,30.0
475.65,29.0
475.71,-5.0
475.78,2.0
475.84,8.0
475.9,-2.0
475.96,21.0
476.03,47.0
476.09,25.0
476.15,14.0
476.22,2.0
476.28,16.0
476.34,28.0
476.41,13.0
476.47,22.0
476.53,4.0
476.59,16.0
476.66,22.0
476.72,5.0
476.78,0.0
476.85,6.0
476.91,-3.0
476.97,4.0
477.04,-2.0
477.1,8.0
477.16,12.0
477.22,-7.0
477.29,3.0
477.35,22.0
477.41,1.0
477.48,1.0
477.54,26.0
477.6,36.0
477.67,35.0
477.73,21.0
477.79,41.0
477.85,58.0
477.92,36.0
477.98,35.0
478.04,46.0
478.11,43.0
478.17,32.0
478.23,18.0
478.3,32.0
478.36,30.0
478.42,21.0
478.48,37.0
478.55,45.0
478.61,57.0
478.67,41.0
478.74,47.0
478.8,38.0
478.86,59.0
478.93,64.0
478.99,50.0
479.05,53.0
479.11,54.0
479.18,62.0
479.24,56.0
479.3,68.0
479.37,80.0
479.43,67.0
479.49,81.0
479.56,91.0
479.62,91.0
479.68,93.0
479.74,80.0
479.81,82.0
479.87,95.0
479.93,112.0
480.0,108.0
480.06,103.0
480.12,104.0
480.19,128.0
480.25,103.0
480.31,104.0
480.37,103.0
480.44,102.0
480.5,102.0
480.56,105.0
480.63,121.0
480.69,117.0
480.75,129.0
480.82,125.0
480.88,107.0
480.94,102.0
481.0,104.0
481.07,106.0
481.13,87.0
481.19,116.0
481.26,99.0
481.32,98.0
481.38,95.0
481.45,104.0
481.51,107.0
481.57,113.0
481.63,105.0
481.7,93.0
481.76,79.0
481.82,74.0
481.89,87.0
481.95,77.0
482.01,77.0
482.08,72.0
482.14,81.0
482.2,72.0
482.26,106.0
482.33,101.0
482.39,84.0
482.45,91.0
482.52,76.0
482.58,88.0
482.64,83.0
482.71,79.0
482.77,74.0
482.83,68.0
482.89,65.0
482.96,68.0
483.02,59.0
483.08,72.0
483.15,61.0
483.21,64.0
483.27,62.0
483.34,59.0
483.4,60.0
483.46,38.0
483.52,52.0
483.59,51.0
483.65,57.0
483.71,47.0
483.78,41.0
483.84,27.0
483.9,29.0
483.97,49.0
484.03,47.0
484.09,26.0
484.15,26.0
484.22,33.0
484.28,44.0
484.34,43.0
484.41,38.0
484.47,59.0
484.53,57.0
484.6,85.0
484.66,91.0
484.72,73.0
484.78,90.0
484.85,81.0
484.91,65.0
484.97,91.0
485.04,109.0
485.1,109.0
485.16,123.0
485.23,131.0
485.29,113.0
485.35,130.0
485.41,126.0
485.48,130.0
485.54,123.0
485.6,129.0
485.67,146.0
485.73,136.0
485.79,142.0
485.86,156.0
485.92,161.0
485.98,151.0
486.04,153.0
486.11,171.0
486.17,165.0
486.23,184.0
486.3,161.0
486.36,151.0
486.42,171.0
486.49,160.0
486.55,154.0
486.61,167.0
486.67,171.0
486.74,160.0
486.8,149.0
486.86,165.0
486.93,173.0
486.99,168.0
487.05,161.0
487.12,153.0
487.18,161.0
487.24,174.0
487.3,157.0
487.37,175.0
487.43,200.0
487.49,192.0
487.56,170.0
487.62,179.0
487.68,204.0
487.75,195.0
487.81,218.0
487.87,214.0
487.93,196.0
488.0,198.0
488.06,220.0
488.12,212.0
488.19,210.0
488.25,211.0
488.31,216.0
488.38,225.0
488.44,203.0
488.5,221.0
488.56,203.0
488.63,209.0
488.69,217.0
488.75,212.0
488.82,225.0
488.88,213.0
488.94,216.0
489.01,218.0
489.07,209.0
489.13,220.0
489.19,234.0
489.26,227.0
489.32,234.0
489.38,239.0
489.45,260.0
489.51,231.0
489.57,245.0
489.64,242.0
489.7,231.0
489.76,231.0
489.82,237.0
489.89,234.0
489.95,215.0
490.01,223.0
490.08,210.0
490.14,209.0
490.2,217.0
490.27,214.0
490.33,228.0
490.39,206.0
490.45,214.0
490.52,197.0
490.58,196.0
490.64,194.0
490.71,208.0
490.77,198.0
490.83,193.0
490.9,191.0
490.96,171.0
491.02,190.0
491.08,184.0
491.15,180.0
491.21,186.0
491.27,189.0
491.34,185.0
491.4,167.0
491.46,187.0
491.53,178.0
491.59,187.0
491.65,181.0
491.71,183.0
491.78,167.0
491.84,168.0
491.9,169.0
491.97,151.0
492.03,148.0
492.09,126.0
492.16,159.0
492.22,157.0
492.28,176.0
492.34,168.0
492.41,120.0
492.47,135.0
492.53,128.0
492.6,118.0
492.66,102.0
492.72,99.0
492.79,100.0
492.85,108.0
492.91,95.0
492.97,93.0
493.04,96.0
493.1,80.0
493.16,93.0
493.23,79.0
493.29,96.0
493.35,106.0
493.42,77.0
493.48,81.0
493.54,85.0
493.6,80.0
493.67,91.0
493.73,81.0
493.79,106.0
493.86,113.0
493.92,103.0
493.98,109.0
494.05,115.0
494.11,134.0
494.17,139.0
494.23,124.0
494.3,106.0
494.36,103.0
494.42,100.0
494.49,87.0
494.55,102.0
494.61,99.0
494.68,106.0
494.74,91.0
494.8,88.0
494.86,82.0
494.93,98.0
494.99,115.0
495.05,101.0
495.12,89.0
495.18,83.0
495.24,90.0
495.31,104.0
495.37,115.0
495.43,141.0
495.49,126.0
495.56,127.0
495.62,135.0
495.68,133.0
495.75,134.0
495.81,143.0
495.87,129.0
495.94,123.0
496.0,135.0
496.06,125.0
496.12,106.0
496.19,118.0
496.25,138.0
496.31,132.0
496.38,134.0
496.44,119.0
496.5,147.0
496.57,149.0
496.63,151.0
496.69,141.0
496.75,136.0
496.82,142.0
496.88,128.0
496.94,128.0
497.01,122.0
497.07,116.0
497.13,123.0
497.2,135.0
497.26,133.0
497.32,127.0
497.38,140.0
497.45,134.0
497.51,120.0
497.57,117.0
497.64,110.0
497.7,114.0
497.76,114.0
497.83,116.0
497.89,109.0
497.95,104.0
498.01,116.0
498.08,108.0
498.14,128.0
498.2,123.0
498.27,129.0
498.33,120.0
498.39,119.0
498.46,94.0
498.52,121.0
498.58,117.0
498.64,105.0
498.71,108.0
498.77,106.0
498.83,88.0
498.9,107.0
498.96,91.0
499.02,85.0
499.09,82.0
499.15,87.0
499.21,80.0
499.27,58.0
499.34,74.0
499.4,98.0
499.46,88.0
499.53,73.0
499.59,64.0
499.65,47.0
499.72,54.0
499.78,77.0
499.84,73.0
499.9,85.0
499.97,84.0
500.03,107.0
500.09,88.0
500.16,78.0
500.22,69.0
500.28,93.0
500.35,63.0
500.41,69.0
500.47,63.0
500.53,63.0
500.6,84.0
500.66,64.0
500.72,72.0
500.79,51.0
500.85,43.0
500.91,47.0
500.98,48.0
501.04,44.0
501.1,49.0
501.16,49.0
501.23,43.0
501.29,39.0
501.35,39.0
501.42,53.0
501.48,40.0
501.54,27.0
501.61,43.0
501.67,21.0
501.73,20.0
501.79,41.0
501.86,31.0
501.92,35.0
501.98,47.0
502.05,47.0
502.11,19.0
502.17,19.0
502.24,39.0
502.3,38.0
502.36,23.0
502.42,40.0
502.49,54.0
502.55,54.0
502.61,43.0
502.68,52.0
502.74,74.0
502.8,51.0
502.87,50.0
502.93,48.0
502.99,73.0
503.05,52.0
503.12,85.0
503.18,79.0
503.24,57.0
503.31,85.0
503.37,65.0
503.43,77.0
503.5,94.0
503.56,83.0
503.62,63.0
503.68,106.0
503.75,100.0
503.81,87.0
503.87,109.0
503.94,94.0
504.0,102.0
504.06,100.0
504.13,109.0
504.19,95.0
504.25,121.0
504.31,95.0
504.38,110.0
504.44,87.0
504.5,112.0
504.57,107.0
504.63,102.0
504.69,102.0
504.76,118.0
504.82,115.0
504.88,99.0
504.94,113.0
505.01,113.0
505.07,124.0
505.13,121.0
505.2,122.0
505.26,126.0
505.32,104.0
505.39,107.0
505.45,108.0
505.51,103.0
505.57,105.0
505.64,102.0
505.7,97.0
505.76,101.0
505.83,93.0
505.89,98.0
505.95,87.0
506.02,93.0
506.08,119.0
506.14,106.0
506.2,90.0
506.27,98.0
506.33,110.0
506.39,118.0
506.46,118.0
506.52,104.0
506.58,113.0
506.65,132.0
506.71,133.0
506.77,113.0
506.83,84.0
506.9,84.0
506.96,95.0
507.02,101.0
507.09,93.0
507.15,95.0
507.21,92.0
507.28,85.0
507.34,84.0
507.4,66.0
507.46,61.0
507.53,58.0
507.59,57.0
507.65,68.0
507.72,53.0
507.78,56.0
507.84,58.0
507.91,35.0
507.97,38.0
508.03,54.0
508.09,36.0
508.16,43.0
508.22,47.0
508.28,27.0
508.35,25.0
508.41,40.0
508.47,52.0
508.54,21.0
508.6,7.0
508.66,4.0
508.72,19.0
508.79,19.0
508.85,29.0
508.91,33.0
508.98,14.0
509.04,38.0
509.1,25.0
509.17,27.0
509.23,16.0
509.29,16.0
509.35,23.0
509.42,22.0
509.48,14.0
509.54,-13.0
509.61,2.0
509.67,17.0
509.73,4.0
509.8,15.0
509.86,-2.0
509.92,27.0
509.98,-6.0
510.05,13.0
510.11,46.0
510.17,26.0
510.24,26.0
510.3,24.0
510.36,19.0
510.43,-4.0
510.49,12.0
510.55,-5.0
510.61,-3.0
510.68,-1.0
510.74,4.0
510.8,13.0
510.87,21.0
510.93,15.0
510.99,3.0
511.06,15.0
511.12,9.0
511.18,6.0
511.24,1.0
511.31,-4.0
511.37,10.0
511.43,23.0
511.5,30.0
511.56,20.0
511.62,21.0
511.69,36.0
511.75,26.0
511.81,34.0
511.87,24.0
511.94,56.0
512.0,55.0
512.06,47.0
512.13,46.0
512.19,57.0
512.25,63.0
512.32,55.0
512.38,51.0
512.44,62.0
512.5,63.0
512.57,44.0
512.63,61.0
512.69,63.0
512.76,26.0
512.82,45.0
512.88,52.0
512.95,63.0
513.01,59.0
513.07,65.0
513.13,61.0
513.2,86.0
513.26,76.0
513.32,71.0
513.39,84.0
513.45,100.0
513.51,86.0
513.58,89.0
513.64,100.0
513.7,113.0
513.76,91.0
513.83,100.0
513.89,97.0
513.95,93.0
514.02,111.0
514.08,102.0
514.14,94.0
514.21,80.0
514.27,104.0
514.33,99.0
514.39,118.0
514.46,94.0
514.52,93.0
514.58,107.0
514.65,100.0
514.71,122.0
514.77,126.0
514.84,100.0
514.9,107.0
514.96,122.0
515.02,110.0
515.09,101.0
515.15,98.0
515.21,103.0
515.28,119.0
515.34,111.0
515.4,120.0
515.47,104.0
515.53,109.0
515.59,130.0
515.65,109.0
515.72,116.0
515.78,118.0
515.84,124.0
515.91,122.0
515.97,107.0
516.03,116.0
516.1,107.0
516.16,125.0
516.22,126.0
516.28,110.0
516.35,116.0
516.41,119.0
516.47,111.0
516.54,112.0
516.6,94.0
516.66,94.0
516.73,115.0
516.79,116.0
516.85,103.0
516.91,104.0
516.98,78.0
517.04,86.0
517.1,94.0
517.17,86.0
517.23,87.0
517.29,72.0
517.36,104.0
517.42,99.0
517.48,86.0
517.54,96.0
517.61,94.0
517.67,85.0
517.73,95.0
517.8,109.0
517.86,99.0
517.92,100.0
517.99,100.0
518.05,92.0
518.11,81.0
518.17,93.0
518.24,79.0
518.3,81.0
518.36,93.0
518.43,104.0
518.49,97.0
518.55,96.0
518.62,89.0
518.68,106.0
518.74,96.0
518.8,108.0
518.87,111.0
518.93,81.0
518.99,71.0
519.06,70.0
519.12,103.0
519.18,103.0
519.25,98.0
519.31,114.0
519.37,112.0
519.43,108.0
519.5,123.0
519.56,112.0
519.62,108.0
519.69,115.0
519.75,111.0
519.81,111.0
519.88,110.0
519.94,122.0
520.0,110.0
520.06,137.0
520.13,137.0
520.19,130.0
520.25,123.0
520.32,114.0
520.38,131.0
520.44,140.0
520.51,138.0
520.57,134.0
520.63,123.0
520.69,141.0
520.76,143.0
520.82,153.0
520.88,138.0
520.95,153.0
521.01,167.0
521.07,161.0
521.14,162.0
521.2,169.0
521.26,155.0
521.32,164.0
521.39,160.0
521.45,144.0
521.51,155.0
521.58,161.0
521.64,170.0
521.7,181.0
521.77,190.0
521.83,188.0
521.89,174.0
521.95,184.0
522.02,158.0
522.08,154.0
522.14,166.0
522.21,166.0
522.27,153.0
522.33,154.0
522.4,161.0
522.46,143.0
522.52,152.0
522.58,138.0
522.65,133.0
522.71,136.0
522.77,151.0
522.84,152.0
522.9,138.0
522.96,153.0
523.03,133.0
523.09,126.0
523.15,152.0
523.21,172.0
523.28,161.0
523.34,130.0
523.4,155.0
523.47,174.0
523.53,157.0
523.59,133.0
523.66,137.0
523.72,126.0
523.78,144.0
523.84,135.0
523.91,144.0
523.97,142.0
524.03,114.0
524.1,141.0
524.16,144.0
524.22,133.0
524.29,115.0
524.35,134.0
524.41,158.0
524.47,130.0
524.54,141.0
524.6,149.0
524.66,135.0
524.73,153.0
524.79,141.0
524.85,131.0
524.92,144.0
524.98,144.0
525.04,135.0
525.1,137.0
525.17,122.0
525.23,121.0
525.29,143.0
525.36,139.0
525.42,122.0
525.48,93.0
525.55,93.0
525.61,88.0
525.67,92.0
525.73,81.0
525.8,93.0
525.86,102.0
525.92,87.0
525.99,82.0
526.05,71.0
526.11,72.0
526.18,56.0
526.24,73.0
526.3,85.0
526.36,74.0
526.43,71.0
526.49,81.0
526.55,94.0
526.62,66.0
526.68,57.0
526.74,57.0
526.81,60.0
526.87,53.0
526.93,65.0
526.99,82.0
527.06,85.0
527.12,72.0
527.18,91.0
527.25,82.0
527.31,89.0
527.37,72.0
527.44,55.0
527.5,87.0
527.56,69.0
527.62,65.0
527.69,69.0
527.75,75.0
527.81,71.0
527.88,69.0
527.94,56.0
528.0,56.0
528.07,62.0
528.13,64.0
528.19,74.0
528.25,55.0
528.32,61.0
528.38,84.0
528.44,68.0
528.51,75.0
528.57,59.0
528.63,75.0
528.7,84.0
528.76,75.0
528.82,64.0
528.88,55.0
528.95,65.0
529.01,65.0
529.07,64.0
529.14,74.0
529.2,84.0
529.26,108.0
529.33,93.0
529.39,100.0
529.45,101.0
529.51,93.0
529.58,87.0
529.64,100.0
529.7,107.0
529.77,117.0
529.83,99.0
529.89,95.0
529.96,92.0
530.02,90.0
530.08,112.0
530.14,109.0
530.21,105.0
530.27,113.0
530.33,119.0
530.4,109.0
530.46,129.0
530.52,126.0
530.59,129.0
530.65,137.0
530.71,150.0
530.77,144.0
530.84,144.0
530.9,170.0
530.96,159.0
531.03,150.0
531.09,144.0
531.15,134.0
531.22,111.0
531.28,107.0
531.34,115.0
531.4,106.0
531.47,104.0
531.53,115.0
531.59,144.0
531.66,146.0
531.72,139.0
531.78,123.0
531.85,133.0
531.91,150.0
531.97,147.0
532.03,169.0
532.1,166.0
532.16,165.0
532.22,153.0
532.29,155.0
532.35,161.0
532.41,162.0
532.48,164.0
532.54,161.0
532.6,166.0
532.66,152.0
532.73,155.0
532.79,162.0
532.85,163.0
532.92,157.0
532.98,155.0
533.04,163.0
533.11,149.0
533.17,149.0
533.23,140.0
533.29,163.0
533.36,151.0
533.42,166.0
533.48,170.0
533.55,162.0
533.61,159.0
533.67,147.0
533.74,152.0
533.8,153.0
533.86,139.0
533.92,139.0
533.99,138.0
534.05,132.0
534.11,154.0
534.18,130.0
534.24,102.0
534.3,108.0
534.37,95.0
534.43,98.0
534.49,98.0
534.55,94.0
534.62,87.0
534.68,73.0
534.74,90.0
534.81,81.0
534.87,81.0
534.93,81.0
535.0,96.0
535.06,87.0
535.12,89.0
535.18,83.0
535.25,88.0
535.31,71.0
535.37,79.0
535.44,97.0
535.5,76.0
535.56,84.0
535.63,87.0
535.69,64.0
535.75,80.0
535.81,92.0
535.88,65.0
535.94,80.0
536.0,87.0
536.07,82.0
536.13,98.0
536.19,96.0
536.26,70.0
536.32,75.0
536.38,84.0
536.44,102.0
536.51,93.0
536.57,101.0
536.63,102.0
536.7,114.0
536.76,113.0
536.82,122.0
536.89,108.0
536.95,115.0
537.01,128.0
537.07,120.0
537.14,103.0
537.2,111.0
537.26,107.0
537.33,120.0
537.39,133.0
537.45,111.0
537.52,112.0
537.58,93.0
537.64,108.0
537.7,107.0
537.77,102.0
537.83,117.0
537.89,112.0
537.96,131.0
538.02,134.0
538.08,105.0
538.15,120.0
538.21,134.0
538.27,125.0
538.33,110.0
538.4,118.0
538.46,145.0
538.52,147.0
538.59,148.0
538.65,133.0
538.71,129.0
538.78,120.0
538.84,128.0
538.9,130.0
538.96,125.0
539.03,126.0
539.09,121.0
539.15,136.0
539.22,112.0
539.28,121.0
539.34,133.0
539.41,113.0
539.47,151.0
539.53,153.0
539.59,136.0
539.66,137.0
539.72,137.0
539.78,145.0
539.85,130.0
539.91,151.0
539.97,115.0
540.04,111.0
540.1,130.0
540.16,146.0
540.22,124.0
540.29,130.0
540.35,136.0
540.41,119.0
540.48,129.0
540.54,147.0
540.6,141.0
540.67,107.0
540.73,102.0
540.79,138.0
540.85,138.0
540.92,124.0
540.98,120.0
541.04,140.0
541.11,137.0
541.17,115.0
541.23,135.0
541.3,122.0
541.36,128.0
541.42,125.0
541.48,118.0
541.55,121.0
541.61,118.0
541.67,98.0
541.74,100.0
541.8,100.0
541.86,100.0
541.93,80.0
541.99,93.0
542.05,107.0
542.11,87.0
542.18,77.0
542.24,109.0
542.3,81.0
542.37,73.0
542.43,93.0
542.49,91.0
542.56,78.0
542.62,63.0
542.68,44.0
542.74,32.0
542.81,70.0
542.87,66.0
542.93,46.0
543.0,40.0
543.06,61.0
543.12,45.0
543.19,44.0
543.25,38.0
543.31,50.0
543.37,43.0
543.44,54.0
543.5,56.0
543.56,57.0
543.63,87.0
543.69,65.0
543.75,70.0
543.82,63.0
543.88,52.0
543.94,53.0
544.0,59.0
544.07,69.0
544.13,73.0
544.19,59.0
544.26,49.0
544.32,59.0
544.38,46.0
544.45,50.0
544.51,49.0
544.57,31.0
544.63,35.0
544.7,53.0
544.76,73.0
544.82,64.0
544.89,70.0
544.95,67.0
545.01,62.0
545.08,54.0
545.14,70.0
545.2,71.0
545.26,67.0
545.33,89.0
545.39,90.0
545.45,89.0
545.52,104.0
545.58,96.0
545.64,61.0
545.71,106.0
545.77,109.0
545.83,121.0
545.89,128.0
545.96,119.0
546.02,115.0
546.08,122.0
546.15,129.0
546.21,91.0
546.27,104.0
546.34,97.0
546.4,88.0
546.46,87.0
546.52,120.0
546.59,104.0
546.65,116.0
546.71,118.0
546.78,125.0
546.84,126.0
546.9,111.0
546.97,133.0
547.03,111.0
547.09,116.0
547.15,100.0
547.22,114.0
547.28,108.0
547.34,109.0
547.41,115.0
547.47,109.0
547.53,119.0
547.6,117.0
547.66,136.0
547.72,121.0
547.78,123.0
547.85,134.0
547.91,123.0
547.97,127.0
548.04,130.0
548.1,141.0
548.16,133.0
548.23,142.0
548.29,155.0
548.35,125.0
548.41,136.0
548.48,131.0
548.54,131.0
548.6,143.0
548.67,137.0
548.73,130.0
548.79,132.0
548.86,147.0
548.92,163.0
548.98,164.0
549.04,158.0
549.11,126.0
549.17,140.0
549.23,151.0
549.3,128.0
549.36,130.0
549.42,113.0
549.49,116.0
549.55,134.0
549.61,118.0
549.67,106.0
549.74,116.0
549.8,122.0
549.86,139.0
549.93,138.0
549.99,137.0
550.05,147.0
550.12,126.0
550.18,133.0
550.24,141.0
550.3,120.0
550.37,115.0
550.43,112.0
550.49,99.0
550.56,122.0
550.62,101.0
550.68,95.0
550.75,88.0
550.81,73.0
550.87,90.0
550.93,90.0
551.0,93.0
551.06,104.0
551.12,108.0
551.19,119.0
551.25,106.0
551.31,103.0
551.38,116.0
551.44,111.0
551.5,103.0
551.56,97.0
551.63,107.0
551.69,123.0
551.75,110.0
551.82,122.0
551.88,130.0
551.94,90.0
552.01,90.0
552.07,85.0
552.13,104.0
552.19,98.0
552.26,83.0
552.32,79.0
552.38,69.0
552.45,62.0
552.51,78.0
552.57,78.0
552.64,67.0
552.7,73.0
552.76,69.0
552.82,62.0
552.89,86.0
552.95,75.0
553.01,51.0
553.08,55.0
553.14,52.0
553.2,57.0
553.27,63.0
553.33,78.0
553.39,89.0
553.45,63.0
553.52,50.0
553.58,72.0
553.64,58.0
553.71,47.0
553.77,66.0
553.83,75.0
553.9,76.0
553.96,59.0
554.02,57.0
554.08,64.0
554.15,77.0
554.21,60.0
554.27,51.0
554.34,53.0
554.4,59.0
554.46,53.0
554.53,52.0
554.59,40.0
554.65,66.0
554.71,64.0
554.78,71.0
554.84,65.0
554.9,57.0
554.97,73.0
555.03,74.0
555.09,78.0
555.16,67.0
555.22,57.0
555.28,81.0
555.34,71.0
555.41,79.0
555.47,69.0
555.53,69.0
555.6,81.0
555.66,94.0
555.72,98.0
555.79,101.0
555.85,111.0
555.91,98.0
555.97,76.0
556.04,87.0
556.1,101.0
556.16,103.0
556.23,87.0
556.29,87.0
556.35,101.0
556.42,105.0
556.48,115.0
556.54,114.0
556.6,108.0
556.67,109.0
556.73,107.0
556.79,115.0
556.86,93.0
556.92,90.0
556.98,88.0
557.05,80.0
557.11,100.0
557.17,102.0
557.23,94.0
557.3,104.0
557.36,87.0
557.42,91.0
557.49,94.0
557.55,85.0
557.61,89.0
557.68,71.0
557.74,82.0
557.8,73.0
557.86,90.0
557.93,93.0
557.99,89.0
558.05,95.0
558.12,98.0
558.18,97.0
558.24,94.0
558.31,100.0
558.37,107.0
558.43,111.0
558.49,95.0
558.56,106.0
558.62,89.0
558.68,108.0
558.75,110.0
558.81,112.0
558.87,105.0
558.94,87.0
559.0,104.0
559.06,102.0
559.12,95.0
559.19,92.0
559.25,99.0
559.31,122.0
559.38,93.0
559.44,85.0
559.5,82.0
559.57,81.0
559.63,70.0
559.69,77.0
559.75,82.0
559.82,71.0
559.88,74.0
559.94,57.0
560.01,57.0
560.07,51.0
560.13,59.0
560.2,68.0
560.26,60.0
560.32,54.0
560.38,59.0
560.45,43.0
560.51,27.0
560.57,24.0
560.64,12.0
560.7,14.0
560.76,15.0
560.83,27.0
560.89,33.0
560.95,14.0
561.01,16.0
561.08,22.0
561.14,13.0
561.2,6.0
561.27,-3.0
561.33,32.0
561.39,28.0
561.46,12.0
561.52,24.0
561.58,26.0
561.64,22.0
561.71,24.0
561.77,29.0
561.83,45.0
561.9,50.0
561.96,49.0
562.02,43.0
562.09,58.0
562.15,73.0
562.21,66.0
562.27,67.0
562.34,77.0
562.4,74.0
562.46,67.0
562.53,58.0
562.59,64.0
562.65,74.0
562.72,55.0
562.78,65.0
562.84,69.0
562.9,77.0
562.97,93.0
563.03,55.0
563.09,70.0
563.16,76.0
563.22,61.0
563.28,66.0
563.35,68.0
563.41,81.0
563.47,59.0
563.53,71.0
563.6,83.0
563.66,86.0
563.72,74.0
563.79,68.0
563.85,76.0
563.91,98.0
563.98,72.0
564.04,67.0
564.1,94.0
564.16,86.0
564.23,99.0
564.29,92.0
564.35,90.0
564.42,104.0
564.48,86.0
564.54,92.0
564.61,98.0
564.67,110.0
564.73,110.0
564.79,89.0
564.86,81.0
564.92,72.0
564.98,88.0
565.05,84.0
565.11,81.0
565.17,70.0
565.24,77.0
565.3,78.0
565.36,72.0
565.42,97.0
565.49,87.0
565.55,85.0
565.61,91.0
565.68,104.0
565.74,88.0
565.8,89.0
565.87,96.0
565.93,103.0
565.99,88.0
566.05,84.0
566.12,77.0
566.18,93.0
566.24,96.0
566.31,86.0
566.37,93.0
566.43,74.0
566.5,78.0
566.56,79.0
566.62,70.0
566.68,84.0
566.75,91.0
566.81,88.0
566.87,81.0
566.94,94.0
567.0,68.0
567.06,64.0
567.13,70.0
567.19,56.0
567.25,81.0
567.31,52.0
567.38,57.0
567.44,48.0
567.5,70.0
567.57,62.0
567.63,59.0
567.69,71.0
567.76,77.0
567.82,71.0
567.88,70.0
567.94,65.0
568.01,68.0
568.07,52.0
568.13,53.0
568.2,50.0
568.26,65.0
568.32,63.0
568.39,50.0
568.45,65.0
568.51,72.0
568.57,61.0
568.64,80.0
568.7,88.0
568.76,91.0
568.83,95.0
568.89,81.0
568.95,87.0
569.02,78.0
569.08,81.0
569.14,84.0
569.2,74.0
569.27,82.0
569.33,87.0
569.39,103.0
569.46,86.0
569.52,86.0
569.58,89.0
569.65,75.0
569.71,66.0
569.77,53.0
569.83,60.0
569.9,88.0
569.96,85.0
570.02,103.0
570.09,75.0
570.15,96.0
570.21,99.0
570.28,105.0
570.34,101.0
570.4,78.0
570.46,106.0
570.53,112.0
570.59,109.0
570.65,99.0
570.72,96.0
570.78,110.0
570.84,113.0
570.91,100.0
570.97,108.0
571.03,117.0
571.09,114.0
571.16,97.0
571.22,100.0
571.28,122.0
571.35,117.0
571.41,112.0
571.47,116.0
571.54,107.0
571.6,114.0
571.66,109.0
571.72,125.0
571.79,122.0
571.85,146.0
571.91,139.0
571.98,130.0
572.04,139.0
572.1,137.0
572.17,145.0
572.23,127.0
572.29,140.0
572.35,147.0
572.42,158.0
572.48,167.0
572.54,169.0
572.61,164.0
572.67,177.0
572.73,191.0
572.8,186.0
572.86,187.0
572.92,173.0
572.98,184.0
573.05,179.0
573.11,193.0
573.17,196.0
573.24,193.0
573.3,189.0
573.36,191.0
573.43,196.0
573.49,196.0
573.55,193.0
573.61,217.0
573.68,197.0
573.74,208.0
573.8,211.0
573.87,206.0
573.93,205.0
573.99,210.0
574.06,221.0
574.12,225.0
574.18,243.0
574.24,225.0
574.31,222.0
574.37,206.0
574.43,219.0
574.5,214.0
574.56,217.0
574.62,238.0
574.69,211.0
574.75,206.0
574.81,211.0
574.87,213.0
574.94,220.0
575.0,208.0
575.06,203.0
575.13,203.0
575.19,216.0
575.25,203.0
575.32,195.0
575.38,212.0
575.44,200.0
575.5,189.0
575.57,196.0
575.63,221.0
575.69,210.0
575.76,196.0
575.82,195.0
575.88,192.0
575.95,188.0
576.01,184.0
576.07,153.0
576.13,151.0
576.2,155.0
576.26,135.0
576.32,136.0
576.39,135.0
576.45,142.0
576.51,133.0
576.58,141.0
576.64,139.0
576.7,132.0
576.76,138.0
576.83,147.0
576.89,159.0
576.95,140.0
577.02,137.0
577.08,139.0
577.14,142.0
577.21,153.0
577.27,151.0
577.33,145.0
577.39,151.0
577.46,134.0
577.52,132.0
577.58,156.0
577.65,145.0
577.71,141.0
577.77,158.0
577.84,143.0
577.9,132.0
577.96,153.0
578.02,129.0
578.09,140.0
578.15,137.0
578.21,114.0
578.28,121.0
578.34,125.0
578.4,126.0
578.47,125.0
578.53,135.0
578.59,123.0
578.65,108.0
578.72,106.0
578.78,129.0
578.84,116.0
578.91,103.0
578.97,105.0
579.03,101.0
579.1,108.0
579.16,114.0
579.22,96.0
579.28,84.0
579.35,98.0
579.41,95.0
579.47,92.0
579.54,87.0
579.6,106.0
579.66,110.0
579.73,95.0
579.79,88.0
579.85,100.0
579.91,85.0
579.98,92.0
580.04,92.0
580.1,111.0
580.17,93.0
580.23,100.0
580.29,94.0
580.36,99.0
580.42,118.0
580.48,100.0
580.54,99.0
580.61,114.0
580.67,126.0
580.73,108.0
580.8,104.0
580.86,101.0
580.92,98.0
580.99,93.0
581.05,92.0
581.11,103.0
581.17,107.0
581.24,104.0
581.3,100.0
581.36,119.0
581.43,85.0
581.49,89.0
581.55,82.0
581.62,86.0
581.68,90.0
581.74,87.0
581.8,93.0
581.87,89.0
581.93,96.0
581.99,86.0
582.06,95.0
582.12,96.0
582.18,110.0
582.25,117.0
582.31,108.0
582.37,124.0
582.43,106.0
582.5,120.0
582.56,129.0
582.62,118.0
582.69,108.0
582.75,100.0
582.81,96.0
582.88,91.0
582.94,79.0
583.0,89.0
583.06,112.0
583.13,107.0
583.19,112.0
583.25,83.0
583.32,79.0
583.38,99.0
583.44,66.0
583.51,66.0
583.57,63.0
583.63,85.0
583.69,89.0
583.76,71.0
583.82,79.0
583.88,74.0
583.95,82.0
584.01,71.0
584.07,96.0
584.14,89.0
584.2,91.0
584.26,86.0
584.32,78.0
584.39,74.0
584.45,62.0
584.51,71.0
584.58,59.0
584.64,65.0
584.7,65.0
584.77,38.0
584.83,51.0
584.89,24.0
584.95,43.0
585.02,55.0
585.08,53.0
585.14,78.0
585.21,52.0
585.27,52.0
585.33,49.0
585.4,50.0
585.46,56.0
585.52,49.0
585.58,35.0
585.65,29.0
585.71,43.0
585.77,42.0
585.84,25.0
585.9,28.0
585.96,36.0
586.03,35.0
586.09,41.0
586.15,39.0
586.21,47.0
586.28,57.0
586.34,55.0
586.4,54.0
586.47,47.0
586.53,59.0
586.59,62.0
586.66,63.0
586.72,81.0
586.78,85.0
586.84,86.0
586.91,61.0
586.97,57.0
587.03,75.0
587.1,74.0
587.16,77.0
587.22,62.0
587.29,71.0
587.35,100.0
587.41,92.0
587.47,96.0
587.54,92.0
587.6,78.0
587.66,89.0
587.73,92.0
587.79,107.0
587.85,121.0
587.92,114.0
587.98,114.0
588.04,107.0
588.1,103.0
588.17,100.0
588.23,117.0
588.29,109.0
588.36,96.0
588.42,128.0
588.48,117.0
588.55,129.0
588.61,121.0
588.67,109.0
588.73,108.0
588.8,102.0
588.86,112.0
588.92,132.0
588.99,121.0
589.05,110.0
589.11,107.0
589.18,106.0
589.24,103.0
589.3,85.0
589.36,104.0
589.43,115.0
589.49,126.0
589.55,122.0
589.62,81.0
589.68,107.0
589.74,98.0
589.81,85.0
589.87,105.0
589.93,88.0
589.99,81.0
590.06,78.0
590.12,69.0
590.18,87.0
590.25,88.0
590.31,96.0
590.37,103.0
590.44,86.0
590.5,95.0
590.56,105.0
590.62,114.0
590.69,109.0
590.75,104.0
590.81,115.0
590.88,111.0
590.94,124.0
591.0,106.0
591.07,104.0
591.13,98.0
591.19,109.0
591.25,113.0
591.32,118.0
591.38,121.0
591.44,114.0
591.51,115.0
591.57,109.0
591.63,118.0
591.7,105.0
591.76,117.0
591.82,111.0
591.88,91.0
591.95,93.0
592.01,109.0
592.07,108.0
592.14,107.0
592.2,115.0
592.26,107.0
592.33,117.0
592.39,107.0
592.45,118.0
592.51,108.0
592.58,114.0
592.64,125.0
592.7,115.0
592.77,131.0
592.83,117.0
592.89,111.0
592.96,123.0
593.02,107.0
593.08,106.0
593.14,123.0
593.21,117.0
593.27,98.0
593.33,104.0
593.4,107.0
593.46,103.0
593.52,102.0
593.59,96.0
593.65,100.0
593.71,114.0
593.77,113.0
593.84,111.0
593.9,120.0
593.96,106.0
594.03,113.0
594.09,110.0
594.15,107.0
594.22,109.0
594.28,98.0
594.34,112.0
594.4,134.0
594.47,113.0
594.53,98.0
594.59,114.0
594.66,110.0
594.72,92.0
594.78,115.0
594.85,134.0
594.91,124.0
594.97,120.0
595.03,142.0
595.1,144.0
595.16,152.0
595.22,144.0
595.29,136.0
595.35,148.0
595.41,135.0
595.48,129.0
595.54,144.0
595.6,129.0
595.66,119.0
595.73,122.0
595.79,133.0
595.85,129.0
595.92,112.0
595.98,131.0
596.04,133.0
596.11,129.0
596.17,136.0
596.23,128.0
596.29,134.0
596.36,132.0
596.42,111.0
596.48,128.0
596.55,135.0
596.61,136.0
596.67,128.0
596.74,141.0
596.8,126.0
596.86,123.0
596.92,123.0
596.99,117.0
597.05,100.0
597.11,116.0
597.18,107.0
597.24,123.0
597.3,126.0
597.37,129.0
597.43,119.0
597.49,114.0
597.55,102.0
597.62,117.0
597.68,113.0
597.74,96.0
597.81,94.0
597.87,73.0
597.93,84.0
598.0,93.0
598.06,100.0
598.12,122.0
598.18,115.0
598.25,111.0
598.31,96.0
598.37,99.0
598.44,107.0
598.5,112.0
598.56,124.0
598.63,121.0
598.69,110.0
598.75,113.0
598.81,128.0
598.88,139.0
598.94,111.0
599.0,101.0
599.07,104.0
599.13,103.0
599.19,77.0
599.26,66.0
599.32,63.0
599.38,76.0
599.44,63.0
599.51,77.0
599.57,76.0
599.63,89.0
599.7,86.0
599.76,82.0
599.82,96.0
599.89,71.0
599.95,92.0
600.01,65.0
600.07,69.0
600.14,85.0
600.2,73.0
600.26,80.0
600.33,83.0
600.39,86.0
600.45,91.0
600.52,84.0
600.58,86.0
600.64,82.0
600.7,85.0
600.77,82.0
600.83,88.0
600.89,77.0
600.96,98.0
601.02,82.0
601.08,79.0
601.15,79.0
601.21,65.0
601.27,53.0
601.33,70.0
601.4,67.0
601.46,76.0
601.52,93.0
601.59,85.0
601.65,80.0
601.71,82.0
601.78,71.0
601.84,90.0
601.9,85.0
601.96,87.0
602.03,88.0
602.09,95.0
602.15,93.0
602.22,78.0
602.28,96.0
602.34,96.0
602.41,76.0
602.47,71.0
602.53,80.0
602.59,71.0
602.66,80.0
602.72,60.0
602.78,61.0
602.85,74.0
602.91,76.0
602.97,83.0
603.04,85.0
603.1,101.0
603.16,99.0
603.22,91.0
603.29,87.0
603.35,92.0
603.41,90.0
603.48,84.0
603.54,81.0
603.6,76.0
603.67,77.0
603.73,74.0
603.79,64.0
603.85,79.0
603.92,71.0
603.98,81.0
604.04,78.0
604.11,88.0
604.17,67.0
604.23,74.0
604.3,75.0
604.36,76.0
604.42,68.0
604.48,76.0
604.55,77.0
604.61,65.0
604.67,63.0
604.74,74.0
604.8,70.0
604.86,82.0
604.93,65.0
604.99,59.0
605.05,56.0
605.11,63.0
605.18,48.0
605.24,52.0
605.3,54.0
605.37,70.0
605.43,74.0
605.49,55.0
605.56,81.0
605.62,57.0
605.68,55.0
605.74,57.0
605.81,58.0
605.87,35.0
605.93,23.0
606.0,27.0
606.06,14.0
606.12,27.0
606.19,34.0
606.25,33.0
606.31,43.0
606.37,45.0
606.44,53.0
606.5,36.0
606.56,50.0
606.63,56.0
606.69,40.0
606.75,52.0
606.82,44.0
606.88,46.0
606.94,53.0
607.0,39.0
607.07,55.0
607.13,62.0
607.19,62.0
607.26,75.0
607.32,58.0
607.38,65.0
607.45,79.0
607.51,50.0
607.57,41.0
607.63,59.0
607.7,57.0
607.76,40.0
607.82,56.0
607.89,71.0
607.95,55.0
608.01,54.0
608.08,59.0
608.14,62.0
608.2,61.0
608.26,49.0
608.33,75.0
608.39,63.0
608.45,60.0
608.52,57.0
608.58,74.0
608.64,74.0
608.71,77.0
608.77,73.0
608.83,84.0
608.89,105.0
608.96,110.0
609.02,102.0
609.08,76.0
609.15,76.0
609.21,61.0
609.27,56.0
609.34,55.0
609.4,63.0
609.46,65.0
609.52,49.0
609.59,32.0
609.65,50.0
609.71,58.0
609.78,48.0
609.84,47.0
609.9,59.0
609.97,69.0
610.03,37.0
610.09,37.0
610.15,50.0
610.22,60.0
610.28,41.0
610.34,36.0
610.41,23.0
610.47,44.0
610.53,33.0
610.6,38.0
610.66,37.0
610.72,34.0
610.78,21.0
610.85,1.0
610.91,2.0
610.97,-3.0
611.04,15.0
611.1,4.0
611.16,13.0
611.23,28.0
611.29,7.0
611.35,19.0
611.41,37.0
611.48,22.0
611.54,27.0
611.6,31.0
611.67,13.0
611.73,15.0
611.79,41.0
611.86,57.0
611.92,32.0
611.98,30.0
612.04,62.0
612.11,38.0
612.17,19.0
612.23,17.0
612.3,20.0
612.36,16.0
612.42,9.0
612.49,16.0
612.55,7.0
612.61,-3.0
612.67,16.0
612.74,24.0
612.8,10.0
612.86,18.0
612.93,17.0
612.99,15.0
613.05,20.0
613.12,35.0
613.18,17.0
613.24,20.0
613.3,49.0
613.37,38.0
613.43,46.0
613.49,47.0
613.56,47.0
613.62,35.0
613.68,32.0
613.75,42.0
613.81,32.0
613.87,47.0
613.93,35.0
614.0,32.0
614.06,40.0
614.12,50.0
614.19,54.0
614.25,44.0
614.31,28.0
614.38,50.0
614.44,55.0
614.5,53.0
614.56,60.0
614.63,49.0
614.69,55.0
614.75,46.0
614.82,24.0
614.88,38.0
614.94,21.0
615.01,27.0
615.07,27.0
615.13,29.0
615.19,37.0
615.26,40.0
615.32,39.0
615.38,24.0
615.45,36.0
615.51,60.0
615.57,50.0
615.64,67.0
615.7,65.0
615.76,61.0
615.82,56.0
615.89,40.0
615.95,62.0
616.01,54.0
616.08,57.0
616.14,88.0
616.2,73.0
616.27,73.0
616.33,59.0
616.39,58.0
616.45,80.0
616.52,74.0
616.58,72.0
616.64,95.0
616.71,98.0
616.77,96.0
616.83,86.0
616.9,103.0
616.96,85.0
617.02,96.0
617.08,85.0
617.15,72.0
617.21,72.0
617.27,74.0
617.34,84.0
617.4,61.0
617.46,59.0
617.53,80.0
617.59,85.0
617.65,71.0
617.71,77.0
617.78,83.0
617.84,83.0
617.9,93.0
617.97,101.0
618.03,90.0
618.09,93.0
618.16,101.0
618.22,113.0
618.28,101.0
618.34,101.0
618.41,123.0
618.47,113.0
618.53,100.0
618.6,88.0
618.66,98.0
618.72,102.0
618.79,102.0
618.85,103.0
618.91,115.0
618.97,131.0
619.04,136.0
619.1,145.0
619.16,125.0
619.23,119.0
619.29,131.0
619.35,135.0
619.42,139.0
619.48,126.0
619.54,126.0
619.6,126.0
619.67,128.0
619.73,101.0
619.79,93.0
619.86,99.0
619.92,104.0
619.98,94.0
620.05,100.0
620.11,109.0
620.17,107.0
620.23,121.0
620.3,113.0
620.36,126.0
620.42,134.0
620.49,128.0
620.55,121.0
620.61,121.0
620.68,120.0
620.74,106.0
620.8,114.0
620.86,118.0
620.93,113.0
620.99,123.0
621.05,132.0
621.12,116.0
621.18,112.0
621.24,124.0
621.31,120.0
621.37,103.0
621.43,109.0
621.49,137.0
621.56,142.0
621.62,129.0
621.68,122.0
621.75,107.0
621.81,124.0
621.87,135.0
621.94,135.0
622.0,145.0
622.06,135.0
622.12,127.0
622.19,132.0
622.25,127.0
622.31,141.0
622.38,149.0
622.44,135.0
622.5,140.0
622.57,153.0
622.63,161.0
622.69,154.0
622.75,137.0
622.82,152.0
622.88,161.0
622.94,145.0
623.01,171.0
623.07,155.0
623.13,173.0
623.2,186.0
623.26,165.0
623.32,180.0
623.38,156.0
623.45,167.0
623.51,161.0
623.57,184.0
623.64,171.0
623.7,175.0
623.76,173.0
623.83,182.0
623.89,182.0
623.95,179.0
624.01,188.0
624.08,168.0
624.14,206.0
624.2,203.0
624.27,195.0
624.33,191.0
624.39,184.0
624.46,192.0
624.52,187.0
624.58,180.0
624.64,158.0
624.71,168.0
624.77,151.0
624.83,189.0
624.9,189.0
624.96,201.0
625.02,207.0
625.09,188.0
625.15,209.0
625.21,225.0
625.27,182.0
625.34,195.0
625.4,194.0
625.46,199.0
625.53,207.0
625.59,219.0
625.65,214.0
625.72,182.0
625.78,197.0
625.84,200.0
625.9,195.0
625.97,182.0
626.03,182.0
626.09,179.0
626.16,184.0
626.22,188.0
626.28,188.0
626.35,182.0
626.41,173.0
626.47,183.0
626.53,179.0
626.6,186.0
626.66,176.0
626.72,169.0
626.79,143.0
626.85,165.0
626.91,164.0
626.98,165.0
627.04,176.0
627.1,157.0
627.16,155.0
627.23,120.0
627.29,157.0
627.35,134.0
627.42,161.0
627.48,162.0
627.54,118.0
627.61,133.0
627.67,117.0
627.73,121.0
627.79,109.0
627.86,88.0
627.92,88.0
627.98,107.0
628.05,106.0
628.11,98.0
628.17,87.0
628.24,93.0
628.3,84.0
628.36,83.0
628.42,82.0
628.49,83.0
628.55,92.0
628.61,104.0
628.68,100.0
628.74,86.0
628.8,95.0
628.87,91.0
628.93,92.0
628.99,107.0
629.05,113.0
629.12,104.0
629.18,105.0
629.24,104.0
629.31,91.0
629.37,93.0
629.43,77.0
629.5,83.0
629.56,112.0
629.62,103.0
629.68,101.0
629.75,114.0
629.81,122.0
629.87,106.0
629.94,87.0
630.0,108.0
630.06,102.0
630.13,91.0
630.19,117.0
630.25,124.0
630.31,130.0
630.38,115.0
630.44,70.0
630.5,128.0
630.57,116.0
630.63,111.0
630.69,104.0
630.76,101.0
630.82,89.0
630.88,84.0
630.94,102.0
631.01,65.0
631.07,84.0
631.13,90.0
631.2,59.0
631.26,80.0
631.32,74.0
631.39,74.0
631.45,101.0
631.51,98.0
631.57,94.0
631.64,96.0
631.7,96.0
631.76,88.0
631.83,84.0
631.89,101.0
631.95,84.0
632.02,77.0
632.08,86.0
632.14,77.0
632.2,69.0
632.27,85.0
632.33,83.0
632.39,64.0
632.46,65.0
632.52,66.0
632.58,86.0
632.65,76.0
632.71,63.0
632.77,53.0
632.83,87.0
632.9,86.0
632.96,65.0
633.02,89.0
633.09,101.0
633.15,93.0
633.21,76.0
633.28,89.0
633.34,81.0
633.4,70.0
633.46,78.0
633.53,73.0
633.59,75.0
633.65,78.0
633.72,84.0
633.78,94.0
633.84,101.0
633.91,77.0
633.97,89.0
634.03,87.0
634.09,86.0
634.16,85.0
634.22,88.0
634.28,102.0
634.35,96.0
634.41,95.0
634.47,102.0
634.54,118.0
634.6,98.0
634.66,109.0
634.72,103.0
634.79,119.0
634.85,91.0
634.91,87.0
634.98,85.0
635.04,76.0
635.1,74.0
635.17,82.0
635.23,80.0
635.29,61.0
635.35,83.0
635.42,71.0
635.48,63.0
635.54,79.0
635.61,69.0
635.67,107.0
635.73,94.0
635.8,98.0
635.86,79.0
635.92,88.0
635.98,115.0
636.05,103.0
636.11,86.0
636.17,104.0
636.24,108.0
636.3,108.0
636.36,118.0
636.43,118.0
636.49,110.0
636.55,109.0
636.61,109.0
636.68,104.0
636.74,114.0
636.8,123.0
636.87,122.0
636.93,100.0
636.99,89.0
637.06,95.0
637.12,107.0
637.18,116.0
637.24,97.0
637.31,75.0
637.37,84.0
637.43,87.0
637.5,91.0
637.56,80.0
637.62,94.0
637.69,121.0
637.75,100.0
637.81,96.0
637.87,91.0
637.94,99.0
638.0,109.0
638.06,96.0
638.13,104.0
638.19,103.0
638.25,105.0
638.32,107.0
638.38,105.0
638.44,98.0
638.5,114.0
638.57,119.0
638.63,114.0
638.69,129.0
638.76,121.0
638.82,133.0
638.88,119.0
638.95,126.0
639.01,135.0
639.07,125.0
639.13,117.0
639.2,114.0
639.26,129.0
639.32,138.0
639.39,161.0
639.45,152.0
639.51,134.0
639.58,137.0
639.64,139.0
639.7,154.0
639.76,135.0
639.83,136.0
639.89,139.0
639.95,140.0
640.02,153.0
640.08,140.0
640.14,154.0
640.21,154.0
640.27,157.0
640.33,176.0
640.39,159.0
640.46,165.0
640.52,166.0
640.58,201.0
640.65,193.0
640.71,184.0
640.77,173.0
640.84,168.0
640.9,163.0
640.96,170.0
641.02,170.0
641.09,168.0
641.15,173.0
641.21,193.0
641.28,193.0
641.34,173.0
641.4,170.0
641.47,185.0
641.53,168.0
641.59,160.0
641.65,186.0
641.72,196.0
641.78,179.0
641.84,170.0
641.91,161.0
641.97,157.0
642.03,150.0
642.1,141.0
642.16,146.0
642.22,159.0
642.28,160.0
642.35,120.0
642.41,127.0
642.47,136.0
642.54,138.0
642.6,137.0
642.66,128.0
642.73,116.0
642.79,101.0
642.85,96.0
642.91,122.0
642.98,113.0
643.04,98.0
643.1,113.0
643.17,117.0
643.23,132.0
643.29,94.0
643.36,89.0
643.42,112.0
643.48,96.0
643.54,98.0
643.61,98.0
643.67,86.0
643.73,90.0
643.8,78.0
643.86,83.0
643.92,90.0
643.99,80.0
644.05,93.0
644.11,93.0
644.17,99.0
644.24,94.0
644.3,92.0
644.36,104.0
644.43,85.0
644.49,74.0
644.55,96.0
644.62,98.0
644.68,94.0
644.74,89.0
644.8,96.0
644.87,95.0
644.93,69.0
644.99,55.0
645.06,48.0
645.12,44.0
645.18,46.0
645.25,48.0
645.31,57.0
645.37,62.0
645.43,56.0
645.5,61.0
645.56,58.0
645.62,43.0
645.69,58.0
645.75,50.0
645.81,55.0
645.88,55.0
645.94,55.0
646.0,60.0
646.06,66.0
646.13,58.0
646.19,38.0
646.25,51.0
646.32,47.0
646.38,66.0
646.44,79.0
646.51,63.0
646.57,61.0
646.63,71.0
646.69,73.0
646.76,93.0
646.82,87.0
646.88,86.0
646.95,79.0
647.01,71.0
647.07,83.0
647.14,81.0
647.2,83.0
647.26,88.0
647.32,82.0
647.39,89.0
647.45,101.0
647.51,91.0
647.58,94.0
647.64,87.0
647.7,84.0
647.77,90.0
647.83,98.0
647.89,107.0
647.95,109.0
648.02,114.0
648.08,101.0
648.14,124.0
648.21,105.0
648.27,124.0
648.33,104.0
648.4,127.0
648.46,112.0
648.52,109.0
648.58,112.0
648.65,122.0
648.71,117.0
648.77,113.0
648.84,112.0
648.9,100.0
648.96,98.0
649.03,100.0
649.09,112.0
649.15,80.0
649.21,115.0
649.28,125.0
649.34,107.0
649.4,94.0
649.47,103.0
649.53,83.0
649.59,85.0
649.66,87.0
649.72,99.0
649.78,83.0
649.84,80.0
649.91,106.0
649.97,102.0
650.03,96.0
650.1,93.0
650.16,113.0
650.22,85.0
650.29,68.0
650.35,87.0
650.41,104.0
650.47,104.0
650.54,99.0
650.6,112.0
650.66,110.0
650.73,118.0
650.79,124.0
650.85,117.0
650.92,126.0
650.98,126.0
651.04,131.0
651.1,126.0
651.17,134.0
651.23,132.0
651.29,109.0
651.36,137.0
651.42,116.0
651.48,122.0
651.55,121.0
651.61,118.0
651.67,124.0
651.73,140.0
651.8,146.0
651.86,124.0
651.92,131.0
651.99,117.0
652.05,107.0
652.11,119.0
652.18,132.0
652.24,126.0
652.3,115.0
652.36,137.0
652.43,129.0
652.49,117.0
652.55,119.0
652.62,115.0
652.68,122.0
652.74,112.0
652.81,120.0
652.87,134.0
652.93,112.0
652.99,96.0
653.06,111.0
653.12,120.0
653.18,131.0
653.25,143.0
653.31,146.0
653.37,118.0
653.44,121.0
653.5,107.0
653.56,100.0
653.62,115.0
653.69,105.0
653.75,108.0
653.81,109.0
653.88,115.0
653.94,121.0
654.0,120.0
654.07,123.0
654.13,105.0
654.19,105.0
654.25,129.0
654.32,147.0
654.38,127.0
654.44,120.0
654.51,135.0
654.57,131.0
654.63,128.0
654.7,116.0
654.76,121.0
654.82,120.0
654.88,126.0
654.95,131.0
655.01,133.0
655.07,138.0
655.14,139.0
655.2,138.0
655.26,156.0
655.33,143.0
655.39,145.0
655.45,129.0
655.51,148.0
655.58,151.0
655.64,143.0
655.7,146.0
655.77,128.0
655.83,113.0
655.89,134.0
655.96,134.0
656.02,117.0
656.08,129.0
656.14,135.0
656.21,139.0
656.27,116.0
656.33,110.0
656.4,124.0
656.46,116.0
656.52,122.0
656.59,130.0
656.65,119.0
656.71,137.0
656.77,141.0
656.84,123.0
656.9,138.0
656.96,133.0
657.03,135.0
657.09,140.0
657.15,134.0
657.22,139.0
657.28,131.0
657.34,147.0
657.4,120.0
657.47,124.0
657.53,156.0
657.59,133.0
657.66,132.0
657.72,157.0
657.78,156.0
657.85,142.0
657.91,135.0
657.97,124.0
658.03,125.0
658.1,137.0
658.16,142.0
658.22,147.0
658.29,149.0
658.35,131.0
658.41,148.0
658.48,135.0
658.54,129.0
658.6,146.0
658.66,140.0
658.73,153.0
658.79,145.0
658.85,143.0
658.92,168.0
658.98,155.0
659.04,150.0
659.11,139.0
659.17,135.0
659.23,160.0
659.29,151.0
659.36,132.0
659.42,135.0
659.48,117.0
659.55,124.0
659.61,120.0
659.67,128.0
659.74,129.0
659.8,120.0
659.86,117.0
659.92,119.0
659.99,115.0
660.05,112.0
660.11,93.0
660.18,80.0
660.24,90.0
660.3,94.0
660.37,77.0
660.43,69.0
660.49,68.0
660.55,62.0
660.62,58.0
660.68,55.0
660.74,80.0
660.81,68.0
660.87,69.0
660.93,57.0
661.0,62.0
661.06,64.0
661.12,54.0
661.18,71.0
661.25,59.0
661.31,66.0
661.37,47.0
661.44,69.0
661.5,62.0
661.56,58.0
661.63,41.0
661.69,53.0
661.75,73.0
661.81,92.0
661.88,87.0
661.94,77.0
662.0,63.0
662.07,87.0
662.13,85.0
662.19,73.0
662.26,79.0
662.32,72.0
662.38,69.0
662.44,55.0
662.51,47.0
662.57,55.0
662.63,74.0
662.7,62.0
662.76,57.0
662.82,39.0
662.89,61.0
662.95,35.0
663.01,51.0
663.07,60.0
663.14,77.0
663.2,68.0
663.26,41.0
663.33,57.0
663.39,63.0
663.45,65.0
663.52,43.0
663.58,41.0
663.64,64.0
663.7,58.0
663.77,48.0
663.83,64.0
663.89,66.0
663.96,66.0
664.02,45.0
664.08,47.0
664.15,58.0
664.21,36.0
664.27,50.0
664.33,33.0
664.4,39.0
664.46,40.0
664.52,60.0
664.59,51.0
664.65,64.0
664.71,61.0
664.78,41.0
664.84,33.0
664.9,59.0
664.96,46.0
665.03,45.0
665.09,66.0
665.15,49.0
665.22,46.0
665.28,56.0
665.34,62.0
665.41,85.0
665.47,93.0
665.53,66.0
665.59,71.0
665.66,79.0
665.72,67.0
665.78,68.0
665.85,54.0
665.91,56.0
665.97,57.0
666.04,54.0
666.1,49.0
666.16,49.0
666.22,72.0
666.29,63.0
666.35,62.0
666.41,54.0
666.48,51.0
666.54,43.0
666.6,40.0
666.67,55.0
666.73,39.0
666.79,52.0
666.85,53.0
666.92,42.0
666.98,41.0
667.04,41.0
667.11,56.0
667.17,60.0
667.23,48.0
667.3,46.0
667.36,52.0
667.42,54.0
667.48,62.0
667.55,32.0
667.61,44.0
667.67,45.0
667.74,28.0
667.8,25.0
667.86,28.0
667.93,32.0
667.99,47.0
668.05,47.0
668.11,45.0
668.18,38.0
668.24,45.0
668.3,38.0
668.37,23.0
668.43,32.0
668.49,57.0
668.56,40.0
668.62,43.0
668.68,34.0
668.74,45.0
668.81,12.0
668.87,21.0
668.93,52.0
669.0,35.0
669.06,49.0
669.12,48.0
669.19,37.0
669.25,32.0
669.31,49.0
669.37,66.0
669.44,60.0
669.5,56.0
669.56,51.0
669.63,45.0
669.69,45.0
669.75,53.0
669.82,71.0
669.88,82.0
669.94,80.0
670.0,66.0
670.07,75.0
670.13,96.0
670.19,87.0
670.26,77.0
670.32,77.0
670.38,73.0
670.45,72.0
670.51,55.0
670.57,60.0
670.63,52.0
670.7,47.0
670.76,58.0
670.82,47.0
670.89,54.0
670.95,61.0
671.01,51.0
671.08,47.0
671.14,43.0
671.2,48.0
671.26,32.0
671.33,30.0
671.39,25.0
671.45,49.0
671.52,69.0
671.58,52.0
671.64,66.0
671.71,63.0
671.77,55.0
671.83,68.0
671.89,61.0
671.96,57.0
672.02,66.0
672.08,65.0
672.15,59.0
672.21,51.0
672.27,54.0
672.34,55.0
672.4,48.0
672.46,57.0
672.52,78.0
672.59,87.0
672.65,75.0
672.71,64.0
672.78,84.0
672.84,77.0
672.9,88.0
672.97,76.0
673.03,87.0
673.09,83.0
673.15,66.0
673.22,72.0
673.28,65.0
673.34,66.0
673.41,79.0
673.47,77.0
673.53,90.0
673.6,104.0
673.66,79.0
673.72,54.0
673.78,65.0
673.85,64.0
673.91,84.0
673.97,88.0
674.04,74.0
674.1,87.0
674.16,93.0
674.23,105.0
674.29,70.0
674.35,104.0
674.41,112.0
674.48,104.0
674.54,105.0
674.6,117.0
674.67,123.0
674.73,114.0
674.79,118.0
674.86,121.0
674.92,109.0
674.98,108.0
675.04,126.0
675.11,128.0
675.17,115.0
675.23,138.0
675.3,119.0
675.36,143.0
675.42,147.0
675.49,152.0
675.55,142.0
675.61,154.0
675.67,171.0
675.74,140.0
675.8,153.0
675.86,140.0
675.93,132.0
675.99,160.0
676.05,153.0
676.12,143.0
676.18,135.0
676.24,139.0
676.3,149.0
676.37,131.0
676.43,138.0
676.49,132.0
676.56,122.0
676.62,127.0
676.68,111.0
676.75,113.0
676.81,124.0
676.87,131.0
676.93,141.0
677.0,147.0
677.06,137.0
677.12,130.0
677.19,130.0
677.25,145.0
677.31,144.0
677.38,122.0
677.44,118.0
677.5,131.0
677.56,138.0
677.63,128.0
677.69,118.0
677.75,101.0
677.82,111.0
677.88,105.0
677.94,106.0
678.01,106.0
678.07,129.0
678.13,114.0
678.19,127.0
678.26,127.0
678.32,110.0
678.38,119.0
678.45,135.0
678.51,109.0
678.57,113.0
678.64,130.0
678.7,109.0
678.76,106.0
678.82,115.0
678.89,131.0
678.95,120.0
679.01,118.0
679.08,120.0
679.14,115.0
679.2,117.0
679.27,121.0
679.33,123.0
679.39,135.0
679.45,127.0
679.52,117.0
679.58,105.0
679.64,110.0
679.71,106.0
679.77,114.0
679.83,113.0
679.9,115.0
679.96,128.0
680.02,109.0
680.08,122.0
680.15,120.0
680.21,114.0
680.27,136.0
680.34,147.0
680.4,145.0
680.46,131.0
680.53,142.0
680.59,135.0
680.65,154.0
680.71,161.0
680.78,173.0
680.84,157.0
680.9,160.0
680.97,149.0
681.03,155.0
681.09,168.0
681.16,152.0
681.22,143.0
681.28,156.0
681.34,138.0
681.41,135.0
681.47,128.0
681.53,140.0
681.6,144.0
681.66,118.0
681.72,115.0
681.79,114.0
681.85,128.0
681.91,128.0
681.97,119.0
682.04,127.0
682.1,127.0
682.16,119.0
682.23,125.0
682.29,129.0
682.35,134.0
682.42,121.0
682.48,123.0
682.54,148.0
682.6,150.0
682.67,141.0
682.73,134.0
682.79,127.0
682.86,125.0
682.92,125.0
682.98,127.0
683.05,140.0
683.11,115.0
683.17,118.0
683.23,133.0
683.3,124.0
683.36,141.0
683.42,159.0
683.49,149.0
683.55,154.0
683.61,134.0
683.68,124.0
683.74,142.0
683.8,121.0
683.86,127.0
683.93,150.0
683.99,134.0
684.05,145.0
684.12,132.0
684.18,134.0
684.24,143.0
684.31,118.0
684.37,123.0
684.43,135.0
684.49,133.0
684.56,126.0
684.62,143.0
684.68,149.0
684.75,135.0
684.81,134.0
684.87,142.0
684.94,141.0
685.0,120.0
685.06,120.0
685.12,132.0
685.19,140.0
685.25,127.0
685.31,111.0
685.38,120.0
685.44,135.0
685.5,149.0
685.57,148.0
685.63,134.0
685.69,135.0
685.75,117.0
685.82,118.0
685.88,109.0
685.94,128.0
686.01,131.0
686.07,129.0
686.13,123.0
686.2,109.0
686.26,113.0
686.32,116.0
686.38,123.0
686.45,131.0
686.51,130.0
686.57,135.0
686.64,109.0
686.7,138.0
686.76,143.0
686.83,145.0
686.89,139.0
686.95,147.0
687.01,160.0
687.08,121.0
687.14,135.0
687.2,138.0
687.27,140.0
687.33,124.0
687.39,126.0
687.46,143.0
687.52,145.0
687.58,137.0
687.64,158.0
687.71,145.0
687.77,132.0
687.83,127.0
687.9,103.0
687.96,101.0
688.02,121.0
688.09,117.0
688.15,128.0
688.21,102.0
688.27,142.0
688.34,131.0
688.4,137.0
688.46,124.0
688.53,113.0
688.59,123.0
688.65,89.0
688.72,109.0
688.78,105.0
688.84,80.0
688.9,85.0
688.97,84.0
689.03,82.0
689.09,93.0
689.16,91.0
689.22,80.0
689.28,69.0
689.35,98.0
689.41,91.0
689.47,97.0
689.53,105.0
689.6,113.0
689.66,123.0
689.72,121.0
689.79,120.0
689.85,112.0
689.91,115.0
689.98,104.0
690.04,113.0
690.1,122.0
690.16,141.0
690.23,140.0
690.29,135.0
690.35,142.0
690.42,124.0
690.48,142.0
690.54,116.0
690.61,132.0
690.67,132.0
690.73,121.0
690.79,117.0
690.86,133.0
690.92,126.0
690.98,119.0
691.05,142.0
691.11,128.0
691.17,129.0
691.24,130.0
691.3,135.0
691.36,137.0
691.42,124.0
691.49,148.0
691.55,135.0
691.61,146.0
691.68,153.0
691.74,137.0
691.8,137.0
691.87,151.0
691.93,153.0
691.99,166.0
692.05,148.0
692.12,149.0
692.18,181.0
692.24,183.0
692.31,189.0
692.37,190.0
692.43,172.0
692.5,161.0
692.56,158.0
692.62,170.0
692.68,170.0
692.75,174.0
692.81,180.0
692.87,170.0
692.94,159.0
693.0,173.0
693.06,168.0
693.13,169.0
693.19,175.0
693.25,166.0
693.31,167.0
693.38,174.0
693.44,156.0
693.5,149.0
693.57,164.0
693.63,135.0
693.69,153.0
693.76,171.0
693.82,147.0
693.88,162.0
693.94,155.0
694.01,153.0
694.07,159.0
694.13,157.0
694.2,156.0
694.26,154.0
694.32,146.0
694.39,136.0
694.45,132.0
694.51,136.0
694.57,152.0
694.64,140.0
694.7,131.0
694.76,131.0
694.83,130.0
694.89,143.0
694.95,143.0
695.02,122.0
695.08,135.0
695.14,149.0
695.2,138.0
695.27,150.0
695.33,132.0
695.39,134.0
695.46,139.0
695.52,132.0
695.58,124.0
695.65,109.0
695.71,108.0
695.77,126.0
695.83,114.0
695.9,125.0
695.96,129.0
696.02,115.0
696.09,108.0
696.15,110.0
696.21,95.0
696.28,91.0
696.34,88.0
696.4,76.0
696.46,92.0
696.53,86.0
696.59,110.0
696.65,95.0
696.72,98.0
696.78,113.0
696.84,107.0
696.91,106.0
696.97,101.0
697.03,115.0
697.09,100.0
697.16,101.0
697.22,105.0
697.28,110.0
697.35,106.0
697.41,110.0
697.47,103.0
697.54,116.0
697.6,124.0
697.66,101.0
697.72,84.0
697.79,93.0
697.85,91.0
697.91,91.0
697.98,85.0
698.04,96.0
698.1,99.0
698.17,91.0
698.23,98.0
698.29,84.0
698.35,71.0
698.42,70.0
698.48,58.0
698.54,69.0
698.61,71.0
698.67,76.0
698.73,62.0
698.8,46.0
698.86,42.0
698.92,39.0
698.98,41.0
699.05,30.0
699.11,37.0
699.17,45.0
699.24,46.0
699.3,27.0
699.36,32.0
699.43,58.0
699.49,52.0
699.55,43.0
699.61,55.0
699.68,45.0
699.74,43.0
699.8,60.0
699.87,49.0
699.93,45.0
699.99,49.0
700.06,44.0
700.12,55.0
700.18,66.0
700.24,72.0
700.31,70.0
700.37,65.0
700.43,82.0
700.5,104.0
700.56,64.0
700.62,67.0
700.69,60.0
700.75,69.0
700.81,75.0
700.87,69.0
700.94,65.0
701.0,57.0
701.06,60.0
701.13,56.0
701.19,76.0
701.25,61.0
701.32,49.0
701.38,58.0
701.44,57.0
701.5,51.0
701.57,42.0
701.63,57.0
701.69,55.0
701.76,51.0
701.82,41.0
701.88,52.0
701.95,49.0
702.01,38.0
702.07,30.0
702.13,27.0
702.2,35.0
702.26,50.0
702.32,61.0
702.39,62.0
702.45,73.0
702.51,56.0
702.58,88.0
702.64,72.0
702.7,82.0
702.76,69.0
702.83,62.0
702.89,64.0
702.95,49.0
703.02,62.0
703.08,72.0
703.14,65.0
703.21,74.0
703.27,91.0
703.33,104.0
703.39,87.0
703.46,76.0
703.52,92.0
703.58,71.0
703.65,101.0
703.71,84.0
703.77,93.0
703.84,100.0
703.9,88.0
703.96,94.0
704.02,74.0
704.09,91.0
704.15,87.0
704.21,78.0
704.28,91.0
704.34,106.0
704.4,84.0
704.47,87.0
704.53,87.0
704.59,79.0
704.65,89.0
704.72,85.0
704.78,104.0
704.84,104.0
704.91,84.0
704.97,95.0
705.03,117.0
705.1,96.0
705.16,111.0
705.22,113.0
705.28,122.0
705.35,127.0
705.41,115.0
705.47,120.0
705.54,107.0
705.6,102.0
705.66,94.0
705.73,103.0
705.79,95.0
705.85,99.0
705.91,94.0
705.98,78.0
706.04,84.0
706.1,85.0
706.17,79.0
706.23,66.0
706.29,76.0
706.36,80.0
706.42,95.0
706.48,87.0
706.54,79.0
706.61,77.0
706.67,69.0
706.73,68.0
706.8,76.0
706.86,101.0
706.92,100.0
706.99,129.0
707.05,106.0
707.11,104.0
707.17,98.0
707.24,95.0
707.3,103.0
707.36,98.0
707.43,95.0
707.49,107.0
707.55,98.0
707.62,123.0
707.68,124.0
707.74,120.0
707.8,105.0
707.87,106.0
707.93,113.0
707.99,89.0
708.06,87.0
708.12,93.0
708.18,84.0
708.25,95.0
708.31,93.0
708.37,87.0
708.43,87.0
708.5,87.0
708.56,92.0
708.62,65.0
708.69,60.0
708.75,65.0
708.81,76.0
708.88,76.0
708.94,68.0
709.0,64.0
709.06,83.0
709.13,109.0
709.19,93.0
709.25,79.0
709.32,85.0
709.38,90.0
709.44,98.0
709.51,72.0
709.57,87.0
709.63,83.0
709.69,94.0
709.76,91.0
709.82,72.0
709.88,73.0
709.95,69.0
710.01,87.0
710.07,78.0
710.14,86.0
710.2,113.0
710.26,117.0
710.32,104.0
710.39,104.0
710.45,98.0
710.51,97.0
710.58,98.0
710.64,92.0
710.7,117.0
710.77,100.0
710.83,113.0
710.89,115.0
710.95,113.0
711.02,109.0
711.08,120.0
711.14,108.0
711.21,104.0
711.27,118.0
711.33,118.0
711.4,115.0
711.46,111.0
711.52,122.0
711.58,120.0
711.65,127.0
711.71,124.0
711.77,143.0
711.84,151.0
711.9,137.0
711.96,145.0
712.03,141.0
712.09,134.0
712.15,146.0
712.21,157.0
712.28,154.0
712.34,139.0
712.4,135.0
712.47,126.0
712.53,116.0
712.59,115.0
712.66,108.0
712.72,109.0
712.78,112.0
712.84,103.0
712.91,112.0
712.97,131.0
713.03,110.0
713.1,112.0
713.16,105.0
713.22,83.0
713.29,98.0
713.35,90.0
713.41,86.0
713.47,84.0
713.54,112.0
713.6,107.0
713.66,112.0
713.73,102.0
713.79,93.0
713.85,86.0
713.92,96.0
713.98,110.0
714.04,104.0
714.1,96.0
714.17,95.0
714.23,93.0
714.29,98.0
714.36,105.0
714.42,112.0
714.48,112.0
714.55,102.0
714.61,104.0
714.67,100.0
714.73,78.0
714.8,65.0
714.86,79.0
714.92,79.0
714.99,60.0
715.05,58.0
715.11,47.0
715.18,65.0
715.24,80.0
715.3,71.0
715.36,74.0
715.43,60.0
715.49,43.0
715.55,53.0
715.62,55.0
715.68,58.0
715.74,65.0
715.81,43.0
715.87,64.0
715.93,52.0
715.99,43.0
716.06,61.0
716.12,40.0
716.18,41.0
716.25,49.0
716.31,38.0
716.37,35.0
716.44,33.0
716.5,46.0
716.56,36.0
716.62,45.0
716.69,55.0
716.75,42.0
716.81,33.0
716.88,32.0
716.94,65.0
717.0,44.0
717.07,21.0
717.13,6.0
717.19,13.0
717.25,32.0
717.32,44.0
717.38,64.0
717.44,54.0
717.51,42.0
717.57,54.0
717.63,55.0
717.7,53.0
717.76,30.0
717.82,13.0
717.88,27.0
717.95,27.0
718.01,53.0
718.07,44.0
718.14,34.0
718.2,54.0
718.26,35.0
718.33,60.0
718.39,50.0
718.45,39.0
718.51,50.0
718.58,46.0
718.64,50.0
718.7,39.0
718.77,40.0
718.83,31.0
718.89,18.0
718.96,25.0
719.02,48.0
719.08,48.0
719.14,33.0
719.21,52.0
719.27,39.0
719.33,11.0
719.4,20.0
719.46,22.0
719.52,22.0
719.59,26.0
719.65,21.0
719.71,21.0
719.77,11.0
719.84,12.0
719.9,10.0
719.96,-3.0
720.03,14.0
720.09,28.0
720.15,17.0
720.22,13.0
720.28,11.0
720.34,22.0
720.4,17.0
720.47,36.0
720.53,35.0
720.59,30.0
720.66,41.0
720.72,17.0
720.78,33.0
720.85,31.0
720.91,17.0
720.97,44.0
721.03,45.0
721.1,39.0
721.16,59.0
721.22,49.0
721.29,57.0
721.35,61.0
721.41,72.0
721.48,61.0
721.54,59.0
721.6,79.0
721.66,91.0
721.73,100.0
721.79,100.0
721.85,113.0
721.92,110.0
721.98,110.0
722.04,121.0
722.11,116.0
722.17,113.0
722.23,98.0
722.29,84.0
722.36,96.0
722.42,70.0
722.48,70.0
722.55,87.0
722.61,101.0
722.67,98.0
722.74,84.0
722.8,73.0
722.86,93.0
722.92,76.0
722.99,75.0
723.05,62.0
723.11,88.0
723.18,76.0
723.24,88.0
723.3,90.0
723.37,64.0
723.43,76.0
723.49,63.0
723.55,60.0
723.62,57.0
723.68,65.0
723.74,80.0
723.81,83.0
723.87,69.0
723.93,65.0
724.0,57.0
724.06,43.0
724.12,63.0
724.18,54.0
724.25,39.0
724.31,53.0
724.37,69.0
724.44,70.0
724.5,68.0
724.56,80.0
724.63,61.0
724.69,73.0
724.75,66.0
724.81,49.0
724.88,85.0
724.94,77.0
725.0,83.0
725.07,69.0
725.13,68.0
725.19,87.0
725.26,84.0
725.32,86.0
725.38,94.0
725.44,120.0
725.51,120.0
725.57,100.0
725.63,112.0
725.7,110.0
725.76,122.0
725.82,136.0
725.89,120.0
725.95,126.0
726.01,128.0
726.07,127.0
726.14,139.0
726.2,127.0
726.26,148.0
726.33,151.0
726.39,130.0
726.45,136.0
726.52,131.0
726.58,120.0
726.64,113.0
726.7,118.0
726.77,106.0
726.83,101.0
726.89,110.0
726.96,106.0
727.02,98.0
727.08,84.0
727.15,93.0
727.21,112.0
727.27,111.0
727.33,112.0
727.4,126.0
727.46,113.0
727.52,118.0
727.59,131.0
727.65,129.0
727.71,140.0
727.78,132.0
727.84,105.0
727.9,129.0
727.96,122.0
728.03,118.0
728.09,123.0
728.15,135.0
728.22,123.0
728.28,118.0
728.34,128.0
728.41,152.0
728.47,115.0
728.53,114.0
728.59,133.0
728.66,120.0
728.72,120.0
728.78,151.0
728.85,135.0
728.91,138.0
728.97,135.0
729.04,122.0
729.1,124.0
729.16,127.0
729.22,130.0
729.29,128.0
729.35,140.0
729.41,133.0
729.48,151.0
729.54,155.0
729.6,143.0
729.67,146.0
729.73,134.0
729.79,149.0
729.85,141.0
729.92,157.0
729.98,178.0
730.04,164.0
730.11,149.0
730.17,150.0
730.23,152.0
730.3,150.0
730.36,160.0
730.42,157.0
730.48,167.0
730.55,164.0
730.61,154.0
730.67,150.0
730.74,152.0
730.8,150.0
730.86,135.0
730.93,145.0
730.99,153.0
731.05,144.0
731.11,143.0
731.18,142.0
731.24,151.0
731.3,154.0
731.37,146.0
731.43,136.0
731.49,126.0
731.56,134.0
731.62,132.0
731.68,122.0
731.74,129.0
731.81,126.0
731.87,135.0
731.93,130.0
732.0,105.0
732.06,105.0
732.12,124.0
732.19,121.0
732.25,137.0
732.31,116.0
732.37,113.0
732.44,139.0
732.5,122.0
732.56,140.0
732.63,108.0
732.69,104.0
732.75,100.0
732.82,113.0
732.88,111.0
732.94,119.0
733.0,135.0
733.07,132.0
733.13,128.0
733.19,124.0
733.26,125.0
733.32,133.0
733.38,100.0
733.45,112.0
733.51,120.0
733.57,107.0
733.63,95.0
733.7,100.0
733.76,86.0
733.82,100.0
733.89,100.0
733.95,80.0
734.01,94.0
734.08,96.0
734.14,87.0
734.2,112.0
734.26,94.0
734.33,77.0
734.39,90.0
734.45,83.0
734.52,80.0
734.58,88.0
734.64,93.0
734.71,94.0
734.77,98.0
734.83,98.0
734.89,85.0
734.96,91.0
735.02,74.0
735.08,74.0
735.15,79.0
735.21,79.0
735.27,68.0
735.34,62.0
735.4,74.0
735.46,74.0
735.52,57.0
735.59,51.0
735.65,88.0
735.71,66.0
735.78,74.0
735.84,77.0
735.9,79.0
735.97,85.0
736.03,78.0
736.09,99.0
736.15,92.0
736.22,102.0
736.28,112.0
736.34,106.0
736.41,110.0
736.47,104.0
736.53,105.0
736.6,91.0
736.66,91.0
736.72,109.0
736.78,101.0
736.85,108.0
736.91,101.0
736.97,105.0
737.04,84.0
737.1,90.0
737.16,79.0
737.23,100.0
737.29,102.0
737.35,113.0
737.41,111.0
737.48,99.0
737.54,97.0
737.6,113.0
737.67,101.0
737.73,108.0
737.79,107.0
737.86,107.0
737.92,124.0
737.98,122.0
738.04,118.0
738.11,115.0
738.17,108.0
738.23,106.0
738.3,108.0
738.36,104.0
738.42,115.0
738.49,123.0
738.55,95.0
738.61,129.0
738.67,111.0
738.74,86.0
738.8,96.0
738.86,88.0
738.93,108.0
738.99,109.0
739.05,119.0
739.12,102.0
739.18,115.0
739.24,111.0
739.3,102.0
739.37,107.0
739.43,119.0
739.49,134.0
739.56,95.0
739.62,98.0
739.68,130.0
739.75,143.0
739.81,141.0
739.87,93.0
739.93,105.0
740.0,101.0
740.06,116.0
740.12,127.0
740.19,124.0
740.25,143.0
740.31,122.0
740.38,107.0
740.44,127.0
740.5,113.0
740.56,105.0
740.63,122.0
740.69,140.0
740.75,122.0
740.82,118.0
740.88,127.0
740.94,124.0
741.01,132.0
741.07,135.0
741.13,131.0
741.19,127.0
741.26,133.0
741.32,136.0
741.38,164.0
741.45,154.0
741.51,145.0
741.57,158.0
741.64,156.0
741.7,167.0
741.76,179.0
741.82,194.0
741.89,171.0
741.95,169.0
742.01,173.0
742.08,160.0
742.14,159.0
742.2,146.0
742.27,156.0
742.33,169.0
742.39,148.0
742.45,166.0
742.52,174.0
742.58,167.0
742.64,182.0
742.71,163.0
742.77,181.0
742.83,164.0
742.9,162.0
742.96,170.0
743.02,153.0
743.08,167.0
743.15,160.0
743.21,185.0
743.27,169.0
743.34,161.0
743.4,178.0
743.46,165.0
743.53,170.0
743.59,170.0
743.65,162.0
743.71,151.0
743.78,157.0
743.84,157.0
743.9,145.0
743.97,153.0
744.03,138.0
744.09,136.0
744.16,127.0
744.22,120.0
744.28,131.0
744.34,129.0
744.41,139.0
744.47,118.0
744.53,116.0
744.6,119.0
744.66,112.0
744.72,109.0
744.79,127.0
744.85,123.0
744.91,123.0
744.97,131.0
745.04,130.0
745.1,138.0
745.16,140.0
745.23,125.0
745.29,137.0
745.35,151.0
745.42,147.0
745.48,141.0
745.54,160.0
745.6,143.0
745.67,126.0
745.73,116.0
745.79,113.0
745.86,116.0
745.92,130.0
745.98,126.0
746.05,125.0
746.11,126.0
746.17,141.0
746.23,131.0
746.3,134.0
746.36,131.0
746.42,126.0
746.49,114.0
746.55,111.0
746.61,129.0
746.68,126.0
746.74,123.0
746.8,133.0
746.86,132.0
746.93,133.0
746.99,139.0
747.05,122.0
747.12,111.0
747.18,119.0
747.24,140.0
747.31,115.0
747.37,112.0
747.43,103.0
747.49,100.0
747.56,95.0
747.62,105.0
747.68,104.0
747.75,119.0
747.81,107.0
747.87,109.0
747.94,101.0
748.0,109.0
748.06,117.0
748.12,98.0
748.19,99.0
748.25,90.0
748.31,86.0
748.38,82.0
748.44,75.0
748.5,68.0
748.57,70.0
748.63,76.0
748.69,80.0
748.75,87.0
748.82,87.0
748.88,94.0
748.94,81.0
749.01,78.0
749.07,93.0
749.13,94.0
749.2,83.0
749.26,61.0
749.32,74.0
749.38,95.0
749.45,75.0
749.51,61.0
749.57,66.0
749.64,66.0
749.7,44.0
749.76,57.0
749.83,74.0
749.89,53.0
749.95,39.0
750.01,62.0
750.08,53.0
750.14,41.0
750.2,57.0
750.27,47.0
750.33,28.0
750.39,27.0
750.46,47.0
750.52,43.0
750.58,35.0
750.64,23.0
750.71,36.0
750.77,29.0
750.83,29.0
750.9,17.0
750.96,28.0
751.02,43.0
751.09,35.0
751.15,27.0
751.21,32.0
751.27,36.0
751.34,37.0
751.4,11.0
751.46,22.0
751.53,27.0
751.59,6.0
751.65,22.0
751.72,44.0
751.78,49.0
751.84,32.0
751.9,14.0
751.97,20.0
752.03,38.0
752.09,19.0
752.16,42.0
752.22,44.0
752.28,65.0
752.35,63.0
752.41,60.0
752.47,65.0
752.53,66.0
752.6,68.0
752.66,73.0
752.72,69.0
752.79,74.0
752.85,82.0
752.91,75.0
752.98,70.0
753.04,66.0
753.1,72.0
753.16,65.0
753.23,64.0
753.29,88.0
753.35,71.0
753.42,72.0
753.48,75.0
753.54,87.0
753.61,75.0
753.67,58.0
753.73,74.0
753.79,86.0
753.86,86.0
753.92,71.0
753.98,85.0
754.05,83.0
754.11,77.0
754.17,79.0
754.24,65.0
754.3,71.0
754.36,92.0
754.42,72.0
754.49,92.0
754.55,101.0
754.61,102.0
754.68,116.0
754.74,104.0
754.8,90.0
754.87,100.0
754.93,119.0
754.99,110.0
755.05,104.0
755.12,92.0
755.18,94.0
755.24,98.0
755.31,86.0
755.37,84.0
755.43,80.0
755.5,77.0
755.56,82.0
755.62,69.0
755.68,77.0
755.75,86.0
755.81,95.0
755.87,92.0
755.94,97.0
756.0,120.0
756.06,90.0
756.13,108.0
756.19,82.0
756.25,83.0
756.31,104.0
756.38,107.0
756.44,112.0
756.5,108.0
756.57,100.0
756.63,123.0
756.69,115.0
756.76,103.0
756.82,97.0
756.88,104.0
756.94,100.0
757.01,105.0
757.07,91.0
757.13,108.0
757.2,114.0
757.26,110.0
757.32,107.0
757.39,96.0
757.45,110.0
757.51,97.0
757.57,82.0
757.64,81.0
757.7,81.0
757.76,94.0
757.83,107.0
757.89,105.0
757.95,107.0
758.02,83.0
758.08,90.0
758.14,105.0
758.2,91.0
758.27,90.0
758.33,104.0
758.39,92.0
758.46,76.0
758.52,88.0
758.58,116.0
758.65,112.0
758.71,98.0
758.77,126.0
758.83,108.0
758.9,117.0
758.96,121.0
759.02,99.0
759.09,102.0
759.15,109.0
759.21,102.0
759.28,116.0
759.34,86.0
759.4,99.0
759.46,109.0
759.53,120.0
759.59,126.0
759.65,122.0
759.72,116.0
759.78,112.0
759.84,102.0
759.91,101.0
759.97,124.0
760.03,117.0
760.09,103.0
760.16,106.0
760.22,104.0
760.28,106.0
760.35,111.0
760.41,115.0
760.47,101.0
760.54,108.0
760.6,103.0
760.66,99.0
760.72,93.0
760.79,105.0
760.85,118.0
760.91,108.0
760.98,99.0
761.04,98.0
761.1,98.0
761.17,86.0
761.23,104.0
761.29,107.0
761.35,94.0
761.42,99.0
761.48,90.0
761.54,72.0
761.61,79.0
761.67,69.0
761.73,80.0
761.8,95.0
761.86,95.0
761.92,94.0
761.98,87.0
762.05,108.0
762.11,119.0
762.17,109.0
762.24,85.0
762.3,94.0
762.36,82.0
762.43,80.0
762.49,87.0
762.55,71.0
762.61,66.0
762.68,78.0
762.74,86.0
762.8,83.0
762.87,81.0
762.93,91.0
762.99,87.0
763.06,82.0
763.12,88.0
763.18,79.0
763.24,85.0
763.31,85.0
763.37,95.0
763.43,103.0
763.5,96.0
763.56,85.0
763.62,98.0
763.69,94.0
763.75,79.0
763.81,81.0
763.87,83.0
763.94,99.0
764.0,108.0
764.06,85.0
764.13,71.0
764.19,93.0
764.25,93.0
764.32,101.0
764.38,80.0
764.44,77.0
764.5,84.0
764.57,106.0
764.63,107.0
764.69,99.0
764.76,113.0
764.82,116.0
764.88,110.0
764.95,102.0
765.01,105.0
765.07,98.0
765.13,74.0
765.2,97.0
765.26,84.0
765.32,86.0
765.39,90.0
765.45,73.0
765.51,80.0
765.58,85.0
765.64,78.0
765.7,67.0
765.76,64.0
765.83,67.0
765.89,71.0
765.95,80.0
766.02,64.0
766.08,80.0
766.14,76.0
766.21,85.0
766.27,99.0
766.33,76.0
766.39,63.0
766.46,71.0
766.52,86.0
766.58,74.0
766.65,64.0
766.71,66.0
766.77,59.0
766.84,41.0
766.9,51.0
766.96,57.0
767.02,60.0
767.09,66.0
767.15,46.0
767.21,49.0
767.28,44.0
767.34,37.0
767.4,25.0
767.47,28.0
767.53,44.0
767.59,30.0
767.65,35.0
767.72,19.0
767.78,38.0
767.84,32.0
767.91,39.0
767.97,49.0
768.03,28.0
768.1,15.0
768.16,40.0
768.22,45.0
768.28,19.0
768.35,15.0
768.41,27.0
768.47,24.0
768.54,14.0
768.6,20.0
768.66,9.0
768.73,30.0
768.79,32.0
768.85,28.0
768.91,30.0
768.98,32.0
769.04,35.0
769.1,0.0
769.17,8.0
769.23,3.0
769.29,21.0
769.36,13.0
769.42,-5.0
769.48,-7.0
769.54,1.0
769.61,-7.0
769.67,-18.0
769.73,-2.0
769.8,-1.0
769.86,-3.0
769.92,-5.0
769.99,-21.0
770.05,-16.0
770.11,-32.0
770.17,-23.0
770.24,-17.0
770.3,-19.0
770.36,-26.0
770.43,-12.0
770.49,-9.0
770.55,-8.0
770.62,-1.0
770.68,8.0
770.74,16.0
770.8,5.0
770.87,10.0
770.93,8.0
770.99,15.0
771.06,4.0
771.12,20.0
771.18,16.0
771.25,10.0
771.31,11.0
771.37,15.0
771.43,15.0
771.5,24.0
771.56,30.0
771.62,37.0
771.69,48.0
771.75,34.0
771.81,29.0
771.88,29.0
771.94,42.0
772.0,33.0
772.06,37.0
772.13,30.0
772.19,32.0
772.25,41.0
772.32,44.0
772.38,45.0
772.44,42.0
772.51,51.0
772.57,58.0
772.63,55.0
772.69,56.0
772.76,51.0
772.82,55.0
772.88,41.0
772.95,57.0
773.01,56.0
773.07,69.0
773.14,73.0
773.2,55.0
773.26,65.0
773.32,75.0
773.39,75.0
773.45,83.0
773.51,71.0
773.58,73.0
773.64,68.0
773.7,69.0
773.77,81.0
773.83,87.0
773.89,85.0
773.95,92.0
774.02,73.0
774.08,81.0
774.14,82.0
774.21,59.0
774.27,66.0
774.33,77.0
774.4,95.0
774.46,77.0
774.52,72.0
774.58,65.0
774.65,85.0
774.71,91.0
774.77,91.0
774.84,90.0
774.9,82.0
774.96,95.0
775.03,80.0
775.09,63.0
775.15,67.0
775.21,96.0
775.28,78.0
775.34,95.0
775.4,101.0
775.47,97.0
775.53,106.0
775.59,95.0
775.66,104.0
775.72,90.0
775.78,107.0
775.84,101.0
775.91,108.0
775.97,117.0
776.03,123.0
776.1,143.0
776.16,134.0
776.22,136.0
776.29,147.0
776.35,140.0
776.41,121.0
776.47,125.0
776.54,131.0
776.6,117.0
776.66,117.0
776.73,120.0
776.79,125.0
776.85,134.0
776.92,129.0
776.98,110.0
777.04,98.0
777.1,114.0
777.17,107.0
777.23,116.0
777.29,112.0
777.36,117.0
777.42,113.0
777.48,114.0
777.55,118.0
777.61,122.0
777.67,120.0
777.73,127.0
777.8,107.0
777.86,85.0
777.92,115.0
777.99,88.0
778.05,114.0
778.11,133.0
778.18,118.0
778.24,130.0
778.3,114.0
778.36,100.0
778.43,135.0
778.49,118.0
778.55,101.0
778.62,112.0
778.68,116.0
778.74,119.0
778.81,134.0
778.87,129.0
778.93,124.0
778.99,134.0
779.06,138.0
779.12,125.0
779.18,143.0
779.25,162.0
779.31,156.0
779.37,161.0
779.44,164.0
779.5,175.0
779.56,170.0
779.62,154.0
779.69,141.0
779.75,161.0
779.81,176.0
779.88,183.0
779.94,166.0
780.0,181.0
780.07,181.0
780.13,184.0
780.19,175.0
780.25,188.0
780.32,214.0
780.38,185.0
780.44,180.0
780.51,186.0
780.57,191.0
780.63,178.0
780.7,171.0
780.76,190.0
780.82,177.0
780.88,187.0
780.95,185.0
781.01,184.0
781.07,177.0
781.14,164.0
781.2,190.0
781.26,178.0
781.33,185.0
781.39,165.0
781.45,163.0
781.51,152.0
781.58,153.0
781.64,156.0
781.7,167.0
781.77,155.0
781.83,180.0
781.89,182.0
781.96,147.0
782.02,133.0
782.08,148.0
782.14,167.0
782.21,149.0
782.27,145.0
782.33,133.0
782.4,124.0
782.46,112.0
782.52,135.0
782.59,135.0
782.65,122.0
782.71,125.0
782.77,135.0
782.84,152.0
782.9,125.0
782.96,127.0
783.03,118.0
783.09,128.0
783.15,118.0
783.22,94.0
783.28,100.0
783.34,128.0
783.4,114.0
783.47,104.0
783.53,109.0
783.59,111.0
783.66,114.0
783.72,114.0
783.78,116.0
783.85,120.0
783.91,138.0
783.97,110.0
784.03,116.0
784.1,118.0
784.16,110.0
784.22,104.0
784.29,93.0
784.35,112.0
784.41,123.0
784.48,92.0
784.54,103.0
784.6,129.0
784.66,123.0
784.73,114.0
784.79,98.0
784.85,113.0
784.92,117.0
784.98,109.0
785.04,111.0
785.11,98.0
785.17,100.0
785.23,107.0
785.29,109.0
785.36,102.0
785.42,90.0
785.48,103.0
785.55,99.0
785.61,106.0
785.67,104.0
785.74,83.0
785.8,111.0
785.86,123.0
785.92,105.0
785.99,102.0
786.05,106.0
786.11,103.0
786.18,95.0
786.24,93.0
786.3,88.0
786.37,102.0
786.43,97.0
786.49,82.0
786.55,93.0
786.62,107.0
786.68,118.0
786.74,119.0
786.81,121.0
786.87,136.0
786.93,125.0
787.0,136.0
787.06,129.0
787.12,139.0
787.18,151.0
787.25,143.0
787.31,125.0
787.37,145.0
787.44,140.0
787.5,142.0
787.56,139.0
787.63,152.0
787.69,147.0
787.75,147.0
787.81,152.0
787.88,131.0
787.94,123.0
788.0,125.0
788.07,151.0
788.13,145.0
788.19,128.0
788.26,133.0
788.32,147.0
788.38,119.0
788.44,119.0
788.51,137.0
788.57,156.0
788.63,154.0
788.7,143.0
788.76,139.0
788.82,127.0
788.89,121.0
788.95,112.0
789.01,128.0
789.07,122.0
789.14,133.0
789.2,141.0
789.26,140.0
789.33,145.0
789.39,139.0
789.45,131.0
789.52,143.0
789.58,156.0
789.64,129.0
789.7,129.0
789.77,153.0
789.83,148.0
789.89,151.0
789.96,148.0
790.02,144.0
790.08,145.0
790.15,162.0
790.21,140.0
790.27,149.0
790.33,154.0
790.4,164.0
790.46,144.0
790.52,154.0
790.59,148.0
790.65,160.0
790.71,165.0
790.78,159.0
790.84,156.0
790.9,169.0
790.96,158.0
791.03,169.0
791.09,171.0
791.15,160.0
791.22,151.0
791.28,142.0
791.34,142.0
791.41,149.0
791.47,156.0
791.53,137.0
791.59,139.0
791.66,156.0
791.72,175.0
791.78,150.0
791.85,159.0
791.91,166.0
791.97,167.0
792.04,164.0
792.1,170.0
792.16,171.0
792.22,162.0
792.29,164.0
792.35,157.0
792.41,165.0
792.48,164.0
792.54,147.0
792.6,163.0
792.67,158.0
792.73,167.0
792.79,143.0
792.85,150.0
792.92,141.0
792.98,161.0
793.04,158.0
793.11,157.0
793.17,171.0
793.23,180.0
793.3,184.0
793.36,182.0
793.42,172.0
793.48,186.0
793.55,173.0
793.61,152.0
793.67,150.0
793.74,138.0
793.8,147.0
793.86,148.0
793.93,140.0
793.99,159.0
794.05,165.0
794.11,158.0
794.18,150.0
794.24,136.0
794.3,134.0
794.37,136.0
794.43,150.0
794.49,156.0
794.56,169.0
794.62,156.0
794.68,157.0
794.74,159.0
794.81,157.0
794.87,136.0
794.93,136.0
795.0,129.0
795.06,129.0
795.12,114.0
795.19,101.0
795.25,120.0
795.31,120.0
795.37,122.0
795.44,129.0
795.5,123.0
795.56,140.0
795.63,122.0
795.69,128.0
795.75,123.0
795.82,130.0
795.88,154.0
795.94,164.0
796.0,146.0
796.07,139.0
796.13,123.0
796.19,135.0
796.26,134.0
796.32,129.0
796.38,114.0
796.45,119.0
796.51,141.0
796.57,147.0
796.63,127.0
796.7,111.0
796.76,103.0
796.82,140.0
796.89,136.0
796.95,132.0
797.01,132.0
797.08,136.0
797.14,134.0
797.2,138.0
797.26,131.0
797.33,128.0
797.39,117.0
797.45,125.0
797.52,139.0
797.58,137.0
797.64,123.0
797.71,135.0
797.77,129.0
797.83,121.0
797.89,136.0
797.96,136.0
798.02,128.0
798.08,139.0
798.15,145.0
798.21,140.0
798.27,129.0
798.34,136.0
798.4,147.0
798.46,139.0
798.52,149.0
798.59,144.0
798.65,149.0
798.71,148.0
798.78,130.0
798.84,130.0
798.9,132.0
798.97,120.0
799.03,114.0
799.09,142.0
799.15,113.0
799.22,123.0
799.28,115.0
799.34,121.0
799.41,126.0
799.47,118.0
799.53,119.0
799.6,105.0
799.66,110.0
799.72,118.0
799.78,112.0
799.85,100.0
799.91,111.0
799.97,106.0
800.04,90.0
800.1,90.0
800.16,76.0
800.23,88.0
800.29,72.0
800.35,61.0
800.41,60.0
800.48,63.0
800.54,70.0
800.6,77.0
800.67,74.0
800.73,62.0
800.79,74.0
800.86,75.0
800.92,72.0
800.98,83.0
801.04,74.0
801.11,83.0
801.17,77.0
801.23,78.0
801.3,69.0
801.36,73.0
801.42,72.0
801.49,72.0
801.55,72.0
801.61,85.0
801.67,59.0
801.74,67.0
801.8,71.0
801.86,76.0
801.93,65.0
801.99,74.0
802.05,72.0
802.12,63.0
802.18,73.0
802.24,83.0
802.3,67.0
802.37,81.0
802.43,78.0
802.49,66.0
802.56,61.0
802.62,52.0
802.68,50.0
802.75,68.0
802.81,58.0
802.87,53.0
802.93,66.0
803.0,56.0
803.06,49.0
803.12,47.0
803.19,69.0
803.25,70.0
803.31,78.0
803.38,77.0
803.44,77.0
803.5,93.0
803.56,92.0
803.63,85.0
803.69,53.0
803.75,67.0
803.82,81.0
803.88,73.0
803.94,74.0
804.01,81.0
804.07,82.0
804.13,68.0
804.19,62.0
804.26,53.0
804.32,59.0
804.38,49.0
804.45,69.0
804.51,85.0
804.57,73.0
804.64,92.0
804.7,76.0
804.76,80.0
804.82,100.0
804.89,78.0
804.95,72.0
805.01,65.0
805.08,75.0
805.14,67.0
805.2,74.0
805.27,66.0
805.33,57.0
805.39,62.0
805.45,70.0
805.52,52.0
805.58,63.0
805.64,57.0
805.71,67.0
805.77,67.0
805.83,91.0
805.9,73.0
805.96,62.0
806.02,78.0
806.08,76.0
806.15,75.0
806.21,84.0
806.27,78.0
806.34,84.0
806.4,70.0
806.46,76.0
806.53,69.0
806.59,64.0
806.65,78.0
806.71,65.0
806.78,74.0
806.84,78.0
806.9,79.0
806.97,48.0
807.03,63.0
807.09,67.0
807.16,54.0
807.22,55.0
807.28,52.0
807.34,69.0
807.41,74.0
807.47,78.0
807.53,77.0
807.6,66.0
807.66,58.0
807.72,63.0
807.79,60.0
807.85,62.0
807.91,106.0
807.97,97.0
808.04,92.0
808.1,93.0
808.16,84.0
808.23,88.0
808.29,98.0
808.35,93.0
808.42,96.0
808.48,89.0
808.54,90.0
808.6,90.0
808.67,95.0
808.73,103.0
808.79,96.0
808.86,112.0
808.92,93.0
808.98,84.0
809.05,101.0
809.11,106.0
809.17,90.0
809.23,98.0
809.3,102.0
809.36,116.0
809.42,107.0
809.49,118.0
809.55,101.0
809.61,92.0
809.68,96.0
809.74,88.0
809.8,78.0
809.86,108.0
809.93,87.0
809.99,79.0
810.05,98.0
810.12,107.0
810.18,107.0
810.24,102.0
810.31,103.0
810.37,96.0
810.43,81.0
810.49,89.0
810.56,104.0
810.62,79.0
810.68,85.0
810.75,81.0
810.81,87.0
810.87,84.0
810.94,92.0
811.0,82.0
811.06,95.0
811.12,71.0
811.19,70.0
811.25,82.0
811.31,67.0
811.38,79.0
811.44,79.0
811.5,82.0
811.57,93.0
811.63,86.0
811.69,74.0
811.75,67.0
811.82,84.0
811.88,79.0
811.94,79.0
812.01,81.0
812.07,102.0
812.13,92.0
812.2,88.0
812.26,94.0
812.32,91.0
812.38,121.0
812.45,89.0
812.51,110.0
812.57,109.0
812.64,96.0
812.7,118.0
812.76,100.0
812.83,89.0
812.89,70.0
812.95,103.0
813.01,115.0
813.08,111.0
813.14,102.0
813.2,96.0
813.27,111.0
813.33,104.0
813.39,105.0
813.46,95.0
813.52,114.0
813.58,120.0
813.64,126.0
813.71,118.0
813.77,107.0
813.83,112.0
813.9,127.0
813.96,130.0
814.02,125.0
814.09,137.0
814.15,143.0
814.21,137.0
814.27,155.0
814.34,153.0
814.4,158.0
814.46,150.0
814.53,158.0
814.59,155.0
814.65,151.0
814.72,141.0
814.78,135.0
814.84,163.0
814.9,163.0
814.97,145.0
815.03,148.0
815.09,149.0
815.16,169.0
815.22,156.0
815.28,176.0
815.35,157.0
815.41,162.0
815.47,180.0
815.53,169.0
815.6,161.0
815.66,159.0
815.72,151.0
815.79,148.0
815.85,144.0
815.91,162.0
815.98,154.0
816.04,132.0
816.1,140.0
816.16,135.0
816.23,150.0
816.29,133.0
816.35,109.0
816.42,110.0
816.48,115.0
816.54,110.0
816.61,116.0
816.67,112.0
816.73,106.0
816.79,106.0
816.86,117.0
816.92,99.0
816.98,109.0
817.05,115.0
817.11,117.0
817.17,114.0
817.24,126.0
817.3,107.0
817.36,103.0
817.42,114.0
817.49,113.0
817.55,136.0
817.61,113.0
817.68,117.0
817.74,106.0
817.8,101.0
817.87,114.0
817.93,89.0
817.99,89.0
818.05,91.0
818.12,95.0
818.18,85.0
818.24,79.0
818.31,87.0
818.37,86.0
818.43,66.0
818.5,65.0
818.56,81.0
818.62,76.0
818.68,82.0
818.75,72.0
818.81,62.0
818.87,54.0
818.94,50.0
819.0,61.0
819.06,53.0
819.13,57.0
819.19,62.0
819.25,54.0
819.31,65.0
819.38,55.0
819.44,59.0
819.5,74.0
819.57,42.0
819.63,46.0
819.69,50.0
819.76,58.0
819.82,67.0
819.88,49.0
819.94,48.0
820.01,54.0
820.07,54.0
820.13,34.0
820.2,45.0
820.26,37.0
820.32,43.0
820.39,49.0
820.45,58.0
820.51,59.0
820.57,61.0
820.64,63.0
820.7,52.0
820.76,41.0
820.83,61.0
820.89,42.0
820.95,56.0
821.02,34.0
821.08,16.0
821.14,14.0
821.2,12.0
821.27,10.0
821.33,18.0
821.39,33.0
821.46,32.0
821.52,32.0
821.58,28.0
821.65,14.0
821.71,23.0
821.77,21.0
821.83,41.0
821.9,43.0
821.96,54.0
822.02,34.0
822.09,49.0
822.15,66.0
822.21,38.0
822.28,62.0
822.34,84.0
822.4,64.0
822.46,45.0
822.53,58.0
822.59,76.0
822.65,75.0
822.72,72.0
822.78,73.0
822.84,78.0
822.91,93.0
822.97,98.0
823.03,95.0
823.09,98.0
823.16,90.0
823.22,101.0
823.28,100.0
823.35,111.0
823.41,100.0
823.47,94.0
823.54,96.0
823.6,95.0
823.66,79.0
823.72,91.0
823.79,96.0
823.85,88.0
823.91,103.0
823.98,79.0
824.04,86.0
824.1,89.0
824.17,84.0
824.23,93.0
824.29,90.0
824.35,79.0
824.42,55.0
824.48,81.0
824.54,73.0
824.61,96.0
824.67,88.0
824.73,80.0
824.8,77.0
824.86,87.0
824.92,94.0
824.98,84.0
825.05,109.0
825.11,103.0
825.17,109.0
825.24,89.0
825.3,88.0
825.36,124.0
825.43,126.0
825.49,122.0
825.55,125.0
825.61,147.0
825.68,150.0
825.74,149.0
825.8,127.0
825.87,143.0
825.93,142.0
825.99,137.0
826.06,145.0
826.12,147.0
826.18,155.0
826.24,161.0
826.31,151.0
826.37,157.0
826.43,169.0
826.5,177.0
826.56,156.0
826.62,151.0
826.69,157.0
826.75,157.0
826.81,174.0
826.87,158.0
826.94,145.0
827.0,158.0
827.06,158.0
827.13,178.0
827.19,162.0
827.25,169.0
827.32,147.0
827.38,158.0
827.44,144.0
827.5,141.0
827.57,167.0
827.63,139.0
827.69,131.0
827.76,131.0
827.82,117.0
827.88,126.0
827.95,130.0
828.01,124.0
828.07,124.0
828.13,106.0
828.2,107.0
828.26,127.0
828.32,142.0
828.39,134.0
828.45,131.0
828.51,138.0
828.58,125.0
828.64,128.0
828.7,128.0
828.76,134.0
828.83,129.0
828.89,138.0
828.95,123.0
829.02,116.0
829.08,103.0
829.14,139.0
829.21,145.0
829.27,130.0
829.33,129.0
829.39,107.0
829.46,106.0
829.52,113.0
829.58,126.0
829.65,103.0
829.71,118.0
829.77,125.0
829.84,115.0
829.9,124.0
829.96,108.0
830.02,118.0
830.09,139.0
830.15,145.0
830.21,147.0
830.28,148.0
830.34,159.0
830.4,147.0
830.47,139.0
830.53,161.0
830.59,173.0
830.65,154.0
830.72,158.0
830.78,158.0
830.84,183.0
830.91,154.0
830.97,157.0
831.03,173.0
831.1,168.0
831.16,191.0
831.22,179.0
831.28,181.0
831.35,196.0
831.41,191.0
831.47,162.0
831.54,144.0
831.6,144.0
831.66,146.0
831.73,160.0
831.79,151.0
831.85,154.0
831.91,145.0
831.98,132.0
832.04,143.0
832.1,154.0
832.17,144.0
832.23,144.0
832.29,153.0
832.36,147.0
832.42,129.0
832.48,150.0
832.54,127.0
832.61,132.0
832.67,137.0
832.73,148.0
832.8,147.0
832.86,128.0
832.92,125.0
832.99,134.0
833.05,122.0
833.11,128.0
833.17,99.0
833.24,107.0
833.3,126.0
833.36,111.0
833.43,103.0
833.49,111.0
833.55,100.0
833.62,107.0
833.68,99.0
833.74,108.0
833.8,105.0
833.87,102.0
833.93,117.0
833.99,98.0
834.06,110.0
834.12,107.0
834.18,111.0
834.25,105.0
834.31,103.0
834.37,118.0
834.43,107.0
834.5,96.0
834.56,105.0
834.62,125.0
834.69,93.0
834.75,89.0
834.81,120.0
834.88,103.0
834.94,120.0
835.0,130.0
835.06,127.0
835.13,114.0
835.19,122.0
835.25,126.0
835.32,109.0
835.38,112.0
835.44,117.0
835.51,101.0
835.57,109.0
835.63,109.0
835.69,105.0
835.76,96.0
835.82,106.0
835.88,108.0
835.95,94.0
836.01,103.0
836.07,81.0
836.14,81.0
836.2,88.0
836.26,84.0
836.32,82.0
836.39,88.0
836.45,103.0
836.51,111.0
836.58,92.0
836.64,92.0
836.7,101.0
836.77,99.0
836.83,85.0
836.89,96.0
836.95,122.0
837.02,106.0
837.08,114.0
837.14,122.0
837.21,101.0
837.27,117.0
837.33,127.0
837.4,102.0
837.46,125.0
837.52,125.0
837.58,136.0
837.65,109.0
837.71,110.0
837.77,104.0
837.84,116.0
837.9,111.0
837.96,104.0
838.03,122.0
838.09,134.0
838.15,124.0
838.21,142.0
838.28,127.0
838.34,131.0
838.4,146.0
838.47,140.0
838.53,161.0
838.59,175.0
838.66,162.0
838.72,150.0
838.78,163.0
838.84,143.0
838.91,133.0
838.97,162.0
839.03,170.0
839.1,158.0
839.16,147.0
839.22,137.0
839.29,161.0
839.35,164.0
839.41,164.0
839.47,169.0
839.54,169.0
839.6,156.0
839.66,158.0
839.73,139.0
839.79,145.0
839.85,142.0
839.92,140.0
839.98,175.0
840.04,179.0
840.1,148.0
840.17,169.0
840.23,177.0
840.29,161.0
840.36,165.0
840.42,178.0
840.48,155.0
840.55,173.0
840.61,156.0
840.67,152.0
840.73,159.0
840.8,160.0
840.86,166.0
840.92,148.0
840.99,167.0
841.05,164.0
841.11,176.0
841.18,178.0
841.24,177.0
841.3,177.0
841.36,189.0
841.43,191.0
841.49,160.0
841.55,182.0
841.62,207.0
841.68,192.0
841.74,188.0
841.81,174.0
841.87,178.0
841.93,180.0
841.99,182.0
842.06,166.0
842.12,171.0
842.18,184.0
842.25,191.0
842.31,190.0
842.37,179.0
842.44,199.0
842.5,182.0
842.56,183.0
842.62,184.0
842.69,174.0
842.75,181.0
842.81,182.0
842.88,161.0
842.94,164.0
843.0,172.0
843.07,162.0
843.13,165.0
843.19,157.0
843.25,142.0
843.32,138.0
843.38,158.0
843.44,178.0
843.51,159.0
843.57,172.0
843.63,177.0
843.7,145.0
843.76,145.0
843.82,137.0
843.88,129.0
843.95,138.0
844.01,147.0
844.07,161.0
844.14,149.0
844.2,150.0
844.26,156.0
844.33,143.0
844.39,152.0
844.45,147.0
844.51,145.0
844.58,138.0
844.64,123.0
844.7,120.0
844.77,111.0
844.83,110.0
844.89,119.0
844.96,121.0
845.02,115.0
845.08,134.0
845.14,144.0
845.21,135.0
845.27,142.0
845.33,147.0
845.4,155.0
845.46,151.0
845.52,137.0
845.59,159.0
845.65,166.0
845.71,162.0
845.77,153.0
845.84,159.0
845.9,165.0
845.96,171.0
846.03,158.0
846.09,171.0
846.15,183.0
846.22,176.0
846.28,170.0
846.34,183.0
846.4,193.0
846.47,188.0
846.53,191.0
846.59,187.0
846.66,178.0
846.72,164.0
846.78,164.0
846.85,157.0
846.91,149.0
846.97,172.0
847.03,172.0
847.1,153.0
847.16,161.0
847.22,164.0
847.29,150.0
847.35,147.0
847.41,153.0
847.48,157.0
847.54,144.0
847.6,158.0
847.66,156.0
847.73,134.0
847.79,133.0
847.85,142.0
847.92,144.0
847.98,147.0
848.04,144.0
848.11,153.0
848.17,150.0
848.23,158.0
848.29,174.0
848.36,160.0
848.42,156.0
848.48,171.0
848.55,201.0
848.61,222.0
848.67,211.0
848.74,202.0
848.8,201.0
848.86,203.0
848.92,192.0
848.99,184.0
849.05,194.0
849.11,173.0
849.18,184.0
849.24,181.0
849.3,164.0
849.37,153.0
849.43,167.0
849.49,158.0
849.55,166.0
849.62,149.0
849.68,155.0
849.74,162.0
849.81,151.0
849.87,126.0
849.93,151.0
850.0,160.0
850.06,170.0
850.12,162.0
850.18,176.0
850.25,180.0
850.31,154.0
850.37,179.0
850.44,156.0
850.5,144.0
850.56,149.0
850.63,155.0
850.69,165.0
850.75,148.0
850.81,157.0
850.88,140.0
850.94,156.0
851.0,144.0
851.07,158.0
851.13,141.0
851.19,134.0
851.26,138.0
851.32,149.0
851.38,121.0
851.44,103.0
851.51,112.0
851.57,120.0
851.63,125.0
851.7,107.0
851.76,129.0
851.82,127.0
851.89,105.0
851.95,122.0
852.01,117.0
852.07,125.0
852.14,117.0
852.2,112.0
852.26,92.0
852.33,92.0
852.39,92.0
852.45,98.0
852.52,89.0
852.58,96.0
852.64,101.0
852.7,82.0
852.77,84.0
852.83,79.0
852.89,97.0
852.96,93.0
853.02,101.0
853.08,97.0
853.15,94.0
853.21,85.0
853.27,107.0
853.33,92.0
853.4,92.0
853.46,78.0
853.52,76.0
853.59,76.0
853.65,65.0
853.71,57.0
853.78,64.0
853.84,60.0
853.9,51.0
853.96,70.0
854.03,82.0
854.09,81.0
854.15,81.0
854.22,89.0
854.28,74.0
854.34,82.0
854.41,78.0
854.47,63.0
854.53,75.0
854.59,63.0
854.66,67.0
854.72,73.0
854.78,78.0
854.85,55.0
854.91,56.0
854.97,80.0
855.04,75.0
855.1,43.0
855.16,55.0
855.22,60.0
855.29,52.0
855.35,65.0
855.41,75.0
855.48,42.0
855.54,27.0
855.6,22.0
855.67,50.0
855.73,62.0
855.79,52.0
855.85,64.0
855.92,63.0
855.98,62.0
856.04,40.0
856.11,52.0
856.17,73.0
856.23,63.0
856.3,70.0
856.36,68.0
856.42,66.0
856.48,81.0
856.55,77.0
856.61,73.0
856.67,76.0
856.74,78.0
856.8,77.0
856.86,88.0
856.93,85.0
856.99,101.0
857.05,92.0
857.11,98.0
857.18,102.0
857.24,107.0
857.3,92.0
857.37,95.0
857.43,85.0
857.49,84.0
857.56,88.0
857.62,64.0
857.68,77.0
857.74,89.0
857.81,69.0
857.87,63.0
857.93,56.0
858.0,37.0
858.06,45.0
858.12,35.0
858.19,41.0
858.25,24.0
858.31,42.0
858.37,38.0
858.44,41.0
858.5,21.0
858.56,37.0
858.63,37.0
858.69,40.0
858.75,53.0
858.82,36.0
858.88,20.0
858.94,32.0
859.0,34.0
859.07,28.0
859.13,47.0
859.19,54.0
859.26,56.0
859.32,30.0
859.38,39.0
859.45,50.0
859.51,69.0
859.57,46.0
859.63,12.0
859.7,42.0
859.76,35.0
859.82,35.0
859.89,33.0
859.95,36.0
860.01,29.0
860.08,38.0
860.14,51.0
860.2,51.0
860.26,46.0
860.33,30.0
860.39,34.0
860.45,33.0
860.52,43.0
860.58,32.0
860.64,42.0
860.71,46.0
860.77,54.0
860.83,67.0
860.89,55.0
860.96,51.0
861.02,35.0
861.08,46.0
861.15,36.0
861.21,21.0
861.27,40.0
861.34,43.0
861.4,52.0
861.46,54.0
861.52,57.0
861.59,44.0
861.65,60.0
861.71,66.0
861.78,51.0
861.84,57.0
861.9,57.0
861.97,36.0
862.03,53.0
862.09,35.0
862.15,52.0
862.22,42.0
862.28,39.0
862.34,18.0
862.41,21.0
862.47,19.0
862.53,6.0
862.6,20.0
862.66,29.0
862.72,17.0
862.78,27.0
862.85,24.0
862.91,43.0
862.97,32.0
863.04,33.0
863.1,39.0
863.16,21.0
863.23,33.0
863.29,43.0
863.35,65.0
863.41,51.0
863.48,49.0
863.54,52.0
863.6,62.0
863.67,61.0
863.73,64.0
863.79,74.0
863.86,72.0
863.92,58.0
863.98,63.0
864.04,59.0
864.11,49.0
864.17,60.0
864.23,42.0
864.3,56.0
864.36,73.0
864.42,68.0
864.49,77.0
864.55,88.0
864.61,67.0
864.67,67.0
864.74,75.0
864.8,68.0
864.86,87.0
864.93,71.0
864.99,77.0
865.05,71.0
865.12,91.0
865.18,83.0
865.24,74.0
865.3,107.0
865.37,99.0
865.43,91.0
865.49,103.0
865.56,89.0
865.62,101.0
865.68,108.0
865.75,95.0
865.81,103.0
865.87,103.0
865.93,99.0
866.0,85.0
866.06,79.0
866.12,95.0
866.19,98.0
866.25,106.0
866.31,100.0
866.38,67.0
866.44,101.0
866.5,114.0
866.56,115.0
866.63,115.0
866.69,102.0
866.75,118.0
866.82,98.0
866.88,99.0
866.94,103.0
867.01,96.0
867.07,94.0
867.13,99.0
867.19,88.0
867.26,74.0
867.32,77.0
867.38,101.0
867.45,96.0
867.51,92.0
867.57,88.0
867.64,66.0
867.7,68.0
867.76,94.0
867.82,83.0
867.89,82.0
867.95,80.0
868.01,88.0
868.08,88.0
868.14,79.0
868.2,71.0
868.27,79.0
868.33,75.0
868.39,92.0
868.45,81.0
868.52,67.0
868.58,68.0
868.64,58.0
868.71,64.0
868.77,59.0
868.83,67.0
868.9,63.0
868.96,64.0
869.02,62.0
869.08,65.0
869.15,67.0
869.21,63.0
869.27,81.0
869.34,71.0
869.4,56.0
869.46,48.0
869.53,52.0
869.59,60.0
869.65,57.0
869.71,51.0
869.78,54.0
869.84,48.0
869.9,41.0
869.97,37.0
870.03,37.0
870.09,32.0
870.16,37.0
870.22,48.0
870.28,49.0
870.34,58.0
870.41,58.0
870.47,57.0
870.53,70.0
870.6,75.0
870.66,69.0
870.72,61.0
870.79,72.0
870.85,87.0
870.91,77.0
870.97,84.0
871.04,95.0
871.1,89.0
871.16,84.0
871.23,76.0
871.29,96.0
871.35,93.0
871.42,79.0
871.48,75.0
871.54,94.0
871.6,92.0
871.67,96.0
871.73,86.0
871.79,84.0
871.86,93.0
871.92,109.0
871.98,92.0
872.05,78.0
872.11,96.0
872.17,110.0
872.23,102.0
872.3,97.0
872.36,114.0
872.42,108.0
872.49,107.0
872.55,112.0
872.61,101.0
872.68,92.0
872.74,100.0
872.8,126.0
872.86,118.0
872.93,123.0
872.99,123.0
873.05,106.0
873.12,101.0
873.18,91.0
873.24,117.0
873.31,121.0
873.37,131.0
873.43,142.0
873.49,125.0
873.56,130.0
873.62,133.0
873.68,129.0
873.75,128.0
873.81,125.0
873.87,142.0
873.94,137.0
874.0,129.0
874.06,126.0
874.12,124.0
874.19,143.0
874.25,159.0
874.31,165.0
874.38,136.0
874.44,151.0
874.5,156.0
874.57,147.0
874.63,143.0
874.69,138.0
874.75,141.0
874.82,132.0
874.88,116.0
874.94,118.0
875.01,131.0
875.07,139.0
875.13,140.0
875.2,148.0
875.26,131.0
875.32,135.0
875.38,139.0
875.45,156.0
875.51,144.0
875.57,139.0
875.64,137.0
875.7,137.0
875.76,170.0
875.83,162.0
875.89,166.0
875.95,175.0
876.01,172.0
876.08,159.0
876.14,166.0
876.2,167.0
876.27,180.0
876.33,172.0
876.39,175.0
876.46,166.0
876.52,158.0
876.58,177.0
876.64,173.0
876.71,175.0
876.77,162.0
876.83,176.0
876.9,181.0
876.96,159.0
877.02,139.0
877.09,153.0
877.15,144.0
877.21,142.0
877.27,130.0
877.34,138.0
877.4,139.0
877.46,145.0
877.53,149.0
877.59,127.0
877.65,136.0
877.72,130.0
877.78,133.0
877.84,132.0
877.9,128.0
877.97,109.0
878.03,108.0
878.09,101.0
878.16,124.0
878.22,128.0
878.28,89.0
878.35,92.0
878.41,81.0
878.47,85.0
878.53,77.0
878.6,85.0
878.66,91.0
878.72,90.0
878.79,108.0
878.85,96.0
878.91,99.0
878.98,123.0
879.04,101.0
879.1,110.0
879.16,95.0
879.23,92.0
879.29,93.0
879.35,89.0
879.42,108.0
879.48,90.0
879.54,84.0
879.61,95.0
879.67,103.0
879.73,92.0
879.79,88.0
879.86,84.0
879.92,70.0
879.98,68.0
880.05,73.0
880.11,79.0
880.17,76.0
880.24,78.0
880.3,85.0
880.36,79.0
880.42,74.0
880.49,110.0
880.55,117.0
880.61,112.0
880.68,102.0
880.74,109.0
880.8,111.0
880.87,94.0
880.93,112.0
880.99,131.0
881.05,107.0
881.12,108.0
881.18,111.0
881.24,104.0
881.31,107.0
881.37,118.0
881.43,122.0
881.5,106.0
881.56,111.0
881.62,122.0
881.68,112.0
881.75,99.0
881.81,96.0
881.87,106.0
881.94,124.0
882.0,128.0
882.06,123.0
882.13,118.0
882.19,139.0
882.25,129.0
882.31,125.0
882.38,142.0
882.44,155.0
882.5,159.0
882.57,154.0
882.63,149.0
882.69,157.0
882.76,140.0
882.82,111.0
882.88,118.0
882.94,135.0
883.01,108.0
883.07,116.0
883.13,115.0
883.2,117.0
883.26,99.0
883.32,140.0
883.39,140.0
883.45,140.0
883.51,130.0
883.57,129.0
883.64,129.0
883.7,114.0
883.76,114.0
883.83,95.0
883.89,89.0
883.95,96.0
884.02,98.0
884.08,81.0
884.14,92.0
884.2,93.0
884.27,86.0
884.33,102.0
884.39,89.0
884.46,92.0
884.52,83.0
884.58,80.0
884.65,96.0
884.71,85.0
884.77,83.0
884.83,87.0
884.9,106.0
884.96,86.0
885.02,81.0
885.09,89.0
885.15,83.0
885.21,89.0
885.28,82.0
885.34,84.0
885.4,72.0
885.46,63.0
885.53,80.0
885.59,87.0
885.65,70.0
885.72,83.0
885.78,88.0
885.84,69.0
885.91,65.0
885.97,63.0
886.03,63.0
886.09,48.0
886.16,32.0
886.22,23.0
886.28,20.0
886.35,37.0
886.41,38.0
886.47,52.0
886.54,55.0
886.6,42.0
886.66,35.0
886.72,45.0
886.79,43.0
886.85,23.0
886.91,41.0
886.98,50.0
887.04,43.0
887.1,52.0
887.17,62.0
887.23,61.0
887.29,77.0
887.35,84.0
887.42,59.0
887.48,65.0
887.54,63.0
887.61,34.0
887.67,38.0
887.73,53.0
887.8,27.0
887.86,21.0
887.92,52.0
887.98,83.0
888.05,67.0
888.11,57.0
888.17,66.0
888.24,68.0
888.3,64.0
888.36,51.0
888.43,42.0
888.49,52.0
888.55,41.0
888.61,48.0
888.68,50.0
888.74,51.0
888.8,58.0
888.87,58.0
888.93,38.0
888.99,51.0
889.06,71.0
889.12,79.0
889.18,96.0
889.24,73.0
889.31,73.0
889.37,61.0
889.43,61.0
889.5,50.0
889.56,40.0
889.62,63.0
889.69,51.0
889.75,74.0
889.81,70.0
889.87,36.0
889.94,49.0
890.0,56.0
890.06,52.0
890.13,44.0
890.19,59.0
890.25,69.0
890.32,76.0
890.38,100.0
890.44,87.0
890.5,71.0
890.57,85.0
890.63,101.0
890.69,106.0
890.76,78.0
890.82,103.0
890.88,122.0
890.95,111.0
891.01,119.0
891.07,111.0
891.13,89.0
891.2,97.0
891.26,98.0
891.32,82.0
891.39,100.0
891.45,97.0
891.51,126.0
891.58,112.0
891.64,103.0
891.7,118.0
891.76,123.0
891.83,116.0
891.89,110.0
891.95,131.0
892.02,136.0
892.08,119.0
892.14,135.0
892.21,136.0
892.27,128.0
892.33,117.0
892.39,125.0
892.46,137.0
892.52,135.0
892.58,145.0
892.65,162.0
892.71,154.0
892.77,137.0
892.84,145.0
892.9,137.0
892.96,140.0
893.02,146.0
893.09,144.0
893.15,144.0
893.21,130.0
893.28,135.0
893.34,149.0
893.4,140.0
893.47,139.0
893.53,114.0
893.59,107.0
893.65,111.0
893.72,154.0
893.78,145.0
893.84,111.0
893.91,119.0
893.97,147.0
894.03,146.0
894.1,140.0
894.16,150.0
894.22,125.0
894.28,126.0
894.35,137.0
894.41,119.0
894.47,114.0
894.54,135.0
894.6,132.0
894.66,125.0
894.73,117.0
894.79,124.0
894.85,121.0
894.91,114.0
894.98,92.0
895.04,88.0
895.1,71.0
895.17,85.0
895.23,91.0
895.29,104.0
895.36,93.0
895.42,92.0
895.48,123.0
895.54,99.0
895.61,109.0
895.67,107.0
895.73,121.0
895.8,107.0
895.86,125.0
895.92,142.0
895.99,134.0
896.05,128.0
896.11,90.0
896.17,108.0
896.24,122.0
896.3,99.0
896.36,118.0
896.43,115.0
896.49,121.0
896.55,123.0
896.62,114.0
896.68,115.0
896.74,117.0
896.8,121.0
896.87,118.0
896.93,142.0
896.99,151.0
897.06,162.0
897.12,166.0
897.18,151.0
897.25,170.0
897.31,167.0
897.37,159.0
897.43,169.0
897.5,167.0
897.56,199.0
897.62,186.0
897.69,187.0
897.75,200.0
897.81,202.0
897.88,201.0
897.94,216.0
898.0,217.0
898.06,217.0
898.13,215.0
898.19,214.0
898.25,216.0
898.32,228.0
898.38,217.0
898.44,224.0
898.51,205.0
898.57,220.0
898.63,238.0
898.69,236.0
898.76,257.0
898.82,250.0
898.88,245.0
898.95,259.0
899.01,246.0
899.07,240.0
899.14,241.0
899.2,253.0
899.26,251.0
899.32,265.0
899.39,258.0
899.45,266.0
899.51,256.0
899.58,250.0
899.64,247.0
899.7,239.0
899.77,265.0
899.83,247.0
899.89,249.0
899.95,243.0
900.02,250.0
900.08,241.0
900.14,233.0
900.21,230.0
900.27,220.0
900.33,227.0
900.4,238.0
900.46,219.0
900.52,226.0
900.58,187.0
900.65,206.0
900.71,213.0
900.77,222.0
900.84,213.0
900.9,207.0
900.96,216.0
901.03,221.0
901.09,214.0
901.15,204.0
901.21,191.0
901.28,195.0
901.34,202.0
901.4,195.0
901.47,173.0
901.53,189.0
901.59,190.0
901.66,186.0
901.72,184.0
901.78,206.0
901.84,200.0
901.91,191.0
901.97,179.0
902.03,194.0
902.1,201.0
902.16,177.0
902.22,176.0
902.29,176.0
902.35,166.0
902.41,161.0
902.47,155.0
902.54,150.0
902.6,160.0
902.66,153.0
902.73,144.0
902.79,158.0
902.85,158.0
902.92,154.0
902.98,125.0
903.04,132.0
903.1,123.0
903.17,125.0
903.23,136.0
903.29,150.0
903.36,128.0
903.42,156.0
903.48,149.0
903.55,132.0
903.61,150.0
903.67,132.0
903.73,116.0
903.8,103.0
903.86,112.0
903.92,124.0
903.99,111.0
904.05,110.0
904.11,92.0
904.18,89.0
904.24,103.0
904.3,103.0
904.36,98.0
904.43,81.0
904.49,84.0
904.55,85.0
904.62,92.0
904.68,70.0
904.74,90.0
904.81,98.0
904.87,93.0
904.93,103.0
904.99,91.0
905.06,98.0
905.12,90.0
905.18,59.0
905.25,88.0
905.31,85.0
905.37,70.0
905.44,69.0
905.5,72.0
905.56,81.0
905.62,95.0
905.69,78.0
905.75,74.0
905.81,103.0
905.88,109.0
905.94,117.0
906.0,108.0
906.07,102.0
906.13,115.0
906.19,110.0
906.25,118.0
906.32,114.0
906.38,100.0
906.44,133.0
906.51,114.0
906.57,109.0
906.63,98.0
906.7,103.0
906.76,87.0
906.82,71.0
906.88,87.0
906.95,81.0
907.01,79.0
907.07,85.0
907.14,80.0
907.2,93.0
907.26,114.0
907.33,117.0
907.39,127.0
907.45,119.0
907.51,118.0
907.58,112.0
907.64,129.0
907.7,112.0
907.77,110.0
907.83,136.0
907.89,118.0
907.96,129.0
908.02,109.0
908.08,121.0
908.14,115.0
908.21,103.0
908.27,124.0
908.33,130.0
908.4,121.0
908.46,118.0
908.52,122.0
908.59,126.0
908.65,132.0
908.71,135.0
908.77,129.0
908.84,135.0
908.9,128.0
908.96,109.0
909.03,111.0
909.09,96.0
909.15,112.0
909.22,103.0
909.28,107.0
909.34,90.0
909.4,94.0
909.47,115.0
909.53,107.0
909.59,104.0
909.66,106.0
909.72,96.0
909.78,88.0
909.85,91.0
909.91,121.0
909.97,115.0
910.03,113.0
910.1,105.0
910.16,101.0
910.22,128.0
910.29,124.0
910.35,120.0
910.41,125.0
910.48,114.0
910.54,132.0
910.6,136.0
910.66,107.0
910.73,82.0
910.79,87.0
910.85,111.0
910.92,109.0
910.98,118.0
911.04,92.0
911.11,97.0
911.17,109.0
911.23,109.0
911.29,94.0
911.36,73.0
911.42,73.0
911.48,80.0
911.55,76.0
911.61,76.0
911.67,64.0
911.74,61.0
911.8,51.0
911.86,49.0
911.92,42.0
911.99,71.0
912.05,67.0
912.11,46.0
912.18,51.0
912.24,37.0
912.3,29.0
912.37,24.0
912.43,33.0
912.49,27.0
912.55,33.0
912.62,19.0
912.68,4.0
912.74,27.0
912.81,26.0
912.87,26.0
912.93,30.0
913.0,27.0
913.06,33.0
913.12,39.0
913.18,46.0
913.25,37.0
913.31,23.0
913.37,28.0
913.44,26.0
913.5,35.0
913.56,41.0
913.63,29.0
913.69,22.0
913.75,35.0
913.81,34.0
913.88,57.0
913.94,74.0
914.0,63.0
914.07,44.0
914.13,52.0
914.19,56.0
914.26,77.0
914.32,50.0
914.38,73.0
914.44,81.0
914.51,68.0
914.57,74.0
914.63,69.0
914.7,61.0
914.76,74.0
914.82,49.0
914.89,55.0
914.95,87.0
915.01,90.0
915.07,92.0
915.14,65.0
915.2,81.0
915.26,90.0
915.33,88.0
915.39,99.0
915.45,113.0
915.52,112.0
915.58,120.0
915.64,120.0
915.7,114.0
915.77,122.0
915.83,101.0
915.89,124.0
915.96,125.0
916.02,118.0
916.08,122.0
916.15,123.0
916.21,116.0
916.27,103.0
916.33,114.0
916.4,110.0
916.46,99.0
916.52,84.0
916.59,90.0
916.65,103.0
916.71,82.0
916.78,71.0
916.84,66.0
916.9,80.0
916.96,72.0
917.03,82.0
917.09,88.0
917.15,78.0
917.22,69.0
917.28,79.0
917.34,94.0
917.41,81.0
917.47,78.0
917.53,78.0
917.59,79.0
917.66,82.0
917.72,77.0
917.78,81.0
917.85,83.0
917.91,66.0
917.97,79.0
918.04,79.0
918.1,71.0
918.16,73.0
918.22,60.0
918.29,76.0
918.35,70.0
918.41,59.0
918.48,73.0
918.54,60.0
918.6,48.0
918.67,48.0
918.73,60.0
918.79,67.0
918.85,74.0
918.92,66.0
918.98,59.0
919.04,69.0
919.11,74.0
919.17,74.0
919.23,84.0
919.3,83.0
919.36,84.0
919.42,106.0
919.48,96.0
919.55,73.0
919.61,92.0
919.67,71.0
919.74,63.0
919.8,78.0
919.86,57.0
919.93,52.0
919.99,40.0
920.05,41.0
920.11,53.0
920.18,56.0
920.24,58.0
920.3,57.0
920.37,67.0
920.43,69.0
920.49,52.0
920.56,43.0
920.62,36.0
920.68,26.0
920.74,26.0
920.81,15.0
920.87,26.0
920.93,10.0
921.0,41.0
921.06,37.0
921.12,44.0
921.19,56.0
921.25,42.0
921.31,44.0
921.37,39.0
921.44,34.0
921.5,12.0
921.56,14.0
921.63,13.0
921.69,10.0
921.75,29.0
921.82,7.0
921.88,11.0
921.94,38.0
922.0,9.0
922.07,19.0
922.13,12.0
922.19,-29.0
922.26,17.0
922.32,14.0
922.38,27.0
922.45,10.0
922.51,12.0
922.57,18.0
922.63,13.0
922.7,22.0
922.76,15.0
922.82,22.0
922.89,10.0
922.95,17.0
923.01,40.0
923.08,37.0
923.14,45.0
923.2,40.0
923.26,41.0
923.33,52.0
923.39,42.0
923.45,20.0
923.52,43.0
923.58,58.0
923.64,66.0
923.71,58.0
923.77,62.0
923.83,85.0
923.89,85.0
923.96,92.0
924.02,61.0
924.08,55.0
924.15,60.0
924.21,60.0
924.27,61.0
924.34,51.0
924.4,82.0
924.46,84.0
924.52,102.0
924.59,88.0
924.65,103.0
924.71,120.0
924.78,97.0
924.84,115.0
924.9,123.0
924.97,125.0
925.03,138.0
925.09,136.0
925.15,139.0
925.22,125.0
925.28,123.0
925.34,126.0
925.41,137.0
925.47,134.0
925.53,126.0
925.6,139.0
925.66,121.0
925.72,128.0
925.78,122.0
925.85,120.0
925.91,127.0
925.97,133.0
926.04,123.0
926.1,155.0
926.16,132.0
926.23,145.0
926.29,154.0
926.35,157.0
926.41,161.0
926.48,169.0
926.54,160.0
926.6,158.0
926.67,170.0
926.73,172.0
926.79,162.0
926.86,163.0
926.92,146.0
926.98,173.0
927.04,156.0
927.11,132.0
927.17,154.0
927.23,147.0
927.3,156.0
927.36,164.0
927.42,145.0
927.49,147.0
927.55,125.0
927.61,121.0
927.67,136.0
927.74,134.0
927.8,139.0
927.86,143.0
927.93,131.0
927.99,139.0
928.05,135.0
928.12,138.0
928.18,135.0
928.24,139.0
928.3,155.0
928.37,145.0
928.43,132.0
928.49,134.0
928.56,119.0
928.62,106.0
928.68,97.0
928.75,105.0
928.81,112.0
928.87,106.0
928.93,102.0
929.0,110.0
929.06,112.0
929.12,89.0
929.19,84.0
929.25,95.0
929.31,99.0
929.38,111.0
929.44,120.0
929.5,90.0
929.56,98.0
929.63,85.0
929.69,92.0
929.75,87.0
929.82,93.0
929.88,103.0
929.94,82.0
930.01,100.0
930.07,109.0
930.13,103.0
930.19,102.0
930.26,99.0
930.32,88.0
930.38,123.0
930.45,129.0
930.51,121.0
930.57,121.0
930.64,135.0
930.7,135.0
930.76,114.0
930.82,121.0
930.89,121.0
930.95,135.0
931.01,147.0
931.08,143.0
931.14,143.0
931.2,127.0
931.27,133.0
931.33,128.0
931.39,128.0
931.45,126.0
931.52,112.0
931.58,107.0
931.64,87.0
931.71,104.0
931.77,104.0
931.83,106.0
931.9,120.0
931.96,123.0
932.02,120.0
932.08,111.0
932.15,115.0
932.21,127.0
932.27,145.0
932.34,136.0
932.4,142.0
932.46,134.0
932.53,118.0
932.59,136.0
932.65,134.0
932.71,128.0
932.78,120.0
932.84,117.0
932.9,119.0
932.97,121.0
933.03,129.0
933.09,121.0
933.16,140.0
933.22,143.0
933.28,142.0
933.34,156.0
933.41,170.0
933.47,170.0
933.53,143.0
933.6,165.0
933.66,170.0
933.72,168.0
933.79,177.0
933.85,164.0
933.91,164.0
933.97,168.0
934.04,152.0
934.1,161.0
934.16,161.0
934.23,144.0
934.29,144.0
934.35,140.0
934.42,155.0
934.48,162.0
934.54,157.0
934.6,130.0
934.67,133.0
934.73,114.0
934.79,132.0
934.86,136.0
934.92,121.0
934.98,128.0
935.05,115.0
935.11,125.0
935.17,135.0
935.23,113.0
935.3,103.0
935.36,124.0
935.42,100.0
935.49,109.0
935.55,110.0
935.61,106.0
935.68,123.0
935.74,120.0
935.8,124.0
935.86,125.0
935.93,129.0
935.99,105.0
936.05,95.0
936.12,95.0
936.18,84.0
936.24,90.0
936.31,67.0
936.37,68.0
936.43,82.0
936.49,88.0
936.56,88.0
936.62,70.0
936.68,75.0
936.75,77.0
936.81,79.0
936.87,70.0
936.94,85.0
937.0,51.0
937.06,58.0
937.12,77.0
937.19,65.0
937.25,73.0
937.31,77.0
937.38,68.0
937.44,55.0
937.5,62.0
937.57,96.0
937.63,67.0
937.69,65.0
937.75,59.0
937.82,70.0
937.88,85.0
937.94,72.0
938.01,84.0
938.07,81.0
938.13,78.0
938.2,82.0
938.26,82.0
938.32,68.0
938.38,60.0
938.45,60.0
938.51,73.0
938.57,54.0
938.64,46.0
938.7,39.0
938.76,44.0
938.83,45.0
938.89,48.0
938.95,64.0
939.01,73.0
939.08,85.0
939.14,47.0
939.2,48.0
939.27,55.0
939.33,43.0
939.39,51.0
939.46,40.0
939.52,46.0
939.58,38.0
939.64,35.0
939.71,63.0
939.77,60.0
939.83,43.0
939.9,51.0
939.96,57.0
940.02,66.0
940.09,81.0
940.15,77.0
940.21,64.0
940.27,80.0
940.34,71.0
940.4,64.0
940.46,56.0
940.53,62.0
940.59,38.0
940.65,57.0
940.72,76.0
940.78,77.0
940.84,84.0
940.9,72.0
940.97,66.0
941.03,88.0
941.09,84.0
941.16,95.0
941.22,101.0
941.28,91.0
941.35,109.0
941.41,109.0
941.47,106.0
941.53,106.0
941.6,92.0
941.66,94.0
941.72,95.0
941.79,93.0
941.85,55.0
941.91,96.0
941.98,85.0
942.04,59.0
942.1,80.0
942.16,92.0
942.23,99.0
942.29,114.0
942.35,102.0
942.42,120.0
942.48,124.0
942.54,122.0
942.61,125.0
942.67,129.0
942.73,127.0
942.79,131.0
942.86,144.0
942.92,153.0
942.98,146.0
943.05,141.0
943.11,116.0
943.17,141.0
943.24,146.0
943.3,117.0
943.36,130.0
943.42,126.0
943.49,134.0
943.55,125.0
943.61,118.0
943.68,122.0
943.74,124.0
943.8,117.0
943.87,131.0
943.93,108.0
943.99,103.0
944.05,107.0
944.12,95.0
944.18,122.0
944.24,113.0
944.31,132.0
944.37,116.0
944.43,112.0
944.5,120.0
944.56,117.0
944.62,108.0
944.68,116.0
944.75,129.0
944.81,114.0
944.87,106.0
944.94,105.0
945.0,88.0
945.06,97.0
945.13,106.0
945.19,84.0
945.25,76.0
945.31,83.0
945.38,85.0
945.44,103.0
945.5,102.0
945.57,82.0
945.63,52.0
945.69,95.0
945.76,110.0
945.82,98.0
945.88,88.0
945.94,104.0
946.01,94.0
946.07,114.0
946.13,88.0
946.2,89.0
946.26,94.0
946.32,96.0
946.39,79.0
946.45,66.0
946.51,81.0
946.57,59.0
946.64,76.0
946.7,83.0
946.76,90.0
946.83,88.0
946.89,72.0
946.95,91.0
947.02,80.0
947.08,73.0
947.14,62.0
947.2,72.0
947.27,60.0
947.33,68.0
947.39,62.0
947.46,76.0
947.52,73.0
947.58,82.0
947.65,76.0
947.71,84.0
947.77,74.0
947.83,69.0
947.9,69.0
947.96,79.0
948.02,97.0
948.09,100.0
948.15,108.0
948.21,121.0
948.28,116.0
948.34,129.0
948.4,147.0
948.46,137.0
948.53,146.0
948.59,139.0
948.65,143.0
948.72,158.0
948.78,139.0
948.84,143.0
948.91,160.0
948.97,169.0
949.03,165.0
949.09,161.0
949.16,156.0
949.22,151.0
949.28,161.0
949.35,169.0
949.41,167.0
949.47,175.0
949.54,166.0
949.6,172.0
949.66,161.0
949.72,157.0
949.79,157.0
949.85,160.0
949.91,167.0
949.98,168.0
950.04,148.0
950.1,176.0
950.17,172.0
950.23,172.0
950.29,183.0
950.35,190.0
950.42,173.0
950.48,172.0
950.54,175.0
950.61,187.0
950.67,186.0
950.73,164.0
950.8,177.0
950.86,175.0
950.92,154.0
950.98,156.0
951.05,164.0
951.11,156.0
951.17,162.0
951.24,172.0
951.3,166.0
951.36,167.0
951.43,181.0
951.49,190.0
951.55,173.0
951.61,170.0
951.68,195.0
951.74,199.0
951.8,169.0
951.87,183.0
951.93,174.0
951.99,164.0
952.06,174.0
952.12,159.0
952.18,184.0
952.24,179.0
952.31,174.0
952.37,172.0
952.43,161.0
952.5,172.0
952.56,173.0
952.62,181.0
952.69,173.0
952.75,157.0
952.81,160.0
952.87,161.0
952.94,143.0
953.0,164.0
953.06,153.0
953.13,151.0
953.19,161.0
953.25,184.0
953.32,170.0
953.38,164.0
953.44,165.0
953.5,160.0
953.57,156.0
953.63,162.0
953.69,151.0
953.76,164.0
953.82,147.0
953.88,142.0
953.95,144.0
954.01,126.0
954.07,129.0
954.13,121.0
954.2,109.0
954.26,125.0
954.32,109.0
954.39,120.0
954.45,130.0
954.51,129.0
954.58,122.0
954.64,110.0
954.7,139.0
954.76,139.0
954.83,146.0
954.89,106.0
954.95,124.0
955.02,116.0
955.08,109.0
955.14,113.0
955.21,114.0
955.27,106.0
955.33,110.0
955.39,91.0
955.46,78.0
955.52,88.0
955.58,117.0
955.65,114.0
955.71,110.0
955.77,84.0
955.84,87.0
955.9,89.0
955.96,96.0
956.02,107.0
956.09,122.0
956.15,90.0
956.21,118.0
956.28,98.0
956.34,82.0
956.4,91.0
956.47,84.0
956.53,83.0
956.59,106.0
956.65,113.0
956.72,101.0
956.78,107.0
956.84,126.0
956.91,110.0
956.97,104.0
957.03,109.0
957.1,118.0
957.16,128.0
957.22,121.0
957.28,121.0
957.35,117.0
957.41,114.0
957.47,150.0
957.54,129.0
957.6,132.0
957.66,125.0
957.73,122.0
957.79,131.0
957.85,148.0
957.91,140.0
957.98,152.0
958.04,133.0
958.1,121.0
958.17,131.0
958.23,122.0
958.29,135.0
958.36,146.0
958.42,139.0
958.48,135.0
958.54,128.0
958.61,118.0
958.67,126.0
958.73,121.0
958.8,150.0
958.86,158.0
958.92,125.0
958.99,115.0
959.05,109.0
959.11,115.0
959.17,131.0
959.24,127.0
959.3,125.0
959.36,125.0
959.43,150.0
959.49,147.0
959.55,143.0
959.62,146.0
959.68,148.0
959.74,145.0
959.8,150.0
959.87,162.0
959.93,156.0
959.99,138.0
960.06,129.0
960.12,161.0
960.18,164.0
960.25,165.0
960.31,156.0
960.37,155.0
960.43,145.0
960.5,153.0
960.56,148.0
960.62,136.0
960.69,130.0
960.75,137.0
960.81,121.0
960.88,105.0
960.94,99.0
961.0,97.0
961.06,106.0
961.13,123.0
961.19,122.0
961.25,107.0
961.32,116.0
961.38,92.0
961.44,98.0
961.51,87.0
961.57,92.0
961.63,99.0
961.69,71.0
961.76,68.0
961.82,60.0
961.88,73.0
961.95,77.0
962.01,87.0
962.07,93.0
962.14,66.0
962.2,88.0
962.26,66.0
962.32,51.0
962.39,60.0
962.45,57.0
962.51,34.0
962.58,38.0
962.64,50.0
962.7,58.0
962.77,37.0
962.83,33.0
962.89,54.0
962.95,35.0
963.02,20.0
963.08,19.0
963.14,29.0
963.21,29.0
963.27,21.0
963.33,49.0
963.4,47.0
963.46,28.0
963.52,36.0
963.58,42.0
963.65,48.0
963.71,55.0
963.77,29.0
963.84,40.0
963.9,34.0
963.96,46.0
964.03,60.0
964.09,53.0
964.15,47.0
964.21,58.0
964.28,69.0
964.34,50.0
964.4,64.0
964.47,64.0
964.53,58.0
964.59,57.0
964.66,85.0
964.72,73.0
964.78,71.0
964.84,73.0
964.91,69.0
964.97,78.0
965.03,61.0
965.1,66.0
965.16,69.0
965.22,79.0
965.29,65.0
965.35,66.0
965.41,66.0
965.47,77.0
965.54,70.0
965.6,66.0
965.66,70.0
965.73,88.0
965.79,82.0
965.85,80.0
965.92,77.0
965.98,71.0
966.04,81.0
966.1,84.0
966.17,90.0
966.23,77.0
966.29,85.0
966.36,78.0
966.42,77.0
966.48,80.0
966.55,83.0
966.61,74.0
966.67,70.0
966.73,79.0
966.8,85.0
966.86,63.0
966.92,50.0
966.99,79.0
967.05,62.0
967.11,65.0
967.18,79.0
967.24,82.0
967.3,60.0
967.36,68.0
967.43,75.0
967.49,71.0
967.55,66.0
967.62,57.0
967.68,65.0
967.74,75.0
967.81,88.0
967.87,91.0
967.93,73.0
967.99,80.0
968.06,88.0
968.12,66.0
968.18,80.0
968.25,75.0
968.31,84.0
968.37,88.0
968.44,97.0
968.5,77.0
968.56,85.0
968.62,105.0
968.69,82.0
968.75,72.0
968.81,73.0
968.88,81.0
968.94,65.0
969.0,61.0
969.07,72.0
969.13,84.0
969.19,59.0
969.25,67.0
969.32,62.0
969.38,47.0
969.44,59.0
969.51,38.0
969.57,31.0
969.63,29.0
969.7,36.0
969.76,29.0
969.82,30.0
969.88,47.0
969.95,44.0
970.01,15.0
970.07,17.0
970.14,5.0
970.2,30.0
970.26,43.0
970.33,34.0
970.39,43.0
970.45,44.0
970.51,36.0
970.58,47.0
970.64,30.0
970.7,51.0
970.77,51.0
970.83,38.0
970.89,38.0
970.96,40.0
971.02,35.0
971.08,40.0
971.14,33.0
971.21,21.0
971.27,30.0
971.33,45.0
971.4,40.0
971.46,13.0
971.52,39.0
971.59,41.0
971.65,33.0
971.71,35.0
971.77,18.0
971.84,28.0
971.9,8.0
971.96,16.0
972.03,30.0
972.09,1.0
972.15,4.0
972.22,11.0
972.28,7.0
972.34,-1.0
972.4,24.0
972.47,-3.0
972.53,8.0
972.59,9.0
972.66,11.0
972.72,20.0
972.78,17.0
972.85,32.0
972.91,11.0
972.97,-6.0
973.03,8.0
973.1,9.0
973.16,16.0
973.22,7.0
973.29,-1.0
973.35,24.0
973.41,11.0
973.48,9.0
973.54,3.0
973.6,41.0
973.66,38.0
973.73,52.0
973.79,47.0
973.85,36.0
973.92,44.0
973.98,57.0
974.04,31.0
974.11,21.0
974.17,25.0
974.23,32.0
974.29,20.0
974.36,41.0
974.42,56.0
974.48,42.0
974.55,71.0
974.61,74.0
974.67,64.0
974.74,45.0
974.8,61.0
974.86,77.0
974.92,82.0
974.99,88.0
975.05,96.0
975.11,122.0
975.18,124.0
975.24,122.0
975.3,133.0
975.37,148.0
975.43,154.0
975.49,147.0
975.55,136.0
975.62,140.0
975.68,139.0
975.74,144.0
975.81,141.0
975.87,138.0
975.93,138.0
976.0,140.0
976.06,129.0
976.12,135.0
976.18,149.0
976.25,137.0
976.31,118.0
976.37,120.0
976.44,129.0
976.5,122.0
976.56,119.0
976.63,121.0
976.69,118.0
976.75,137.0
976.81,149.0
976.88,121.0
976.94,103.0
977.0,116.0
977.07,116.0
977.13,126.0
977.19,131.0
977.26,139.0
977.32,126.0
977.38,137.0
977.44,146.0
977.51,141.0
977.57,133.0
977.63,118.0
977.7,131.0
977.76,118.0
977.82,135.0
977.89,116.0
977.95,142.0
978.01,125.0
978.07,142.0
978.14,148.0
978.2,135.0
978.26,158.0
978.33,154.0
978.39,159.0
978.45,163.0
978.52,134.0
978.58,136.0
978.64,136.0
978.7,143.0
978.77,154.0
978.83,118.0
978.89,140.0
978.96,151.0
979.02,135.0
979.08,144.0
979.15,127.0
979.21,132.0
979.27,147.0
979.33,154.0
979.4,137.0
979.46,135.0
979.52,140.0
979.59,156.0
979.65,144.0
979.71,149.0
979.78,159.0
979.84,154.0
979.9,144.0
979.96,121.0
980.03,119.0
980.09,127.0
980.15,144.0
980.22,135.0
980.28,138.0
980.34,143.0
980.41,121.0
980.47,118.0
980.53,119.0
980.59,125.0
980.66,119.0
980.72,111.0
980.78,96.0
980.85,126.0
980.91,129.0
980.97,124.0
981.04,128.0
981.1,135.0
981.16,134.0
981.22,152.0
981.29,149.0
981.35,122.0
981.41,135.0
981.48,132.0
981.54,126.0
981.6,132.0
981.67,142.0
981.73,141.0
981.79,126.0
981.85,128.0
981.92,144.0
981.98,151.0
982.04,147.0
982.11,132.0
982.17,130.0
982.23,177.0
982.3,172.0
982.36,184.0
982.42,176.0
982.48,170.0
982.55,181.0
982.61,182.0
982.67,188.0
982.74,179.0
982.8,175.0
982.86,183.0
982.93,171.0
982.99,163.0
983.05,161.0
983.11,164.0
983.18,144.0
983.24,151.0
983.3,169.0
983.37,159.0
983.43,154.0
983.49,137.0
983.56,143.0
983.62,117.0
983.68,139.0
983.74,124.0
983.81,119.0
983.87,136.0
983.93,138.0
984.0,148.0
984.06,138.0
984.12,167.0
984.19,170.0
984.25,151.0
984.31,153.0
984.37,152.0
984.44,162.0
984.5,149.0
984.56,136.0
984.63,148.0
984.69,132.0
984.75,140.0
984.82,121.0
984.88,124.0
984.94,134.0
985.0,138.0
985.07,142.0
985.13,135.0
985.19,141.0
985.26,143.0
985.32,137.0
985.38,140.0
985.45,131.0
985.51,115.0
985.57,142.0
985.63,150.0
985.7,145.0
985.76,144.0
985.82,115.0
985.89,129.0
985.95,128.0
986.01,126.0
986.08,134.0
986.14,129.0
986.2,118.0
986.26,122.0
986.33,123.0
986.39,136.0
986.45,125.0
986.52,128.0
986.58,122.0
986.64,141.0
986.71,134.0
986.77,130.0
986.83,118.0
986.89,121.0
986.96,145.0
987.02,134.0
987.08,126.0
987.15,133.0
987.21,127.0
987.27,141.0
987.34,122.0
987.4,111.0
987.46,137.0
987.52,116.0
987.59,112.0
987.65,109.0
987.71,113.0
987.78,93.0
987.84,83.0
987.9,86.0
987.97,78.0
988.03,74.0
988.09,81.0
988.15,70.0
988.22,50.0
988.28,57.0
988.34,56.0
988.41,72.0
988.47,64.0
988.53,79.0
988.6,77.0
988.66,80.0
988.72,64.0
988.78,66.0
988.85,71.0
988.91,69.0
988.97,78.0
989.04,82.0
989.1,73.0
989.16,93.0
989.23,84.0
989.29,78.0
989.35,90.0
989.41,93.0
989.48,88.0
989.54,115.0
989.6,93.0
989.67,87.0
989.73,78.0
989.79,62.0
989.86,82.0
989.92,80.0
989.98,82.0
990.04,71.0
990.11,75.0
990.17,74.0
990.23,93.0
990.3,95.0
990.36,107.0
990.42,121.0
990.49,128.0
990.55,122.0
990.61,132.0
990.67,124.0
990.74,123.0
990.8,138.0
990.86,111.0
990.93,96.0
990.99,126.0
991.05,139.0
991.12,127.0
991.18,127.0
991.24,135.0
991.3,109.0
991.37,99.0
991.43,133.0
991.49,129.0
991.56,129.0
991.62,124.0
991.68,138.0
991.75,143.0
991.81,139.0
991.87,140.0
991.93,132.0
992.0,118.0
992.06,115.0
992.12,136.0
992.19,135.0
992.25,132.0
992.31,140.0
992.38,124.0
992.44,110.0
992.5,118.0
992.56,116.0
992.63,112.0
992.69,118.0
992.75,136.0
992.82,127.0
992.88,111.0
992.94,120.0
993.01,137.0
993.07,137.0
993.13,133.0
993.19,133.0
993.26,127.0
993.32,145.0
993.38,132.0
993.45,117.0
993.51,98.0
993.57,116.0
993.64,119.0
993.7,103.0
993.76,126.0
993.82,121.0
993.89,101.0
993.95,112.0
994.01,110.0
994.08,122.0
994.14,119.0
994.2,89.0
994.27,115.0
994.33,115.0
994.39,126.0
994.45,131.0
994.52,115.0
994.58,100.0
994.64,107.0
994.71,98.0
994.77,124.0
994.83,111.0
994.9,93.0
994.96,97.0
995.02,91.0
995.08,103.0
995.15,92.0
995.21,100.0
995.27,86.0
995.34,96.0
995.4,99.0
995.46,99.0
995.53,75.0
995.59,111.0
995.65,97.0
995.71,97.0
995.78,106.0
995.84,92.0
995.9,99.0
995.97,88.0
996.03,85.0
996.09,88.0
996.16,77.0
996.22,65.0
996.28,76.0
996.34,88.0
996.41,89.0
996.47,77.0
996.53,82.0
996.6,72.0
996.66,76.0
996.72,78.0
996.79,71.0
996.85,72.0
996.91,86.0
996.97,102.0
997.04,93.0
997.1,71.0
997.16,59.0
997.23,85.0
997.29,89.0
997.35,89.0
997.42,102.0
997.48,80.0
997.54,75.0
997.6,97.0
997.67,104.0
997.73,100.0
997.79,108.0
997.86,91.0
997.92,85.0
997.98,92.0
998.05,93.0
998.11,106.0
998.17,121.0
998.23,117.0
998.3,128.0
998.36,138.0
998.42,118.0
998.49,133.0
998.55,134.0
998.61,122.0
998.68,151.0
998.74,161.0
998.8,135.0
998.86,148.0
998.93,136.0
998.99,144.0
999.05,124.0
999.12,147.0
999.18,129.0
999.24,137.0
999.31,134.0
999.37,142.0
999.43,148.0
999.49,133.0
999.56,152.0
999.62,154.0
999.68,144.0
999.75,149.0
999.81,143.0
999.87,143.0
