timestamp,intensity
0,-221.0
0.06,-215.0
0.13,-201.0
0.19,-216.0
0.25,-212.0
0.32,-228.0
0.38,-233.0
0.44,-240.0
0.5,-235.0
0.57,-229.0
0.63,-207.0
0.69,-229.0
0.76,-218.0
0.82,-193.0
0.88,-197.0
0.94,-215.0
1.01,-195.0
1.07,-187.0
1.13,-204.0
1.2,-207.0
1.26,-217.0
1.32,-214.0
1.39,-204.0
1.45,-227.0
1.51,-227.0
1.57,-239.0
1.64,-244.0
1.7,-234.0
1.76,-236.0
1.83,-235.0
1.89,-254.0
1.95,-245.0
2.02,-245.0
2.08,-239.0
2.14,-234.0
2.2,-251.0
2.27,-246.0
2.33,-233.0
2.39,-234.0
2.46,-240.0
2.52,-255.0
2.58,-272.0
2.65,-263.0
2.71,-250.0
2.77,-258.0
2.84,-266.0
2.9,-278.0
2.96,-284.0
3.02,-275.0
3.09,-279.0
3.15,-284.0
3.21,-287.0
3.28,-296.0
3.34,-284.0
3.4,-294.0
3.47,-295.0
3.53,-294.0
3.59,-286.0
3.65,-293.0
3.72,-291.0
3.78,-275.0
3.84,-279.0
3.91,-261.0
3.97,-251.0
4.03,-266.0
4.1,-277.0
4.16,-276.0
4.22,-287.0
4.28,-282.0
4.35,-286.0
4.41,-289.0
4.47,-280.0
4.54,-276.0
4.6,-286.0
4.66,-274.0
4.73,-243.0
4.79,-256.0
4.85,-267.0
4.91,-273.0
4.98,-251.0
5.04,-260.0
5.1,-247.0
5.17,-255.0
5.23,-257.0
5.29,-226.0
5.35,-222.0
5.42,-220.0
5.48,-257.0
5.54,-232.0
5.61,-241.0
5.67,-234.0
5.73,-244.0
5.8,-257.0
5.86,-236.0
5.92,-245.0
5.98,-223.0
6.05,-247.0
6.11,-249.0
6.17,-239.0
6.24,-234.0
6.3,-233.0
6.36,-229.0
6.43,-246.0
6.49,-238.0
6.55,-208.0
6.61,-216.0
6.68,-215.0
6.74,-228.0
6.8,-214.0
6.87,-242.0
6.93,-235.0
6.99,-219.0
7.06,-230.0
7.12,-223.0
7.18,-251.0
7.24,-229.0
7.31,-235.0
7.37,-248.0
7.43,-246.0
7.5,-253.0
7.56,-240.0
7.62,-245.0
7.69,-248.0
7.75,-234.0
7.81,-230.0
7.87,-232.0
7.94,-239.0
8.0,-238.0
8.06,-248.0
8.13,-235.0
8.19,-238.0
8.25,-257.0
8.32,-253.0
8.38,-241.0
8.44,-226.0
8.5,-230.0
8.57,-231.0
8.63,-239.0
8.69,-233.0
8.76,-217.0
8.82,-234.0
8.88,-217.0
8.95,-216.0
9.01,-221.0
9.07,-215.0
9.13,-223.0
9.2,-228.0
9.26,-238.0
9.32,-236.0
9.39,-228.0
9.45,-240.0
9.51,-231.0
9.58,-212.0
9.64,-214.0
9.7,-226.0
9.77,-207.0
9.83,-217.0
9.89,-207.0
9.95,-188.0
10.02,-211.0
10.08,-217.0
10.14,-225.0
10.21,-210.0
10.27,-209.0
10.33,-219.0
10.4,-209.0
10.46,-197.0
10.52,-212.0
10.58,-199.0
10.65,-225.0
10.71,-218.0
10.77,-222.0
10.84,-228.0
10.9,-220.0
10.96,-234.0
11.03,-218.0
11.09,-220.0
11.15,-218.0
11.21,-211.0
11.28,-227.0
11.34,-221.0
11.4,-229.0
11.47,-228.0
11.53,-211.0
11.59,-214.0
11.66,-244.0
11.72,-261.0
11.78,-255.0
11.84,-233.0
11.91,-246.0
11.97,-253.0
12.03,-243.0
12.1,-237.0
12.16,-245.0
12.22,-237.0
12.29,-242.0
12.35,-239.0
12.41,-235.0
12.47,-231.0
12.54,-237.0
12.6,-244.0
12.66,-231.0
12.73,-222.0
12.79,-207.0
12.85,-204.0
12.92,-227.0
12.98,-211.0
13.04,-204.0
13.1,-207.0
13.17,-220.0
13.23,-225.0
13.29,-215.0
13.36,-215.0
13.42,-196.0
13.48,-217.0
13.55,-209.0
13.61,-213.0
13.67,-199.0
13.73,-195.0
13.8,-207.0
13.86,-210.0
13.92,-201.0
13.99,-187.0
14.05,-187.0
14.11,-165.0
14.18,-175.0
14.24,-171.0
14.3,-165.0
14.36,-168.0
14.43,-176.0
14.49,-160.0
14.55,-153.0
14.62,-172.0
14.68,-185.0
14.74,-168.0
14.81,-156.0
14.87,-150.0
14.93,-161.0
14.99,-169.0
15.06,-155.0
15.12,-158.0
15.18,-143.0
15.25,-138.0
15.31,-138.0
15.37,-142.0
15.44,-142.0
15.5,-144.0
15.56,-165.0
15.62,-152.0
15.69,-146.0
15.75,-144.0
15.81,-130.0
15.88,-151.0
15.94,-144.0
16.0,-136.0
16.07,-129.0
16.13,-131.0
16.19,-141.0
16.25,-133.0
16.32,-134.0
16.38,-130.0
16.44,-134.0
16.51,-113.0
16.57,-111.0
16.63,-101.0
16.7,-83.0
16.76,-93.0
16.82,-86.0
16.88,-105.0
16.95,-86.0
17.01,-98.0
17.07,-94.0
17.14,-96.0
17.2,-129.0
17.26,-98.0
17.33,-107.0
17.39,-100.0
17.45,-83.0
17.51,-98.0
17.58,-89.0
17.64,-94.0
17.7,-86.0
17.77,-89.0
17.83,-97.0
17.89,-85.0
17.96,-83.0
18.02,-82.0
18.08,-86.0
18.14,-102.0
18.21,-97.0
18.27,-85.0
18.33,-85.0
18.4,-71.0
18.46,-83.0
18.52,-76.0
18.59,-86.0
18.65,-95.0
18.71,-90.0
18.77,-92.0
18.84,-99.0
18.9,-86.0
18.96,-79.0
19.03,-76.0
19.09,-92.0
19.15,-69.0
19.22,-84.0
19.28,-77.0
19.34,-86.0
19.4,-104.0
19.47,-98.0
19.53,-113.0
19.59,-113.0
19.66,-115.0
19.72,-98.0
19.78,-91.0
19.84,-125.0
19.91,-100.0
19.97,-103.0
20.03,-119.0
20.1,-91.0
20.16,-69.0
20.22,-84.0
20.29,-85.0
20.35,-73.0
20.41,-77.0
20.47,-74.0
20.54,-56.0
20.6,-97.0
20.66,-88.0
20.73,-82.0
20.79,-74.0
20.85,-58.0
20.92,-79.0
20.98,-82.0
21.04,-74.0
21.1,-89.0
21.17,-53.0
21.23,-63.0
21.29,-84.0
21.36,-55.0
21.42,-46.0
21.48,-87.0
21.55,-94.0
21.61,-80.0
21.67,-74.0
21.73,-90.0
21.8,-87.0
21.86,-78.0
21.92,-77.0
21.99,-82.0
22.05,-83.0
22.11,-85.0
22.18,-92.0
22.24,-95.0
22.3,-76.0
22.36,-69.0
22.43,-89.0
22.49,-83.0
22.55,-80.0
22.62,-90.0
22.68,-78.0
22.74,-77.0
22.81,-83.0
22.87,-96.0
22.93,-85.0
22.99,-88.0
23.06,-89.0
23.12,-90.0
23.18,-83.0
23.25,-83.0
23.31,-79.0
23.37,-87.0
23.44,-81.0
23.5,-91.0
23.56,-104.0
23.62,-99.0
23.69,-80.0
23.75,-70.0
23.81,-78.0
23.88,-53.0
23.94,-76.0
24.0,-104.0
24.07,-90.0
24.13,-81.0
24.19,-91.0
24.25,-94.0
24.32,-83.0
24.38,-93.0
24.44,-97.0
24.51,-98.0
24.57,-82.0
24.63,-79.0
24.7,-78.0
24.76,-101.0
24.82,-107.0
24.88,-116.0
24.95,-93.0
25.01,-77.0
25.07,-78.0
25.14,-73.0
25.2,-85.0
25.26,-86.0
25.33,-87.0
25.39,-83.0
25.45,-99.0
25.51,-90.0
25.58,-87.0
25.64,-89.0
25.7,-89.0
25.77,-92.0
25.83,-78.0
25.89,-71.0
25.96,-84.0
26.02,-85.0
26.08,-98.0
26.14,-89.0
26.21,-88.0
26.27,-77.0
26.33,-100.0
26.4,-101.0
26.46,-77.0
26.52,-93.0
26.59,-65.0
26.65,-76.0
26.71,-103.0
26.77,-103.0
26.84,-105.0
26.9,-103.0
26.96,-115.0
27.03,-111.0
27.09,-101.0
27.15,-87.0
27.22,-77.0
27.28,-92.0
27.34,-102.0
27.4,-95.0
27.47,-100.0
27.53,-87.0
27.59,-113.0
27.66,-107.0
27.72,-112.0
27.78,-108.0
27.85,-104.0
27.91,-123.0
27.97,-115.0
28.03,-123.0
28.1,-122.0
28.16,-122.0
28.22,-135.0
28.29,-129.0
28.35,-124.0
28.41,-136.0
28.48,-129.0
28.54,-134.0
28.6,-135.0
28.66,-143.0
28.73,-142.0
28.79,-133.0
28.85,-125.0
28.92,-132.0
28.98,-125.0
29.04,-128.0
29.11,-124.0
29.17,-126.0
29.23,-122.0
29.29,-125.0
29.36,-134.0
29.42,-122.0
29.48,-129.0
29.55,-139.0
29.61,-124.0
29.67,-121.0
29.74,-133.0
29.8,-123.0
29.86,-113.0
29.92,-124.0
29.99,-127.0
30.05,-119.0
30.11,-123.0
30.18,-110.0
30.24,-133.0
30.3,-145.0
30.37,-139.0
30.43,-136.0
30.49,-118.0
30.55,-138.0
30.62,-140.0
30.68,-144.0
30.74,-132.0
30.81,-128.0
30.87,-134.0
30.93,-132.0
31.0,-111.0
31.06,-129.0
31.12,-136.0
31.18,-122.0
31.25,-124.0
31.31,-124.0
31.37,-125.0
31.44,-120.0
31.5,-97.0
31.56,-100.0
31.63,-104.0
31.69,-123.0
31.75,-124.0
31.81,-123.0
31.88,-121.0
31.94,-116.0
32.0,-120.0
32.07,-113.0
32.13,-136.0
32.19,-141.0
32.26,-116.0
32.32,-107.0
32.38,-108.0
32.44,-104.0
32.51,-107.0
32.57,-105.0
32.63,-117.0
32.7,-123.0
32.76,-106.0
32.82,-106.0
32.89,-107.0
32.95,-105.0
33.01,-94.0
33.07,-83.0
33.14,-95.0
33.2,-94.0
33.26,-105.0
33.33,-116.0
33.39,-102.0
33.45,-113.0
33.52,-114.0
33.58,-107.0
33.64,-108.0
33.7,-107.0
33.77,-135.0
33.83,-125.0
33.89,-120.0
33.96,-126.0
34.02,-120.0
34.08,-120.0
34.15,-140.0
34.21,-133.0
34.27,-137.0
34.33,-118.0
34.4,-102.0
34.46,-110.0
34.52,-114.0
34.59,-121.0
34.65,-118.0
34.71,-105.0
34.78,-116.0
34.84,-98.0
34.9,-106.0
34.96,-111.0
35.03,-111.0
35.09,-109.0
35.15,-133.0
35.22,-117.0
35.28,-100.0
35.34,-109.0
35.41,-101.0
35.47,-118.0
35.53,-117.0
35.59,-113.0
35.66,-111.0
35.72,-122.0
35.78,-109.0
35.85,-111.0
35.91,-96.0
35.97,-122.0
36.04,-115.0
36.1,-93.0
36.16,-109.0
36.22,-96.0
36.29,-99.0
36.35,-102.0
36.41,-103.0
36.48,-108.0
36.54,-106.0
36.6,-120.0
36.67,-116.0
36.73,-119.0
36.79,-127.0
36.85,-126.0
36.92,-125.0
36.98,-120.0
37.04,-119.0
37.11,-113.0
37.17,-116.0
37.23,-131.0
37.3,-140.0
37.36,-149.0
37.42,-113.0
37.48,-143.0
37.55,-136.0
37.61,-149.0
37.67,-147.0
37.74,-155.0
37.8,-164.0
37.86,-169.0
37.93,-139.0
37.99,-146.0
38.05,-151.0
38.12,-145.0
38.18,-155.0
38.24,-152.0
38.3,-136.0
38.37,-124.0
38.43,-137.0
38.49,-125.0
38.56,-123.0
38.62,-117.0
38.68,-116.0
38.75,-103.0
38.81,-111.0
38.87,-112.0
38.93,-109.0
39.0,-122.0
39.06,-103.0
39.12,-100.0
39.19,-110.0
39.25,-114.0
39.31,-95.0
39.38,-93.0
39.44,-96.0
39.5,-89.0
39.56,-96.0
39.63,-76.0
39.69,-79.0
39.75,-84.0
39.82,-78.0
39.88,-70.0
39.94,-54.0
40.01,-75.0
40.07,-70.0
40.13,-69.0
40.19,-83.0
40.26,-89.0
40.32,-97.0
40.38,-85.0
40.45,-68.0
40.51,-79.0
40.57,-57.0
40.64,-40.0
40.7,-58.0
40.76,-77.0
40.82,-53.0
40.89,-58.0
40.95,-58.0
41.01,-42.0
41.08,-63.0
41.14,-58.0
41.2,-34.0
41.27,-42.0
41.33,-3.0
41.39,-18.0
41.45,-25.0
41.52,-18.0
41.58,-11.0
41.64,3.0
41.71,-10.0
41.77,2.0
41.83,12.0
41.9,30.0
41.96,23.0
42.02,19.0
42.08,16.0
42.15,1.0
42.21,11.0
42.27,-2.0
42.34,16.0
42.4,25.0
42.46,19.0
42.53,26.0
42.59,24.0
42.65,25.0
42.71,12.0
42.78,9.0
42.84,24.0
42.9,25.0
42.97,37.0
43.03,35.0
43.09,31.0
43.16,62.0
43.22,42.0
43.28,66.0
43.34,62.0
43.41,50.0
43.47,54.0
43.53,59.0
43.6,74.0
43.66,70.0
43.72,77.0
43.79,76.0
43.85,39.0
43.91,36.0
43.97,72.0
44.04,49.0
44.1,40.0
44.16,60.0
44.23,64.0
44.29,41.0
44.35,51.0
44.42,54.0
44.48,55.0
44.54,47.0
44.6,63.0
44.67,67.0
44.73,73.0
44.79,59.0
44.86,60.0
44.92,67.0
44.98,74.0
45.05,59.0
45.11,51.0
45.17,52.0
45.23,52.0
45.3,57.0
45.36,47.0
45.42,40.0
45.49,38.0
45.55,44.0
45.61,44.0
45.68,49.0
45.74,26.0
45.8,17.0
45.86,18.0
45.93,24.0
45.99,4.0
46.05,-2.0
46.12,-9.0
46.18,-6.0
46.24,3.0
46.31,21.0
46.37,29.0
46.43,15.0
46.49,10.0
46.56,14.0
46.62,28.0
46.68,26.0
46.75,2.0
46.81,23.0
46.87,27.0
46.94,29.0
47.0,5.0
47.06,8.0
47.12,28.0
47.19,19.0
47.25,46.0
47.31,56.0
47.38,45.0
47.44,64.0
47.5,38.0
47.57,50.0
47.63,50.0
47.69,37.0
47.75,31.0
47.82,43.0
47.88,46.0
47.94,29.0
48.01,31.0
48.07,47.0
48.13,70.0
48.2,47.0
48.26,54.0
48.32,37.0
48.38,41.0
48.45,42.0
48.51,33.0
48.57,34.0
48.64,48.0
48.7,34.0
48.76,37.0
48.83,41.0
48.89,29.0
48.95,46.0
49.01,32.0
49.08,28.0
49.14,25.0
49.2,20.0
49.27,24.0
49.33,32.0
49.39,31.0
49.46,9.0
49.52,16.0
49.58,27.0
49.64,19.0
49.71,30.0
49.77,35.0
49.83,24.0
49.9,10.0
49.96,20.0
50.02,43.0
50.09,39.0
50.15,53.0
50.21,58.0
50.27,48.0
50.34,48.0
50.4,43.0
50.46,46.0
50.53,43.0
50.59,16.0
50.65,21.0
50.72,14.0
50.78,15.0
50.84,6.0
50.9,-3.0
50.97,-7.0
51.03,13.0
51.09,8.0
51.16,-10.0
51.22,-11.0
51.28,5.0
51.35,-16.0
51.41,-6.0
51.47,-9.0
51.53,-22.0
51.6,-25.0
51.66,-4.0
51.72,-24.0
51.79,-13.0
51.85,-6.0
51.91,-9.0
51.98,5.0
52.04,-3.0
52.1,-15.0
52.16,-20.0
52.23,0.0
52.29,-9.0
52.35,-24.0
52.42,-7.0
52.48,-26.0
52.54,-21.0
52.61,-8.0
52.67,-23.0
52.73,-32.0
52.79,-39.0
52.86,-23.0
52.92,-27.0
52.98,-26.0
53.05,-21.0
53.11,-32.0
53.17,-46.0
53.24,-68.0
53.3,-59.0
53.36,-43.0
53.42,-36.0
53.49,-40.0
53.55,-46.0
53.61,-46.0
53.68,-52.0
53.74,-47.0
53.8,-40.0
53.87,-39.0
53.93,-42.0
53.99,-43.0
54.05,-49.0
54.12,-38.0
54.18,-40.0
54.24,-61.0
54.31,-65.0
54.37,-66.0
54.43,-45.0
54.5,-49.0
54.56,-61.0
54.62,-75.0
54.68,-97.0
54.75,-82.0
54.81,-58.0
54.87,-64.0
54.94,-65.0
55.0,-78.0
55.06,-77.0
55.13,-94.0
55.19,-87.0
55.25,-73.0
55.31,-82.0
55.38,-75.0
55.44,-76.0
55.5,-84.0
55.57,-102.0
55.63,-83.0
55.69,-86.0
55.76,-100.0
55.82,-98.0
55.88,-84.0
55.94,-94.0
56.01,-103.0
56.07,-97.0
56.13,-93.0
56.2,-70.0
56.26,-97.0
56.32,-101.0
56.39,-111.0
56.45,-101.0
56.51,-106.0
56.57,-100.0
56.64,-101.0
56.7,-114.0
56.76,-131.0
56.83,-132.0
56.89,-131.0
56.95,-125.0
57.02,-117.0
57.08,-106.0
57.14,-107.0
57.2,-119.0
57.27,-115.0
57.33,-127.0
57.39,-130.0
57.46,-103.0
57.52,-113.0
57.58,-120.0
57.65,-144.0
57.71,-124.0
57.77,-127.0
57.83,-119.0
57.9,-112.0
57.96,-123.0
58.02,-120.0
58.09,-106.0
58.15,-104.0
58.21,-112.0
58.28,-113.0
58.34,-96.0
58.4,-105.0
58.46,-97.0
58.53,-110.0
58.59,-117.0
58.65,-95.0
58.72,-100.0
58.78,-96.0
58.84,-100.0
58.91,-109.0
58.97,-117.0
59.03,-106.0
59.09,-110.0
59.16,-108.0
59.22,-112.0
59.28,-89.0
59.35,-87.0
59.41,-109.0
59.47,-82.0
59.54,-78.0
59.6,-64.0
59.66,-66.0
59.72,-57.0
59.79,-55.0
59.85,-79.0
59.91,-63.0
59.98,-90.0
60.04,-89.0
60.1,-69.0
60.17,-56.0
60.23,-56.0
60.29,-75.0
60.35,-75.0
60.42,-75.0
60.48,-42.0
60.54,-56.0
60.61,-68.0
60.67,-71.0
60.73,-64.0
60.8,-46.0
60.86,-55.0
60.92,-62.0
60.98,-54.0
61.05,-54.0
61.11,-66.0
61.17,-62.0
61.24,-72.0
61.3,-52.0
61.36,-72.0
61.43,-67.0
61.49,-59.0
61.55,-60.0
61.61,-70.0
61.68,-61.0
61.74,-67.0
61.8,-78.0
61.87,-63.0
61.93,-78.0
61.99,-72.0
62.06,-85.0
62.12,-90.0
62.18,-72.0
62.24,-81.0
62.31,-85.0
62.37,-78.0
62.43,-78.0
62.5,-99.0
62.56,-87.0
62.62,-88.0
62.69,-91.0
62.75,-90.0
62.81,-71.0
62.87,-80.0
62.94,-65.0
63.0,-64.0
63.06,-71.0
63.13,-76.0
63.19,-74.0
63.25,-59.0
63.32,-73.0
63.38,-57.0
63.44,-69.0
63.5,-76.0
63.57,-71.0
63.63,-57.0
63.69,-73.0
63.76,-75.0
63.82,-63.0
63.88,-70.0
63.95,-56.0
64.01,-69.0
64.07,-71.0
64.13,-69.0
64.2,-57.0
64.26,-56.0
64.32,-65.0
64.39,-42.0
64.45,-43.0
64.51,-31.0
64.58,-46.0
64.64,-42.0
64.7,-35.0
64.76,-50.0
64.83,-36.0
64.89,-30.0
64.95,-19.0
65.02,-30.0
65.08,-13.0
65.14,4.0
65.21,15.0
65.27,4.0
65.33,3.0
65.39,16.0
65.46,12.0
65.52,6.0
65.58,8.0
65.65,8.0
65.71,12.0
65.77,7.0
65.84,23.0
65.9,35.0
65.96,27.0
66.02,36.0
66.09,38.0
66.15,38.0
66.21,24.0
66.28,23.0
66.34,29.0
66.4,12.0
66.47,16.0
66.53,39.0
66.59,52.0
66.65,41.0
66.72,50.0
66.78,50.0
66.84,37.0
66.91,49.0
66.97,55.0
67.03,53.0
67.1,60.0
67.16,46.0
67.22,39.0
67.28,18.0
67.35,47.0
67.41,38.0
67.47,46.0
67.54,42.0
67.6,40.0
67.66,43.0
67.73,46.0
67.79,50.0
67.85,51.0
67.91,51.0
67.98,49.0
68.04,53.0
68.1,57.0
68.17,60.0
68.23,59.0
68.29,43.0
68.36,53.0
68.42,56.0
68.48,45.0
68.54,45.0
68.61,45.0
68.67,33.0
68.73,52.0
68.8,53.0
68.86,34.0
68.92,52.0
68.99,62.0
69.05,51.0
69.11,48.0
69.17,51.0
69.24,71.0
69.3,62.0
69.36,63.0
69.43,64.0
69.49,66.0
69.55,77.0
69.62,44.0
69.68,38.0
69.74,58.0
69.8,67.0
69.87,57.0
69.93,60.0
69.99,61.0
70.06,66.0
70.12,46.0
70.18,35.0
70.25,59.0
70.31,46.0
70.37,67.0
70.43,56.0
70.5,57.0
70.56,45.0
70.62,45.0
70.69,52.0
70.75,46.0
70.81,59.0
70.88,43.0
70.94,46.0
71.0,35.0
71.06,36.0
71.13,37.0
71.19,57.0
71.25,42.0
71.32,29.0
71.38,49.0
71.44,57.0
71.51,58.0
71.57,71.0
71.63,57.0
71.69,38.0
71.76,37.0
71.82,38.0
71.88,45.0
71.95,38.0
72.01,52.0
72.07,56.0
72.14,60.0
72.2,60.0
72.26,62.0
72.32,55.0
72.39,75.0
72.45,46.0
72.51,51.0
72.58,60.0
72.64,65.0
72.7,81.0
72.77,65.0
72.83,54.0
72.89,71.0
72.95,71.0
73.02,60.0
73.08,56.0
73.14,59.0
73.21,65.0
73.27,65.0
73.33,71.0
73.4,78.0
73.46,88.0
73.52,89.0
73.58,89.0
73.65,84.0
73.71,87.0
73.77,79.0
73.84,76.0
73.9,83.0
73.96,94.0
74.03,93.0
74.09,89.0
74.15,111.0
74.21,88.0
74.28,69.0
74.34,73.0
74.4,98.0
74.47,112.0
74.53,114.0
74.59,90.0
74.66,90.0
74.72,85.0
74.78,79.0
74.84,90.0
74.91,84.0
74.97,85.0
75.03,87.0
75.1,70.0
75.16,82.0
75.22,101.0
75.29,100.0
75.35,78.0
75.41,82.0
75.47,63.0
75.54,81.0
75.6,89.0
75.66,76.0
75.73,87.0
75.79,87.0
75.85,65.0
75.92,93.0
75.98,87.0
76.04,108.0
76.1,96.0
76.17,79.0
76.23,106.0
76.29,99.0
76.36,126.0
76.42,126.0
76.48,113.0
76.55,119.0
76.61,124.0
76.67,141.0
76.73,107.0
76.8,137.0
76.86,134.0
76.92,102.0
76.99,123.0
77.05,110.0
77.11,104.0
77.18,118.0
77.24,133.0
77.3,145.0
77.36,123.0
77.43,128.0
77.49,122.0
77.55,112.0
77.62,113.0
77.68,115.0
77.74,102.0
77.81,98.0
77.87,74.0
77.93,78.0
77.99,55.0
78.06,67.0
78.12,90.0
78.18,82.0
78.25,68.0
78.31,65.0
78.37,63.0
78.44,73.0
78.5,80.0
78.56,77.0
78.62,70.0
78.69,76.0
78.75,96.0
78.81,70.0
78.88,38.0
78.94,60.0
79.0,74.0
79.07,73.0
79.13,84.0
79.19,61.0
79.25,26.0
79.32,42.0
79.38,54.0
79.44,52.0
79.51,45.0
79.57,37.0
79.63,15.0
79.7,-10.0
79.76,3.0
79.82,11.0
79.88,-11.0
79.95,15.0
80.01,20.0
80.07,24.0
80.14,21.0
80.2,19.0
80.26,21.0
80.33,24.0
80.39,36.0
80.45,21.0
80.51,20.0
80.58,33.0
80.64,38.0
80.7,34.0
80.77,19.0
80.83,15.0
80.89,40.0
80.96,28.0
81.02,33.0
81.08,38.0
81.14,17.0
81.21,18.0
81.27,-6.0
81.33,-20.0
81.4,-27.0
81.46,-9.0
81.52,-31.0
81.59,-46.0
81.65,-22.0
81.71,-40.0
81.77,-32.0
81.84,-43.0
81.9,-42.0
81.96,-44.0
82.03,-35.0
82.09,-52.0
82.15,-49.0
82.22,-33.0
82.28,-24.0
82.34,-30.0
82.4,-53.0
82.47,-31.0
82.53,-43.0
82.59,-32.0
82.66,-37.0
82.72,-20.0
82.78,-12.0
82.85,-18.0
82.91,-7.0
82.97,-13.0
83.03,-8.0
83.1,14.0
83.16,-3.0
83.22,0.0
83.29,2.0
83.35,-7.0
83.41,-3.0
83.48,18.0
83.54,2.0
83.6,-25.0
83.66,-31.0
83.73,0.0
83.79,-10.0
83.85,-12.0
83.92,-44.0
83.98,-39.0
84.04,-25.0
84.11,-13.0
84.17,-12.0
84.23,-17.0
84.29,-20.0
84.36,-14.0
84.42,-9.0
84.48,-23.0
84.55,-28.0
84.61,-27.0
84.67,-44.0
84.74,-36.0
84.8,-6.0
84.86,-10.0
84.92,-17.0
84.99,-15.0
85.05,-18.0
85.11,-7.0
85.18,-31.0
85.24,-34.0
85.3,-40.0
85.37,-29.0
85.43,-24.0
85.49,-42.0
85.55,-45.0
85.62,-57.0
85.68,-53.0
85.74,-51.0
85.81,-22.0
85.87,-26.0
85.93,-17.0
86.0,-2.0
86.06,-26.0
86.12,-2.0
86.18,-34.0
86.25,-51.0
86.31,-42.0
86.37,-58.0
86.44,-56.0
86.5,-48.0
86.56,-65.0
86.63,-68.0
86.69,-41.0
86.75,-21.0
86.81,-21.0
86.88,-47.0
86.94,-37.0
87.0,-30.0
87.07,-43.0
87.13,-69.0
87.19,-38.0
87.26,-38.0
87.32,-33.0
87.38,-8.0
87.44,-26.0
87.51,-43.0
87.57,-47.0
87.63,-27.0
87.7,-21.0
87.76,-20.0
87.82,-15.0
87.89,-20.0
87.95,-22.0
88.01,-1.0
88.07,-3.0
88.14,-11.0
88.2,-27.0
88.26,-13.0
88.33,-25.0
88.39,-19.0
88.45,-9.0
88.52,-20.0
88.58,-15.0
88.64,-30.0
88.7,-37.0
88.77,-27.0
88.83,-27.0
88.89,-13.0
88.96,-23.0
89.02,-36.0
89.08,-39.0
89.15,-23.0
89.21,-25.0
89.27,-25.0
89.33,-20.0
89.4,-16.0
89.46,-16.0
89.52,-13.0
89.59,-12.0
89.65,-18.0
89.71,-10.0
89.78,-14.0
89.84,-20.0
89.9,-1.0
89.96,-19.0
90.03,-16.0
90.09,5.0
90.15,-3.0
90.22,-3.0
90.28,1.0
90.34,-8.0
90.41,12.0
90.47,-2.0
90.53,1.0
90.59,-27.0
90.66,-35.0
90.72,-17.0
90.78,-4.0
90.85,-8.0
90.91,-7.0
90.97,-4.0
91.04,-24.0
91.1,-12.0
91.16,-10.0
91.22,-4.0
91.29,-5.0
91.35,4.0
91.41,7.0
91.48,-4.0
91.54,34.0
91.6,32.0
91.67,34.0
91.73,48.0
91.79,48.0
91.85,48.0
91.92,49.0
91.98,48.0
92.04,52.0
92.11,42.0
92.17,43.0
92.23,64.0
92.3,52.0
92.36,72.0
92.42,71.0
92.48,74.0
92.55,90.0
92.61,81.0
92.67,90.0
92.74,76.0
92.8,80.0
92.86,70.0
92.93,92.0
92.99,57.0
93.05,90.0
93.11,78.0
93.18,71.0
93.24,84.0
93.3,80.0
93.37,79.0
93.43,89.0
93.49,92.0
93.56,97.0
93.62,98.0
93.68,104.0
93.74,95.0
93.81,121.0
93.87,122.0
93.93,125.0
94.0,138.0
94.06,119.0
94.12,137.0
94.19,122.0
94.25,103.0
94.31,123.0
94.37,108.0
94.44,122.0
94.5,112.0
94.56,105.0
94.63,117.0
94.69,121.0
94.75,133.0
94.82,148.0
94.88,146.0
94.94,152.0
95.0,130.0
95.07,129.0
95.13,143.0
95.19,127.0
95.26,121.0
95.32,122.0
95.38,116.0
95.45,128.0
95.51,136.0
95.57,135.0
95.63,128.0
95.7,109.0
95.76,126.0
95.82,128.0
95.89,114.0
95.95,124.0
96.01,108.0
96.08,114.0
96.14,103.0
96.2,105.0
96.26,89.0
96.33,101.0
96.39,97.0
96.45,107.0
96.52,111.0
96.58,112.0
96.64,110.0
96.71,129.0
96.77,121.0
96.83,113.0
96.89,109.0
96.96,128.0
97.02,143.0
97.08,119.0
97.15,122.0
97.21,116.0
97.27,119.0
97.34,120.0
97.4,119.0
97.46,103.0
97.52,93.0
97.59,81.0
97.65,92.0
97.71,98.0
97.78,97.0
97.84,89.0
97.9,92.0
97.97,96.0
98.03,112.0
98.09,88.0
98.15,106.0
98.22,113.0
98.28,101.0
98.34,105.0
98.41,109.0
98.47,96.0
98.53,110.0
98.6,124.0
98.66,106.0
98.72,116.0
98.78,130.0
98.85,120.0
98.91,104.0
98.97,116.0
99.04,101.0
99.1,101.0
99.16,90.0
99.23,101.0
99.29,104.0
99.35,111.0
99.41,109.0
99.48,111.0
99.54,117.0
99.6,104.0
99.67,113.0
99.73,126.0
99.79,128.0
99.86,108.0
99.92,106.0
99.98,119.0
100.04,121.0
100.11,119.0
100.17,119.0
100.23,120.0
100.3,113.0
100.36,92.0
100.42,85.0
100.49,119.0
100.55,108.0
100.61,85.0
100.67,86.0
100.74,91.0
100.8,83.0
100.86,71.0
100.93,89.0
100.99,100.0
101.05,80.0
101.12,84.0
101.18,80.0
101.24,79.0
101.3,85.0
101.37,88.0
101.43,79.0
101.49,74.0
101.56,72.0
101.62,82.0
101.68,89.0
101.75,55.0
101.81,50.0
101.87,50.0
101.93,50.0
102.0,66.0
102.06,59.0
102.12,67.0
102.19,78.0
102.25,91.0
102.31,68.0
102.38,73.0
102.44,89.0
102.5,85.0
102.56,84.0
102.63,64.0
102.69,100.0
102.75,99.0
102.82,84.0
102.88,92.0
102.94,75.0
103.01,78.0
103.07,89.0
103.13,96.0
103.19,88.0
103.26,86.0
103.32,115.0
103.38,126.0
103.45,96.0
103.51,93.0
103.57,108.0
103.64,104.0
103.7,94.0
103.76,109.0
103.82,88.0
103.89,99.0
103.95,113.0
104.01,106.0
104.08,101.0
104.14,98.0
104.2,87.0
104.27,88.0
104.33,89.0
104.39,97.0
104.45,100.0
104.52,81.0
104.58,76.0
104.64,91.0
104.71,66.0
104.77,76.0
104.83,63.0
104.9,81.0
104.96,99.0
105.02,90.0
105.08,92.0
105.15,80.0
105.21,64.0
105.27,59.0
105.34,79.0
105.4,71.0
105.46,53.0
105.53,40.0
105.59,48.0
105.65,29.0
105.71,11.0
105.78,38.0
105.84,51.0
105.9,55.0
105.97,46.0
106.03,49.0
106.09,30.0
106.16,31.0
106.22,16.0
106.28,20.0
106.34,28.0
106.41,34.0
106.47,42.0
106.53,16.0
106.6,18.0
106.66,26.0
106.72,28.0
106.79,9.0
106.85,21.0
106.91,2.0
106.97,10.0
107.04,4.0
107.1,13.0
107.16,30.0
107.23,2.0
107.29,-13.0
107.35,-11.0
107.42,-1.0
107.48,0.0
107.54,-11.0
107.6,-31.0
107.67,-8.0
107.73,2.0
107.79,-26.0
107.86,-7.0
107.92,-7.0
107.98,-4.0
108.05,1.0
108.11,-6.0
108.17,-2.0
108.23,-22.0
108.3,-36.0
108.36,-5.0
108.42,-14.0
108.49,-6.0
108.55,5.0
108.61,-17.0
108.68,-23.0
108.74,-24.0
108.8,-27.0
108.86,-23.0
108.93,-10.0
108.99,-14.0
109.05,-10.0
109.12,-9.0
109.18,6.0
109.24,-8.0
109.31,-8.0
109.37,2.0
109.43,-9.0
109.49,-3.0
109.56,-8.0
109.62,-5.0
109.68,-29.0
109.75,-13.0
109.81,-11.0
109.87,-13.0
109.94,10.0
110.0,-15.0
110.06,-19.0
110.12,-19.0
110.19,-10.0
110.25,-19.0
110.31,-19.0
110.38,-17.0
110.44,-12.0
110.5,-13.0
110.57,5.0
110.63,14.0
110.69,12.0
110.75,32.0
110.82,35.0
110.88,23.0
110.94,10.0
111.01,-4.0
111.07,-4.0
111.13,-14.0
111.2,-5.0
111.26,9.0
111.32,-3.0
111.38,-16.0
111.45,-23.0
111.51,-15.0
111.57,-6.0
111.64,-10.0
111.7,-23.0
111.76,-24.0
111.83,-14.0
111.89,-11.0
111.95,-28.0
112.01,-5.0
112.08,0.0
112.14,-18.0
112.2,-5.0
112.27,-9.0
112.33,-22.0
112.39,-5.0
112.46,-22.0
112.52,-7.0
112.58,5.0
112.64,-9.0
112.71,15.0
112.77,2.0
112.83,-20.0
112.9,-11.0
112.96,-6.0
113.02,12.0
113.09,0.0
113.15,-9.0
113.21,5.0
113.27,-1.0
113.34,-10.0
113.4,0.0
113.46,-15.0
113.53,-13.0
113.59,-11.0
113.65,-2.0
113.72,-3.0
113.78,7.0
113.84,12.0
113.9,12.0
113.97,-3.0
114.03,11.0
114.09,18.0
114.16,14.0
114.22,15.0
114.28,12.0
114.35,10.0
114.41,18.0
114.47,23.0
114.53,15.0
114.6,28.0
114.66,27.0
114.72,20.0
114.79,13.0
114.85,10.0
114.91,6.0
114.98,11.0
115.04,13.0
115.1,7.0
115.16,21.0
115.23,26.0
115.29,-4.0
115.35,1.0
115.42,6.0
115.48,13.0
115.54,6.0
115.61,18.0
115.67,2.0
115.73,-8.0
115.79,6.0
115.86,26.0
115.92,12.0
115.98,33.0
116.05,23.0
116.11,30.0
116.17,32.0
116.24,26.0
116.3,32.0
116.36,42.0
116.42,42.0
116.49,36.0
116.55,39.0
116.61,59.0
116.68,53.0
116.74,55.0
116.8,70.0
116.87,48.0
116.93,52.0
116.99,56.0
117.05,64.0
117.12,52.0
117.18,55.0
117.24,51.0
117.31,48.0
117.37,33.0
117.43,44.0
117.5,44.0
117.56,41.0
117.62,42.0
117.68,28.0
117.75,42.0
117.81,50.0
117.87,33.0
117.94,30.0
118.0,33.0
118.06,61.0
118.13,57.0
118.19,47.0
118.25,54.0
118.31,61.0
118.38,52.0
118.44,57.0
118.5,62.0
118.57,50.0
118.63,76.0
118.69,71.0
118.76,60.0
118.82,67.0
118.88,70.0
118.94,70.0
119.01,80.0
119.07,99.0
119.13,73.0
119.2,83.0
119.26,78.0
119.32,52.0
119.39,68.0
119.45,68.0
119.51,75.0
119.57,106.0
119.64,99.0
119.7,82.0
119.76,93.0
119.83,74.0
119.89,92.0
119.95,88.0
120.02,98.0
120.08,110.0
120.14,111.0
120.2,102.0
120.27,99.0
120.33,118.0
120.39,106.0
120.46,92.0
120.52,87.0
120.58,105.0
120.65,114.0
120.71,89.0
120.77,95.0
120.83,115.0
120.9,108.0
120.96,104.0
121.02,117.0
121.09,113.0
121.15,108.0
121.21,111.0
121.28,123.0
121.34,128.0
121.4,113.0
121.46,120.0
121.53,125.0
121.59,129.0
121.65,129.0
121.72,113.0
121.78,121.0
121.84,124.0
121.91,141.0
121.97,130.0
122.03,119.0
122.09,144.0
122.16,130.0
122.22,149.0
122.28,162.0
122.35,151.0
122.41,156.0
122.47,161.0
122.54,163.0
122.6,152.0
122.66,155.0
122.72,170.0
122.79,150.0
122.85,157.0
122.91,152.0
122.98,166.0
123.04,148.0
123.1,145.0
123.17,141.0
123.23,147.0
123.29,148.0
123.35,134.0
123.42,115.0
123.48,119.0
123.54,125.0
123.61,130.0
123.67,141.0
123.73,132.0
123.8,136.0
123.86,151.0
123.92,148.0
123.98,138.0
124.05,132.0
124.11,112.0
124.17,108.0
124.24,144.0
124.3,151.0
124.36,133.0
124.43,129.0
124.49,132.0
124.55,104.0
124.61,135.0
124.68,118.0
124.74,123.0
124.8,134.0
124.87,151.0
124.93,130.0
124.99,130.0
125.06,149.0
125.12,163.0
125.18,146.0
125.24,133.0
125.31,142.0
125.37,136.0
125.43,154.0
125.5,136.0
125.56,151.0
125.62,137.0
125.69,114.0
125.75,115.0
125.81,135.0
125.87,159.0
125.94,155.0
126.0,144.0
126.06,123.0
126.13,151.0
126.19,155.0
126.25,148.0
126.32,143.0
126.38,156.0
126.44,147.0
126.5,152.0
126.57,137.0
126.63,142.0
126.69,132.0
126.76,130.0
126.82,150.0
126.88,138.0
126.95,150.0
127.01,159.0
127.07,138.0
127.13,137.0
127.2,143.0
127.26,143.0
127.32,145.0
127.39,151.0
127.45,146.0
127.51,148.0
127.58,143.0
127.64,135.0
127.7,127.0
127.76,129.0
127.83,157.0
127.89,160.0
127.95,156.0
128.02,155.0
128.08,137.0
128.14,137.0
128.21,142.0
128.27,155.0
128.33,138.0
128.39,139.0
128.46,149.0
128.52,145.0
128.58,152.0
128.65,142.0
128.71,147.0
128.77,144.0
128.84,143.0
128.9,133.0
128.96,144.0
129.02,138.0
129.09,128.0
129.15,135.0
129.21,113.0
129.28,99.0
129.34,104.0
129.4,110.0
129.47,110.0
129.53,107.0
129.59,104.0
129.65,101.0
129.72,112.0
129.78,111.0
129.84,122.0
129.91,108.0
129.97,82.0
130.03,93.0
130.1,90.0
130.16,83.0
130.22,90.0
130.28,75.0
130.35,71.0
130.41,83.0
130.47,80.0
130.54,78.0
130.6,75.0
130.66,88.0
130.73,75.0
130.79,91.0
130.85,67.0
130.91,71.0
130.98,86.0
131.04,73.0
131.1,71.0
131.17,55.0
131.23,64.0
131.29,74.0
131.36,68.0
131.42,72.0
131.48,93.0
131.54,94.0
131.61,86.0
131.67,93.0
131.73,93.0
131.8,82.0
131.86,84.0
131.92,88.0
131.99,86.0
132.05,90.0
132.11,82.0
132.17,68.0
132.24,84.0
132.3,75.0
132.36,78.0
132.43,68.0
132.49,64.0
132.55,66.0
132.62,75.0
132.68,70.0
132.74,57.0
132.8,49.0
132.87,52.0
132.93,73.0
132.99,80.0
133.06,65.0
133.12,61.0
133.18,96.0
133.25,74.0
133.31,54.0
133.37,75.0
133.43,70.0
133.5,81.0
133.56,80.0
133.62,78.0
133.69,70.0
133.75,67.0
133.81,49.0
133.88,38.0
133.94,89.0
134.0,79.0
134.06,85.0
134.13,54.0
134.19,64.0
134.25,85.0
134.32,68.0
134.38,58.0
134.44,63.0
134.51,48.0
134.57,59.0
134.63,57.0
134.69,49.0
134.76,65.0
134.82,44.0
134.88,36.0
134.95,33.0
135.01,44.0
135.07,61.0
135.14,42.0
135.2,49.0
135.26,59.0
135.32,67.0
135.39,57.0
135.45,64.0
135.51,68.0
135.58,55.0
135.64,49.0
135.7,48.0
135.77,66.0
135.83,64.0
135.89,43.0
135.95,67.0
136.02,62.0
136.08,40.0
136.14,44.0
136.21,50.0
136.27,64.0
136.33,60.0
136.4,53.0
136.46,39.0
136.52,42.0
136.58,22.0
136.65,30.0
136.71,41.0
136.77,38.0
136.84,40.0
136.9,43.0
136.96,35.0
137.03,23.0
137.09,33.0
137.15,33.0
137.21,27.0
137.28,31.0
137.34,26.0
137.4,24.0
137.47,20.0
137.53,30.0
137.59,43.0
137.66,27.0
137.72,42.0
137.78,45.0
137.84,36.0
137.91,45.0
137.97,34.0
138.03,35.0
138.1,51.0
138.16,46.0
138.22,25.0
138.29,16.0
138.35,24.0
138.41,31.0
138.47,44.0
138.54,43.0
138.6,40.0
138.66,39.0
138.73,20.0
138.79,38.0
138.85,57.0
138.92,71.0
138.98,57.0
139.04,53.0
139.1,54.0
139.17,27.0
139.23,41.0
139.29,36.0
139.36,49.0
139.42,32.0
139.48,40.0
139.55,39.0
139.61,32.0
139.67,49.0
139.73,46.0
139.8,47.0
139.86,35.0
139.92,50.0
139.99,50.0
140.05,50.0
140.11,21.0
140.18,28.0
140.24,37.0
140.3,28.0
140.36,36.0
140.43,13.0
140.49,28.0
140.55,20.0
140.62,7.0
140.68,16.0
140.74,35.0
140.81,46.0
140.87,30.0
140.93,39.0
140.99,39.0
141.06,38.0
141.12,33.0
141.18,33.0
141.25,18.0
141.31,25.0
141.37,23.0
141.44,28.0
141.5,34.0
141.56,18.0
141.62,13.0
141.69,1.0
141.75,21.0
141.81,30.0
141.88,21.0
141.94,38.0
142.0,35.0
142.07,57.0
142.13,54.0
142.19,68.0
142.25,77.0
142.32,54.0
142.38,59.0
142.44,47.0
142.51,57.0
142.57,53.0
142.63,65.0
142.7,27.0
142.76,36.0
142.82,53.0
142.88,66.0
142.95,37.0
143.01,31.0
143.07,39.0
143.14,51.0
143.2,42.0
143.26,64.0
143.33,60.0
143.39,55.0
143.45,80.0
143.51,50.0
143.58,58.0
143.64,51.0
143.7,52.0
143.77,52.0
143.83,36.0
143.89,60.0
143.96,55.0
144.02,39.0
144.08,49.0
144.14,49.0
144.21,56.0
144.27,67.0
144.33,67.0
144.4,71.0
144.46,53.0
144.52,64.0
144.59,56.0
144.65,67.0
144.71,77.0
144.77,49.0
144.84,53.0
144.9,66.0
144.96,67.0
145.03,54.0
145.09,39.0
145.15,77.0
145.22,56.0
145.28,56.0
145.34,44.0
145.4,43.0
145.47,55.0
145.53,60.0
145.59,38.0
145.66,68.0
145.72,71.0
145.78,60.0
145.85,57.0
145.91,57.0
145.97,74.0
146.03,71.0
146.1,66.0
146.16,62.0
146.22,59.0
146.29,65.0
146.35,75.0
146.41,66.0
146.47,75.0
146.54,51.0
146.6,40.0
146.66,46.0
146.73,46.0
146.79,44.0
146.85,36.0
146.92,57.0
146.98,71.0
147.04,64.0
147.1,72.0
147.17,73.0
147.23,68.0
147.29,92.0
147.36,71.0
147.42,79.0
147.48,75.0
147.55,70.0
147.61,67.0
147.67,47.0
147.73,49.0
147.8,60.0
147.86,72.0
147.92,78.0
147.99,93.0
148.05,87.0
148.11,90.0
148.18,85.0
148.24,72.0
148.3,81.0
148.36,80.0
148.43,97.0
148.49,106.0
148.55,104.0
148.62,112.0
148.68,99.0
148.74,81.0
148.81,89.0
148.87,110.0
148.93,110.0
148.99,91.0
149.06,102.0
149.12,96.0
149.18,112.0
149.25,132.0
149.31,124.0
149.37,124.0
149.44,126.0
149.5,142.0
149.56,151.0
149.62,137.0
149.69,151.0
149.75,154.0
149.81,149.0
149.88,129.0
149.94,149.0
150.0,141.0
150.07,146.0
150.13,149.0
150.19,139.0
150.25,129.0
150.32,137.0
150.38,148.0
150.44,137.0
150.51,121.0
150.57,135.0
150.63,134.0
150.7,121.0
150.76,147.0
150.82,136.0
150.88,126.0
150.95,141.0
151.01,147.0
151.07,129.0
151.14,129.0
151.2,166.0
151.26,155.0
151.33,155.0
151.39,156.0
151.45,163.0
151.51,145.0
151.58,161.0
151.64,168.0
151.7,167.0
151.77,166.0
151.83,176.0
151.89,165.0
151.96,158.0
152.02,137.0
152.08,148.0
152.14,141.0
152.21,159.0
152.27,152.0
152.33,160.0
152.4,150.0
152.46,139.0
152.52,161.0
152.59,148.0
152.65,133.0
152.71,131.0
152.77,141.0
152.84,143.0
152.9,151.0
152.96,143.0
153.03,160.0
153.09,142.0
153.15,137.0
153.22,152.0
153.28,138.0
153.34,131.0
153.4,141.0
153.47,143.0
153.53,131.0
153.59,135.0
153.66,112.0
153.72,126.0
153.78,123.0
153.85,134.0
153.91,127.0
153.97,131.0
154.03,137.0
154.1,131.0
154.16,126.0
154.22,120.0
154.29,110.0
154.35,110.0
154.41,118.0
154.48,113.0
154.54,110.0
154.6,108.0
154.66,121.0
154.73,120.0
154.79,129.0
154.85,125.0
154.92,129.0
154.98,122.0
155.04,126.0
155.11,110.0
155.17,121.0
155.23,114.0
155.29,126.0
155.36,140.0
155.42,111.0
155.48,126.0
155.55,100.0
155.61,106.0
155.67,108.0
155.74,91.0
155.8,96.0
155.86,91.0
155.92,103.0
155.99,91.0
156.05,79.0
156.11,89.0
156.18,91.0
156.24,85.0
156.3,81.0
156.37,107.0
156.43,115.0
156.49,97.0
156.55,91.0
156.62,77.0
156.68,99.0
156.74,87.0
156.81,77.0
156.87,74.0
156.93,58.0
157.0,70.0
157.06,67.0
157.12,81.0
157.18,60.0
157.25,62.0
157.31,57.0
157.37,59.0
157.44,49.0
157.5,64.0
157.56,27.0
157.63,45.0
157.69,60.0
157.75,34.0
157.81,40.0
157.88,47.0
157.94,42.0
158.0,34.0
158.07,40.0
158.13,38.0
158.19,45.0
158.26,27.0
158.32,16.0
158.38,8.0
158.44,31.0
158.51,36.0
158.57,30.0
158.63,33.0
158.7,38.0
158.76,18.0
158.82,21.0
158.89,27.0
158.95,24.0
159.01,27.0
159.07,13.0
159.14,32.0
159.2,37.0
159.26,20.0
159.33,33.0
159.39,14.0
159.45,5.0
159.52,41.0
159.58,21.0
159.64,30.0
159.7,3.0
159.77,13.0
159.83,14.0
159.89,-14.0
159.96,1.0
160.02,7.0
160.08,-16.0
160.15,-9.0
160.21,-11.0
160.27,28.0
160.33,19.0
160.4,-2.0
160.46,-4.0
160.52,4.0
160.59,23.0
160.65,25.0
160.71,16.0
160.78,31.0
160.84,20.0
160.9,4.0
160.96,9.0
161.03,9.0
161.09,21.0
161.15,12.0
161.22,23.0
161.28,19.0
161.34,29.0
161.41,20.0
161.47,17.0
161.53,30.0
161.59,27.0
161.66,29.0
161.72,52.0
161.78,54.0
161.85,34.0
161.91,23.0
161.97,36.0
162.04,38.0
162.1,20.0
162.16,33.0
162.22,61.0
162.29,56.0
162.35,52.0
162.41,37.0
162.48,50.0
162.54,37.0
162.6,27.0
162.67,20.0
162.73,2.0
162.79,-1.0
162.85,4.0
162.92,-7.0
162.98,-18.0
163.04,-12.0
163.11,-16.0
163.17,8.0
163.23,6.0
163.3,5.0
163.36,23.0
163.42,8.0
163.48,17.0
163.55,16.0
163.61,18.0
163.67,18.0
163.74,25.0
163.8,6.0
163.86,16.0
163.93,12.0
163.99,10.0
164.05,50.0
164.11,6.0
164.18,10.0
164.24,15.0
164.3,19.0
164.37,-2.0
164.43,20.0
164.49,36.0
164.56,25.0
164.62,31.0
164.68,31.0
164.74,34.0
164.81,31.0
164.87,34.0
164.93,15.0
165.0,26.0
165.06,52.0
165.12,62.0
165.19,56.0
165.25,40.0
165.31,38.0
165.37,28.0
165.44,32.0
165.5,17.0
165.56,23.0
165.63,13.0
165.69,13.0
165.75,33.0
165.82,39.0
165.88,41.0
165.94,43.0
166.0,25.0
166.07,33.0
166.13,38.0
166.19,44.0
166.26,40.0
166.32,41.0
166.38,67.0
166.45,47.0
166.51,25.0
166.57,39.0
166.63,38.0
166.7,34.0
166.76,64.0
166.82,39.0
166.89,42.0
166.95,47.0
167.01,59.0
167.08,65.0
167.14,63.0
167.2,62.0
167.26,63.0
167.33,46.0
167.39,41.0
167.45,52.0
167.52,46.0
167.58,33.0
167.64,44.0
167.71,42.0
167.77,44.0
167.83,58.0
167.89,37.0
167.96,31.0
168.02,37.0
168.08,33.0
168.15,30.0
168.21,22.0
168.27,22.0
168.34,8.0
168.4,8.0
168.46,18.0
168.52,23.0
168.59,29.0
168.65,37.0
168.71,31.0
168.78,38.0
168.84,11.0
168.9,14.0
168.97,21.0
169.03,13.0
169.09,19.0
169.15,19.0
169.22,18.0
169.28,5.0
169.34,10.0
169.41,-1.0
169.47,17.0
169.53,21.0
169.6,8.0
169.66,8.0
169.72,10.0
169.78,13.0
169.85,11.0
169.91,27.0
169.97,31.0
170.04,23.0
170.1,29.0
170.16,33.0
170.23,43.0
170.29,28.0
170.35,48.0
170.41,18.0
170.48,16.0
170.54,27.0
170.6,24.0
170.67,1.0
170.73,13.0
170.79,-3.0
170.86,-13.0
170.92,-13.0
170.98,0.0
171.04,4.0
171.11,-14.0
171.17,-15.0
171.23,-6.0
171.3,4.0
171.36,3.0
171.42,1.0
171.49,0.0
171.55,3.0
171.61,-1.0
171.67,24.0
171.74,13.0
171.8,29.0
171.86,18.0
171.93,20.0
171.99,19.0
172.05,28.0
172.12,25.0
172.18,14.0
172.24,24.0
172.3,22.0
172.37,32.0
172.43,18.0
172.49,28.0
172.56,28.0
172.62,31.0
172.68,29.0
172.75,24.0
172.81,16.0
172.87,17.0
172.93,23.0
173.0,20.0
173.06,41.0
173.12,33.0
173.19,37.0
173.25,32.0
173.31,49.0
173.38,52.0
173.44,49.0
173.5,54.0
173.56,26.0
173.63,34.0
173.69,64.0
173.75,66.0
173.82,69.0
173.88,58.0
173.94,69.0
174.01,58.0
174.07,67.0
174.13,69.0
174.19,68.0
174.26,41.0
174.32,66.0
174.38,77.0
174.45,63.0
174.51,69.0
174.57,76.0
174.64,82.0
174.7,62.0
174.76,66.0
174.82,87.0
174.89,65.0
174.95,52.0
175.01,80.0
175.08,76.0
175.14,75.0
175.2,87.0
175.27,79.0
175.33,99.0
175.39,100.0
175.45,120.0
175.52,124.0
175.58,101.0
175.64,103.0
175.71,104.0
175.77,102.0
175.83,99.0
175.9,77.0
175.96,69.0
176.02,79.0
176.08,72.0
176.15,89.0
176.21,94.0
176.27,86.0
176.34,94.0
176.4,101.0
176.46,90.0
176.53,104.0
176.59,102.0
176.65,120.0
176.71,122.0
176.78,140.0
176.84,129.0
176.9,139.0
176.97,142.0
177.03,131.0
177.09,156.0
177.16,142.0
177.22,141.0
177.28,141.0
177.34,132.0
177.41,145.0
177.47,151.0
177.53,155.0
177.6,167.0
177.66,169.0
177.72,161.0
177.79,157.0
177.85,150.0
177.91,159.0
177.97,159.0
178.04,131.0
178.1,138.0
178.16,135.0
178.23,139.0
178.29,139.0
178.35,153.0
178.42,168.0
178.48,154.0
178.54,163.0
178.6,145.0
178.67,164.0
178.73,162.0
178.79,153.0
178.86,168.0
178.92,160.0
178.98,165.0
179.05,137.0
179.11,164.0
179.17,146.0
179.23,128.0
179.3,140.0
179.36,146.0
179.42,139.0
179.49,124.0
179.55,123.0
179.61,131.0
179.68,131.0
179.74,133.0
179.8,137.0
179.86,140.0
179.93,117.0
179.99,122.0
180.05,114.0
180.12,131.0
180.18,133.0
180.24,128.0
180.31,137.0
180.37,148.0
180.43,155.0
180.49,144.0
180.56,148.0
180.62,161.0
180.68,162.0
180.75,158.0
180.81,143.0
180.87,149.0
180.94,145.0
181.0,135.0
181.06,135.0
181.12,131.0
181.19,105.0
181.25,134.0
181.31,136.0
181.38,124.0
181.44,130.0
181.5,135.0
181.57,124.0
181.63,131.0
181.69,128.0
181.75,154.0
181.82,150.0
181.88,121.0
181.94,115.0
182.01,107.0
182.07,112.0
182.13,113.0
182.2,109.0
182.26,103.0
182.32,117.0
182.38,105.0
182.45,102.0
182.51,125.0
182.57,112.0
182.64,88.0
182.7,111.0
182.76,101.0
182.83,98.0
182.89,82.0
182.95,100.0
183.01,95.0
183.08,99.0
183.14,99.0
183.2,114.0
183.27,104.0
183.33,93.0
183.39,97.0
183.46,82.0
183.52,92.0
183.58,91.0
183.64,96.0
183.71,88.0
183.77,107.0
183.83,118.0
183.9,74.0
183.96,85.0
184.02,73.0
184.09,82.0
184.15,77.0
184.21,57.0
184.27,58.0
184.34,58.0
184.4,49.0
184.46,51.0
184.53,53.0
184.59,50.0
184.65,41.0
184.72,42.0
184.78,35.0
184.84,50.0
184.9,59.0
184.97,80.0
185.03,56.0
185.09,76.0
185.16,67.0
185.22,63.0
185.28,66.0
185.35,53.0
185.41,89.0
185.47,77.0
185.53,73.0
185.6,87.0
185.66,73.0
185.72,69.0
185.79,69.0
185.85,52.0
185.91,74.0
185.98,63.0
186.04,65.0
186.1,66.0
186.16,79.0
186.23,75.0
186.29,84.0
186.35,91.0
186.42,69.0
186.48,89.0
186.54,108.0
186.61,91.0
186.67,79.0
186.73,96.0
186.79,98.0
186.86,105.0
186.92,105.0
186.98,101.0
187.05,85.0
187.11,85.0
187.17,96.0
187.24,100.0
187.3,113.0
187.36,120.0
187.42,113.0
187.49,117.0
187.55,99.0
187.61,83.0
187.68,101.0
187.74,89.0
187.8,81.0
187.87,100.0
187.93,98.0
187.99,113.0
188.05,85.0
188.12,77.0
188.18,87.0
188.24,82.0
188.31,95.0
188.37,109.0
188.43,94.0
188.5,104.0
188.56,116.0
188.62,100.0
188.68,113.0
188.75,109.0
188.81,106.0
188.87,88.0
188.94,106.0
189.0,110.0
189.06,126.0
189.13,116.0
189.19,109.0
189.25,117.0
189.31,116.0
189.38,98.0
189.44,102.0
189.5,90.0
189.57,111.0
189.63,107.0
189.69,109.0
189.76,117.0
189.82,113.0
189.88,120.0
189.94,122.0
190.01,96.0
190.07,93.0
190.13,96.0
190.2,105.0
190.26,106.0
190.32,99.0
190.39,105.0
190.45,113.0
190.51,101.0
190.57,111.0
190.64,120.0
190.7,92.0
190.76,109.0
190.83,105.0
190.89,91.0
190.95,126.0
191.02,101.0
191.08,97.0
191.14,91.0
191.2,96.0
191.27,93.0
191.33,81.0
191.39,87.0
191.46,80.0
191.52,85.0
191.58,75.0
191.65,58.0
191.71,74.0
191.77,85.0
191.83,84.0
191.9,85.0
191.96,75.0
192.02,65.0
192.09,84.0
192.15,95.0
192.21,95.0
192.28,81.0
192.34,48.0
192.4,39.0
192.46,62.0
192.53,58.0
192.59,62.0
192.65,29.0
192.72,43.0
192.78,63.0
192.84,45.0
192.91,41.0
192.97,43.0
193.03,67.0
193.09,59.0
193.16,54.0
193.22,32.0
193.28,58.0
193.35,46.0
193.41,43.0
193.47,43.0
193.54,49.0
193.6,40.0
193.66,39.0
193.72,29.0
193.79,30.0
193.85,31.0
193.91,44.0
193.98,32.0
194.04,55.0
194.1,58.0
194.17,40.0
194.23,32.0
194.29,65.0
194.35,56.0
194.42,60.0
194.48,74.0
194.54,69.0
194.61,63.0
194.67,46.0
194.73,47.0
194.8,58.0
194.86,73.0
194.92,65.0
194.98,65.0
195.05,72.0
195.11,80.0
195.17,65.0
195.24,79.0
195.3,82.0
195.36,76.0
195.43,90.0
195.49,93.0
195.55,79.0
195.61,80.0
195.68,72.0
195.74,80.0
195.8,90.0
195.87,106.0
195.93,94.0
195.99,87.0
196.06,102.0
196.12,105.0
196.18,91.0
196.24,87.0
196.31,95.0
196.37,80.0
196.43,78.0
196.5,96.0
196.56,93.0
196.62,106.0
196.69,92.0
196.75,85.0
196.81,68.0
196.87,73.0
196.94,82.0
197.0,72.0
197.06,63.0
197.13,52.0
197.19,44.0
197.25,58.0
197.32,73.0
197.38,58.0
197.44,58.0
197.5,64.0
197.57,79.0
197.63,52.0
197.69,48.0
197.76,64.0
197.82,55.0
197.88,67.0
197.95,59.0
198.01,68.0
198.07,87.0
198.13,76.0
198.2,105.0
198.26,81.0
198.32,68.0
198.39,79.0
198.45,86.0
198.51,104.0
198.58,78.0
198.64,89.0
198.7,77.0
198.76,96.0
198.83,118.0
198.89,92.0
198.95,83.0
199.02,88.0
199.08,77.0
199.14,73.0
199.21,60.0
199.27,46.0
199.33,66.0
199.39,61.0
199.46,58.0
199.52,85.0
199.58,80.0
199.65,78.0
199.71,84.0
199.77,78.0
199.84,69.0
199.9,49.0
199.96,60.0
200.02,72.0
200.09,79.0
200.15,99.0
200.21,84.0
200.28,92.0
200.34,113.0
200.4,100.0
200.47,109.0
200.53,98.0
200.59,87.0
200.65,99.0
200.72,106.0
200.78,108.0
200.84,124.0
200.91,113.0
200.97,101.0
201.03,115.0
201.1,83.0
201.16,93.0
201.22,88.0
201.28,91.0
201.35,82.0
201.41,90.0
201.47,82.0
201.54,63.0
201.6,80.0
201.66,69.0
201.73,51.0
201.79,80.0
201.85,86.0
201.91,90.0
201.98,93.0
202.04,88.0
202.1,80.0
202.17,81.0
202.23,94.0
202.29,99.0
202.36,99.0
202.42,105.0
202.48,87.0
202.54,88.0
202.61,108.0
202.67,77.0
202.73,71.0
202.8,75.0
202.86,86.0
202.92,92.0
202.99,91.0
203.05,88.0
203.11,88.0
203.17,91.0
203.24,78.0
203.3,76.0
203.36,87.0
203.43,93.0
203.49,95.0
203.55,107.0
203.62,91.0
203.68,87.0
203.74,102.0
203.8,90.0
203.87,80.0
203.93,101.0
203.99,84.0
204.06,93.0
204.12,103.0
204.18,98.0
204.25,104.0
204.31,108.0
204.37,113.0
204.43,95.0
204.5,100.0
204.56,98.0
204.62,93.0
204.69,98.0
204.75,95.0
204.81,98.0
204.88,91.0
204.94,93.0
205.0,83.0
205.06,93.0
205.13,100.0
205.19,99.0
205.25,95.0
205.32,98.0
205.38,93.0
205.44,100.0
205.51,98.0
205.57,72.0
205.63,73.0
205.69,73.0
205.76,105.0
205.82,90.0
205.88,87.0
205.95,103.0
206.01,101.0
206.07,103.0
206.14,103.0
206.2,109.0
206.26,121.0
206.32,129.0
206.39,107.0
206.45,97.0
206.51,120.0
206.58,133.0
206.64,120.0
206.7,116.0
206.77,113.0
206.83,106.0
206.89,113.0
206.95,90.0
207.02,86.0
207.08,104.0
207.14,101.0
207.21,99.0
207.27,107.0
207.33,105.0
207.4,113.0
207.46,105.0
207.52,75.0
207.58,90.0
207.65,69.0
207.71,84.0
207.77,101.0
207.84,102.0
207.9,103.0
207.96,63.0
208.03,64.0
208.09,57.0
208.15,68.0
208.21,86.0
208.28,77.0
208.34,46.0
208.4,53.0
208.47,58.0
208.53,57.0
208.59,80.0
208.66,71.0
208.72,62.0
208.78,69.0
208.84,51.0
208.91,40.0
208.97,27.0
209.03,36.0
209.1,54.0
209.16,52.0
209.22,65.0
209.29,53.0
209.35,54.0
209.41,35.0
209.47,32.0
209.54,30.0
209.6,41.0
209.66,35.0
209.73,44.0
209.79,38.0
209.85,37.0
209.92,58.0
209.98,51.0
210.04,46.0
210.1,37.0
210.17,37.0
210.23,51.0
210.29,35.0
210.36,31.0
210.42,44.0
210.48,34.0
210.55,55.0
210.61,43.0
210.67,40.0
210.73,62.0
210.8,39.0
210.86,47.0
210.92,57.0
210.99,56.0
211.05,40.0
211.11,43.0
211.18,57.0
211.24,44.0
211.3,36.0
211.36,35.0
211.43,35.0
211.49,47.0
211.55,43.0
211.62,62.0
211.68,61.0
211.74,69.0
211.81,84.0
211.87,51.0
211.93,74.0
211.99,95.0
212.06,84.0
212.12,78.0
212.18,57.0
212.25,66.0
212.31,69.0
212.37,55.0
212.44,67.0
212.5,40.0
212.56,53.0
212.62,63.0
212.69,68.0
212.75,69.0
212.81,61.0
212.88,51.0
212.94,51.0
213.0,46.0
213.07,67.0
213.13,43.0
213.19,64.0
213.25,66.0
213.32,47.0
213.38,51.0
213.44,43.0
213.51,47.0
213.57,40.0
213.63,39.0
213.7,52.0
213.76,59.0
213.82,47.0
213.88,35.0
213.95,31.0
214.01,29.0
214.07,24.0
214.14,26.0
214.2,39.0
214.26,51.0
214.33,56.0
214.39,49.0
214.45,54.0
214.51,39.0
214.58,48.0
214.64,42.0
214.7,27.0
214.77,26.0
214.83,17.0
214.89,23.0
214.96,37.0
215.02,36.0
215.08,35.0
215.14,33.0
215.21,42.0
215.27,45.0
215.33,36.0
215.4,50.0
215.46,36.0
215.52,41.0
215.59,37.0
215.65,43.0
215.71,38.0
215.77,45.0
215.84,58.0
215.9,51.0
215.96,40.0
216.03,60.0
216.09,63.0
216.15,61.0
216.22,54.0
216.28,46.0
216.34,32.0
216.4,47.0
216.47,57.0
216.53,47.0
216.59,57.0
216.66,50.0
216.72,61.0
216.78,51.0
216.85,56.0
216.91,55.0
216.97,47.0
217.03,55.0
217.1,36.0
217.16,39.0
217.22,37.0
217.29,32.0
217.35,48.0
217.41,41.0
217.48,38.0
217.54,45.0
217.6,40.0
217.66,36.0
217.73,42.0
217.79,30.0
217.85,36.0
217.92,28.0
217.98,36.0
218.04,44.0
218.11,24.0
218.17,21.0
218.23,35.0
218.29,25.0
218.36,30.0
218.42,34.0
218.48,40.0
218.55,22.0
218.61,14.0
218.67,27.0
218.74,16.0
218.8,35.0
218.86,25.0
218.92,22.0
218.99,23.0
219.05,19.0
219.11,12.0
219.18,27.0
219.24,16.0
219.3,3.0
219.37,-7.0
219.43,3.0
219.49,-11.0
219.55,-13.0
219.62,-21.0
219.68,-21.0
219.74,-13.0
219.81,-10.0
219.87,-2.0
219.93,5.0
220.0,3.0
220.06,1.0
220.12,10.0
220.18,-5.0
220.25,12.0
220.31,2.0
220.37,4.0
220.44,6.0
220.5,4.0
220.56,10.0
220.63,0.0
220.69,13.0
220.75,7.0
220.81,-4.0
220.88,4.0
220.94,2.0
221.0,-2.0
221.07,-1.0
221.13,3.0
221.19,1.0
221.26,4.0
221.32,8.0
221.38,-9.0
221.44,-11.0
221.51,-21.0
221.57,-14.0
221.63,4.0
221.7,-1.0
221.76,3.0
221.82,21.0
221.89,17.0
221.95,14.0
222.01,-3.0
222.07,17.0
222.14,16.0
222.2,4.0
222.26,5.0
222.33,9.0
222.39,8.0
222.45,6.0
222.52,20.0
222.58,45.0
222.64,35.0
222.7,45.0
222.77,39.0
222.83,59.0
222.89,42.0
222.96,35.0
223.02,55.0
223.08,65.0
223.15,49.0
223.21,64.0
223.27,46.0
223.33,56.0
223.4,51.0
223.46,55.0
223.52,79.0
223.59,50.0
223.65,58.0
223.71,45.0
223.78,31.0
223.84,35.0
223.9,30.0
223.96,28.0
224.03,31.0
224.09,13.0
224.15,39.0
224.22,28.0
224.28,31.0
224.34,39.0
224.41,33.0
224.47,43.0
224.53,34.0
224.59,31.0
224.66,48.0
224.72,35.0
224.78,24.0
224.85,24.0
224.91,37.0
224.97,17.0
225.04,8.0
225.1,12.0
225.16,18.0
225.22,24.0
225.29,17.0
225.35,28.0
225.41,23.0
225.48,13.0
225.54,46.0
225.6,61.0
225.67,54.0
225.73,42.0
225.79,30.0
225.85,45.0
225.92,34.0
225.98,55.0
226.04,50.0
226.11,57.0
226.17,64.0
226.23,65.0
226.3,65.0
226.36,66.0
226.42,57.0
226.48,66.0
226.55,86.0
226.61,79.0
226.67,85.0
226.74,86.0
226.8,71.0
226.86,82.0
226.93,80.0
226.99,71.0
227.05,78.0
227.11,81.0
227.18,84.0
227.24,72.0
227.3,80.0
227.37,76.0
227.43,93.0
227.49,111.0
227.56,105.0
227.62,105.0
227.68,83.0
227.74,85.0
227.81,83.0
227.87,92.0
227.93,91.0
228.0,112.0
228.06,87.0
228.12,101.0
228.19,114.0
228.25,108.0
228.31,112.0
228.37,113.0
228.44,108.0
228.5,126.0
228.56,101.0
228.63,120.0
228.69,109.0
228.75,105.0
228.82,115.0
228.88,86.0
228.94,92.0
229.0,102.0
229.07,103.0
229.13,79.0
229.19,99.0
229.26,85.0
229.32,90.0
229.38,79.0
229.45,83.0
229.51,92.0
229.57,83.0
229.63,90.0
229.7,103.0
229.76,118.0
229.82,94.0
229.89,84.0
229.95,79.0
230.01,87.0
230.08,86.0
230.14,79.0
230.2,72.0
230.26,105.0
230.33,101.0
230.39,73.0
230.45,80.0
230.52,96.0
230.58,96.0
230.64,108.0
230.71,119.0
230.77,95.0
230.83,104.0
230.89,111.0
230.96,131.0
231.02,113.0
231.08,113.0
231.15,115.0
231.21,136.0
231.27,116.0
231.34,138.0
231.4,138.0
231.46,139.0
231.52,139.0
231.59,139.0
231.65,140.0
231.71,147.0
231.78,136.0
231.84,156.0
231.9,163.0
231.97,169.0
232.03,172.0
232.09,169.0
232.15,169.0
232.22,174.0
232.28,186.0
232.34,176.0
232.41,196.0
232.47,204.0
232.53,200.0
232.6,200.0
232.66,186.0
232.72,185.0
232.78,192.0
232.85,213.0
232.91,194.0
232.97,229.0
233.04,222.0
233.1,210.0
233.16,217.0
233.23,225.0
233.29,210.0
233.35,208.0
233.41,205.0
233.48,187.0
233.54,174.0
233.6,203.0
233.67,189.0
233.73,187.0
233.79,185.0
233.86,176.0
233.92,170.0
233.98,169.0
234.04,179.0
234.11,173.0
234.17,161.0
234.23,182.0
234.3,172.0
234.36,175.0
234.42,148.0
234.49,167.0
234.55,167.0
234.61,147.0
234.67,154.0
234.74,157.0
234.8,169.0
234.86,161.0
234.93,161.0
234.99,153.0
235.05,165.0
235.12,168.0
235.18,167.0
235.24,178.0
235.3,160.0
235.37,178.0
235.43,163.0
235.49,148.0
235.56,155.0
235.62,188.0
235.68,152.0
235.75,161.0
235.81,168.0
235.87,137.0
235.93,152.0
236.0,148.0
236.06,148.0
236.12,151.0
236.19,159.0
236.25,165.0
236.31,170.0
236.38,165.0
236.44,166.0
236.5,173.0
236.56,173.0
236.63,167.0
236.69,140.0
236.75,144.0
236.82,142.0
236.88,155.0
236.94,141.0
237.01,127.0
237.07,130.0
237.13,138.0
237.19,128.0
237.26,130.0
237.32,144.0
237.38,134.0
237.45,148.0
237.51,146.0
237.57,159.0
237.64,171.0
237.7,161.0
237.76,140.0
237.82,139.0
237.89,133.0
237.95,141.0
238.01,143.0
238.08,128.0
238.14,123.0
238.2,131.0
238.27,124.0
238.33,126.0
238.39,126.0
238.45,131.0
238.52,119.0
238.58,125.0
238.64,136.0
238.71,137.0
238.77,123.0
238.83,107.0
238.9,116.0
238.96,122.0
239.02,133.0
239.08,141.0
239.15,139.0
239.21,142.0
239.27,151.0
239.34,162.0
239.4,160.0
239.46,141.0
239.53,139.0
239.59,150.0
239.65,150.0
239.71,158.0
239.78,156.0
239.84,158.0
239.9,151.0
239.97,144.0
240.03,144.0
240.09,160.0
240.16,131.0
240.22,149.0
240.28,141.0
240.34,133.0
240.41,156.0
240.47,120.0
240.53,135.0
240.6,148.0
240.66,161.0
240.72,154.0
240.79,133.0
240.85,121.0
240.91,117.0
240.97,111.0
241.04,97.0
241.1,91.0
241.16,93.0
241.23,101.0
241.29,98.0
241.35,73.0
241.42,77.0
241.48,81.0
241.54,79.0
241.6,79.0
241.67,85.0
241.73,97.0
241.79,106.0
241.86,102.0
241.92,116.0
241.98,119.0
242.05,114.0
242.11,79.0
242.17,95.0
242.23,95.0
242.3,100.0
242.36,113.0
242.42,120.0
242.49,120.0
242.55,109.0
242.61,98.0
242.68,114.0
242.74,113.0
242.8,102.0
242.86,89.0
242.93,112.0
242.99,86.0
243.05,112.0
243.12,118.0
243.18,94.0
243.24,110.0
243.31,85.0
243.37,86.0
243.43,94.0
243.49,101.0
243.56,95.0
243.62,95.0
243.68,75.0
243.75,75.0
243.81,70.0
243.87,80.0
243.94,77.0
244.0,83.0
244.06,92.0
244.12,81.0
244.19,78.0
244.25,81.0
244.31,81.0
244.38,89.0
244.44,77.0
244.5,90.0
244.57,77.0
244.63,84.0
244.69,95.0
244.75,89.0
244.82,109.0
244.88,79.0
244.94,71.0
245.01,64.0
245.07,68.0
245.13,71.0
245.2,65.0
245.26,80.0
245.32,70.0
245.38,61.0
245.45,60.0
245.51,68.0
245.57,64.0
245.64,61.0
245.7,59.0
245.76,50.0
245.83,48.0
245.89,57.0
245.95,35.0
246.01,33.0
246.08,34.0
246.14,44.0
246.2,38.0
246.27,15.0
246.33,15.0
246.39,30.0
246.46,24.0
246.52,24.0
246.58,13.0
246.64,23.0
246.71,49.0
246.77,36.0
246.83,49.0
246.9,31.0
246.96,37.0
247.02,43.0
247.09,44.0
247.15,35.0
247.21,56.0
247.27,44.0
247.34,31.0
247.4,49.0
247.46,53.0
247.53,57.0
247.59,64.0
247.65,56.0
247.72,49.0
247.78,51.0
247.84,53.0
247.9,69.0
247.97,73.0
248.03,67.0
248.09,72.0
248.16,76.0
248.22,70.0
248.28,57.0
248.35,43.0
248.41,36.0
248.47,57.0
248.53,72.0
248.6,64.0
248.66,56.0
248.72,42.0
248.79,48.0
248.85,64.0
248.91,68.0
248.98,65.0
249.04,62.0
249.1,81.0
249.16,88.0
249.23,83.0
249.29,75.0
249.35,60.0
249.42,54.0
249.48,50.0
249.54,51.0
249.61,41.0
249.67,40.0
249.73,53.0
249.79,62.0
249.86,50.0
249.92,40.0
249.98,63.0
250.05,63.0
250.11,74.0
250.17,94.0
250.24,82.0
250.3,84.0
250.36,101.0
250.42,119.0
250.49,96.0
250.55,84.0
250.61,96.0
250.68,104.0
250.74,113.0
250.8,128.0
250.87,97.0
250.93,117.0
250.99,107.0
251.05,122.0
251.12,118.0
251.18,114.0
251.24,133.0
251.31,123.0
251.37,113.0
251.43,90.0
251.5,103.0
251.56,77.0
251.62,75.0
251.68,86.0
251.75,73.0
251.81,93.0
251.87,61.0
251.94,49.0
252.0,54.0
252.06,64.0
252.13,57.0
252.19,48.0
252.25,68.0
252.31,40.0
252.38,34.0
252.44,32.0
252.5,48.0
252.57,66.0
252.63,52.0
252.69,44.0
252.76,60.0
252.82,65.0
252.88,65.0
252.94,53.0
253.01,54.0
253.07,72.0
253.13,65.0
253.2,77.0
253.26,81.0
253.32,82.0
253.39,78.0
253.45,78.0
253.51,70.0
253.57,73.0
253.64,57.0
253.7,67.0
253.76,69.0
253.83,60.0
253.89,80.0
253.95,75.0
254.02,85.0
254.08,109.0
254.14,90.0
254.2,105.0
254.27,89.0
254.33,96.0
254.39,91.0
254.46,97.0
254.52,84.0
254.58,79.0
254.65,87.0
254.71,92.0
254.77,87.0
254.83,88.0
254.9,84.0
254.96,73.0
255.02,79.0
255.09,93.0
255.15,97.0
255.21,90.0
255.28,68.0
255.34,76.0
255.4,57.0
255.46,78.0
255.53,80.0
255.59,79.0
255.65,55.0
255.72,67.0
255.78,67.0
255.84,75.0
255.91,73.0
255.97,60.0
256.03,89.0
256.09,86.0
256.16,94.0
256.22,94.0
256.28,81.0
256.35,79.0
256.41,57.0
256.47,53.0
256.54,73.0
256.6,74.0
256.66,86.0
256.72,97.0
256.79,105.0
256.85,84.0
256.91,90.0
256.98,119.0
257.04,81.0
257.1,79.0
257.17,91.0
257.23,83.0
257.29,83.0
257.35,79.0
257.42,98.0
257.48,69.0
257.54,93.0
257.61,80.0
257.67,86.0
257.73,89.0
257.8,92.0
257.86,107.0
257.92,108.0
257.98,116.0
258.05,123.0
258.11,132.0
258.17,133.0
258.24,116.0
258.3,116.0
258.36,114.0
258.43,135.0
258.49,115.0
258.55,93.0
258.61,81.0
258.68,83.0
258.74,91.0
258.8,86.0
258.87,83.0
258.93,106.0
258.99,114.0
259.06,119.0
259.12,106.0
259.18,115.0
259.24,109.0
259.31,116.0
259.37,120.0
259.43,101.0
259.5,125.0
259.56,130.0
259.62,116.0
259.69,115.0
259.75,123.0
259.81,112.0
259.87,117.0
259.94,132.0
260.0,127.0
260.06,101.0
260.13,100.0
260.19,111.0
260.25,119.0
260.32,98.0
260.38,93.0
260.44,82.0
260.5,78.0
260.57,71.0
260.63,76.0
260.69,90.0
260.76,84.0
260.82,92.0
260.88,76.0
260.95,67.0
261.01,83.0
261.07,97.0
261.13,94.0
261.2,87.0
261.26,104.0
261.32,101.0
261.39,113.0
261.45,105.0
261.51,97.0
261.58,107.0
261.64,97.0
261.7,105.0
261.76,114.0
261.83,91.0
261.89,101.0
261.95,114.0
262.02,114.0
262.08,117.0
262.14,116.0
262.21,121.0
262.27,95.0
262.33,91.0
262.39,103.0
262.46,96.0
262.52,93.0
262.58,61.0
262.65,68.0
262.71,75.0
262.77,71.0
262.84,66.0
262.9,65.0
262.96,75.0
263.02,61.0
263.09,49.0
263.15,31.0
263.21,28.0
263.28,53.0
263.34,44.0
263.4,27.0
263.47,32.0
263.53,28.0
263.59,29.0
263.65,21.0
263.72,38.0
263.78,39.0
263.84,27.0
263.91,2.0
263.97,0.0
264.03,5.0
264.1,3.0
264.16,-1.0
264.22,-1.0
264.28,25.0
264.35,10.0
264.41,25.0
264.47,23.0
264.54,25.0
264.6,18.0
264.66,13.0
264.73,13.0
264.79,26.0
264.85,21.0
264.91,19.0
264.98,52.0
265.04,50.0
265.1,48.0
265.17,48.0
265.23,61.0
265.29,56.0
265.36,57.0
265.42,39.0
265.48,46.0
265.54,60.0
265.61,61.0
265.67,48.0
265.73,60.0
265.8,62.0
265.86,45.0
265.92,58.0
265.99,59.0
266.05,58.0
266.11,73.0
266.17,70.0
266.24,56.0
266.3,55.0
266.36,47.0
266.43,57.0
266.49,43.0
266.55,44.0
266.62,49.0
266.68,41.0
266.74,46.0
266.8,32.0
266.87,28.0
266.93,35.0
266.99,38.0
267.06,18.0
267.12,25.0
267.18,23.0
267.25,28.0
267.31,19.0
267.37,24.0
267.43,24.0
267.5,19.0
267.56,15.0
267.62,23.0
267.69,40.0
267.75,58.0
267.81,33.0
267.88,43.0
267.94,34.0
268.0,43.0
268.06,28.0
268.13,16.0
268.19,11.0
268.25,21.0
268.32,34.0
268.38,35.0
268.44,26.0
268.51,20.0
268.57,27.0
268.63,19.0
268.69,23.0
268.76,17.0
268.82,12.0
268.88,19.0
268.95,17.0
269.01,2.0
269.07,1.0
269.14,35.0
269.2,42.0
269.26,66.0
269.32,58.0
269.39,49.0
269.45,36.0
269.51,4.0
269.58,1.0
269.64,18.0
269.7,2.0
269.77,-15.0
269.83,7.0
269.89,10.0
269.95,-5.0
270.02,13.0
270.08,-7.0
270.14,2.0
270.21,8.0
270.27,11.0
270.33,10.0
270.4,-12.0
270.46,-2.0
270.52,12.0
270.58,8.0
270.65,-8.0
270.71,-2.0
270.77,-16.0
270.84,-2.0
270.9,-1.0
270.96,-29.0
271.03,0.0
271.09,4.0
271.15,11.0
271.21,16.0
271.28,-14.0
271.34,-18.0
271.4,-15.0
271.47,-14.0
271.53,1.0
271.59,-15.0
271.66,-5.0
271.72,-9.0
271.78,-37.0
271.84,-48.0
271.91,-34.0
271.97,-40.0
272.03,-61.0
272.1,-49.0
272.16,-48.0
272.22,-51.0
272.29,-38.0
272.35,-33.0
272.41,-23.0
272.47,-24.0
272.54,-3.0
272.6,-20.0
272.66,-23.0
272.73,-6.0
272.79,-26.0
272.85,-31.0
272.92,-40.0
272.98,-22.0
273.04,-18.0
273.1,-21.0
273.17,-4.0
273.23,-15.0
273.29,-24.0
273.36,-22.0
273.42,13.0
273.48,15.0
273.55,13.0
273.61,19.0
273.67,-11.0
273.73,11.0
273.8,6.0
273.86,17.0
273.92,22.0
273.99,-6.0
274.05,-4.0
274.11,-9.0
274.18,-1.0
274.24,4.0
274.3,20.0
274.36,7.0
274.43,8.0
274.49,19.0
274.55,32.0
274.62,26.0
274.68,23.0
274.74,35.0
274.81,39.0
274.87,48.0
274.93,22.0
274.99,41.0
275.06,26.0
275.12,35.0
275.18,36.0
275.25,59.0
275.31,49.0
275.37,41.0
275.44,47.0
275.5,29.0
275.56,37.0
275.62,18.0
275.69,25.0
275.75,56.0
275.81,52.0
275.88,37.0
275.94,45.0
276.0,47.0
276.07,28.0
276.13,45.0
276.19,50.0
276.25,77.0
276.32,82.0
276.38,76.0
276.44,75.0
276.51,56.0
276.57,65.0
276.63,91.0
276.7,72.0
276.76,68.0
276.82,72.0
276.88,61.0
276.95,86.0
277.01,96.0
277.07,85.0
277.14,102.0
277.2,99.0
277.26,88.0
277.33,88.0
277.39,96.0
277.45,115.0
277.51,92.0
277.58,87.0
277.64,104.0
277.7,94.0
277.77,104.0
277.83,83.0
277.89,78.0
277.96,85.0
278.02,99.0
278.08,89.0
278.14,92.0
278.21,94.0
278.27,97.0
278.33,109.0
278.4,110.0
278.46,91.0
278.52,103.0
278.59,110.0
278.65,105.0
278.71,120.0
278.77,120.0
278.84,114.0
278.9,110.0
278.96,110.0
279.03,112.0
279.09,118.0
279.15,107.0
279.22,107.0
279.28,107.0
279.34,118.0
279.4,93.0
279.47,88.0
279.53,91.0
279.59,89.0
279.66,98.0
279.72,93.0
279.78,74.0
279.85,75.0
279.91,77.0
279.97,85.0
280.03,74.0
280.1,98.0
280.16,85.0
280.22,83.0
280.29,81.0
280.35,80.0
280.41,83.0
280.48,92.0
280.54,74.0
280.6,74.0
280.66,83.0
280.73,93.0
280.79,82.0
280.85,94.0
280.92,72.0
280.98,85.0
281.04,74.0
281.11,85.0
281.17,76.0
281.23,71.0
281.29,55.0
281.36,63.0
281.42,103.0
281.48,80.0
281.55,88.0
281.61,97.0
281.67,126.0
281.74,118.0
281.8,109.0
281.86,102.0
281.92,109.0
281.99,105.0
282.05,92.0
282.11,90.0
282.18,79.0
282.24,102.0
282.3,119.0
282.37,100.0
282.43,111.0
282.49,108.0
282.55,127.0
282.62,100.0
282.68,110.0
282.74,89.0
282.81,88.0
282.87,104.0
282.93,100.0
283.0,107.0
283.06,104.0
283.12,105.0
283.18,108.0
283.25,116.0
283.31,147.0
283.37,129.0
283.44,143.0
283.5,143.0
283.56,146.0
283.63,118.0
283.69,136.0
283.75,141.0
283.81,145.0
283.88,156.0
283.94,154.0
284.0,147.0
284.07,159.0
284.13,160.0
284.19,162.0
284.26,180.0
284.32,199.0
284.38,187.0
284.44,177.0
284.51,181.0
284.57,198.0
284.63,169.0
284.7,165.0
284.76,179.0
284.82,176.0
284.89,173.0
284.95,179.0
285.01,196.0
285.07,191.0
285.14,199.0
285.2,217.0
285.26,183.0
285.33,193.0
285.39,204.0
285.45,192.0
285.52,173.0
285.58,183.0
285.64,196.0
285.7,168.0
285.77,173.0
285.83,196.0
285.89,205.0
285.96,202.0
286.02,206.0
286.08,196.0
286.15,195.0
286.21,187.0
286.27,170.0
286.33,192.0
286.4,176.0
286.46,169.0
286.52,180.0
286.59,182.0
286.65,179.0
286.71,165.0
286.78,169.0
286.84,173.0
286.9,141.0
286.96,154.0
287.03,164.0
287.09,173.0
287.15,177.0
287.22,172.0
287.28,177.0
287.34,170.0
287.41,173.0
287.47,176.0
287.53,188.0
287.59,163.0
287.66,179.0
287.72,184.0
287.78,176.0
287.85,162.0
287.91,154.0
287.97,158.0
288.04,153.0
288.1,149.0
288.16,173.0
288.22,168.0
288.29,163.0
288.35,155.0
288.41,149.0
288.48,147.0
288.54,144.0
288.6,144.0
288.67,130.0
288.73,150.0
288.79,125.0
288.85,132.0
288.92,127.0
288.98,130.0
289.04,155.0
289.11,121.0
289.17,147.0
289.23,148.0
289.3,145.0
289.36,122.0
289.42,113.0
289.48,126.0
289.55,147.0
289.61,147.0
289.67,147.0
289.74,144.0
289.8,155.0
289.86,150.0
289.93,162.0
289.99,152.0
290.05,136.0
290.11,163.0
290.18,158.0
290.24,152.0
290.3,157.0
290.37,159.0
290.43,158.0
290.49,152.0
290.56,140.0
290.62,130.0
290.68,132.0
290.74,146.0
290.81,126.0
290.87,156.0
290.93,138.0
291.0,154.0
291.06,145.0
291.12,125.0
291.19,127.0
291.25,135.0
291.31,122.0
291.37,115.0
291.44,120.0
291.5,134.0
291.56,157.0
291.63,180.0
291.69,155.0
291.75,145.0
291.82,174.0
291.88,173.0
291.94,163.0
292.0,144.0
292.07,141.0
292.13,133.0
292.19,150.0
292.26,147.0
292.32,159.0
292.38,165.0
292.45,159.0
292.51,135.0
292.57,141.0
292.63,145.0
292.7,154.0
292.76,147.0
292.82,143.0
292.89,155.0
292.95,118.0
293.01,149.0
293.08,154.0
293.14,130.0
293.2,140.0
293.26,118.0
293.33,131.0
293.39,140.0
293.45,154.0
293.52,119.0
293.58,135.0
293.64,118.0
293.71,113.0
293.77,125.0
293.83,127.0
293.89,132.0
293.96,141.0
294.02,133.0
294.08,141.0
294.15,144.0
294.21,126.0
294.27,129.0
294.34,118.0
294.4,134.0
294.46,140.0
294.52,138.0
294.59,129.0
294.65,119.0
294.71,140.0
294.78,141.0
294.84,143.0
294.9,144.0
294.97,133.0
295.03,127.0
295.09,131.0
295.15,127.0
295.22,122.0
295.28,120.0
295.34,124.0
295.41,121.0
295.47,119.0
295.53,129.0
295.6,113.0
295.66,127.0
295.72,113.0
295.78,114.0
295.85,112.0
295.91,118.0
295.97,115.0
296.04,116.0
296.1,113.0
296.16,97.0
296.23,67.0
296.29,96.0
296.35,88.0
296.41,83.0
296.48,83.0
296.54,50.0
296.6,71.0
296.67,65.0
296.73,77.0
296.79,86.0
296.86,76.0
296.92,64.0
296.98,74.0
297.04,53.0
297.11,51.0
297.17,63.0
297.23,58.0
297.3,78.0
297.36,73.0
297.42,75.0
297.49,49.0
297.55,43.0
297.61,59.0
297.67,16.0
297.74,27.0
297.8,42.0
297.86,36.0
297.93,47.0
297.99,47.0
298.05,50.0
298.12,67.0
298.18,37.0
298.24,29.0
298.3,30.0
298.37,27.0
298.43,44.0
298.49,38.0
298.56,37.0
298.62,51.0
298.68,28.0
298.75,37.0
298.81,52.0
298.87,67.0
298.93,62.0
299.0,56.0
299.06,65.0
299.12,82.0
299.19,64.0
299.25,65.0
299.31,84.0
299.38,84.0
299.44,82.0
299.5,66.0
299.56,81.0
299.63,74.0
299.69,56.0
299.75,63.0
299.82,60.0
299.88,57.0
299.94,52.0
300.01,63.0
300.07,50.0
300.13,56.0
300.19,58.0
300.26,30.0
300.32,44.0
300.38,45.0
300.45,45.0
300.51,34.0
300.57,47.0
300.64,49.0
300.7,62.0
300.76,43.0
300.82,66.0
300.89,51.0
300.95,56.0
301.01,62.0
301.08,42.0
301.14,47.0
301.2,53.0
301.27,27.0
301.33,30.0
301.39,43.0
301.45,50.0
301.52,28.0
301.58,26.0
301.64,46.0
301.71,56.0
301.77,27.0
301.83,41.0
301.9,39.0
301.96,23.0
302.02,20.0
302.08,17.0
302.15,9.0
302.21,14.0
302.27,38.0
302.34,15.0
302.4,-3.0
302.46,5.0
302.53,14.0
302.59,-16.0
302.65,-16.0
302.71,-18.0
302.78,-6.0
302.84,-24.0
302.9,-5.0
302.97,-20.0
303.03,-27.0
303.09,2.0
303.16,-11.0
303.22,-22.0
303.28,-25.0
303.34,-31.0
303.41,-21.0
303.47,-10.0
303.53,-34.0
303.6,-24.0
303.66,-18.0
303.72,8.0
303.79,1.0
303.85,2.0
303.91,7.0
303.97,-1.0
304.04,-11.0
304.1,-52.0
304.16,-57.0
304.23,-33.0
304.29,-35.0
304.35,-43.0
304.42,-42.0
304.48,-35.0
304.54,-30.0
304.6,-47.0
304.67,-42.0
304.73,-45.0
304.79,-31.0
304.86,-22.0
304.92,-27.0
304.98,-3.0
305.05,-10.0
305.11,-14.0
305.17,-25.0
305.23,-12.0
305.3,-25.0
305.36,-31.0
305.42,-10.0
305.49,-14.0
305.55,-20.0
305.61,2.0
305.68,1.0
305.74,-11.0
305.8,-22.0
305.86,-19.0
305.93,-12.0
305.99,16.0
306.05,10.0
306.12,-19.0
306.18,7.0
306.24,5.0
306.31,7.0
306.37,1.0
306.43,0.0
306.49,-14.0
306.56,-14.0
306.62,5.0
306.68,15.0
306.75,27.0
306.81,11.0
306.87,11.0
306.94,8.0
307.0,19.0
307.06,27.0
307.12,40.0
307.19,33.0
307.25,47.0
307.31,53.0
307.38,49.0
307.44,44.0
307.5,45.0
307.57,55.0
307.63,54.0
307.69,46.0
307.75,51.0
307.82,54.0
307.88,77.0
307.94,72.0
308.01,55.0
308.07,64.0
308.13,79.0
308.2,69.0
308.26,55.0
308.32,64.0
308.38,54.0
308.45,65.0
308.51,80.0
308.57,74.0
308.64,58.0
308.7,76.0
308.76,74.0
308.83,78.0
308.89,93.0
308.95,90.0
309.01,88.0
309.08,91.0
309.14,82.0
309.2,84.0
309.27,102.0
309.33,111.0
309.39,114.0
309.46,117.0
309.52,110.0
309.58,120.0
309.64,118.0
309.71,138.0
309.77,128.0
309.83,139.0
309.9,135.0
309.96,151.0
310.02,154.0
310.09,140.0
310.15,124.0
310.21,126.0
310.27,129.0
310.34,134.0
310.4,149.0
310.46,167.0
310.53,145.0
310.59,142.0
310.65,139.0
310.72,127.0
310.78,148.0
310.84,165.0
310.9,160.0
310.97,154.0
311.03,173.0
311.09,172.0
311.16,165.0
311.22,166.0
311.28,169.0
311.35,163.0
311.41,181.0
311.47,178.0
311.53,161.0
311.6,172.0
311.66,156.0
311.72,162.0
311.79,150.0
311.85,146.0
311.91,147.0
311.98,121.0
312.04,161.0
312.1,157.0
312.16,144.0
312.23,153.0
312.29,155.0
312.35,139.0
312.42,148.0
312.48,151.0
312.54,153.0
312.61,146.0
312.67,142.0
312.73,128.0
312.79,121.0
312.86,121.0
312.92,132.0
312.98,143.0
313.05,154.0
313.11,135.0
313.17,143.0
313.24,134.0
313.3,134.0
313.36,159.0
313.42,147.0
313.49,144.0
313.55,132.0
313.61,134.0
313.68,132.0
313.74,138.0
313.8,137.0
313.87,108.0
313.93,114.0
313.99,137.0
314.05,119.0
314.12,143.0
314.18,121.0
314.24,111.0
314.31,106.0
314.37,92.0
314.43,113.0
314.5,126.0
314.56,119.0
314.62,106.0
314.68,121.0
314.75,107.0
314.81,120.0
314.87,121.0
314.94,102.0
315.0,114.0
315.06,117.0
315.13,131.0
315.19,133.0
315.25,130.0
315.31,128.0
315.38,134.0
315.44,120.0
315.5,116.0
315.57,121.0
315.63,116.0
315.69,131.0
315.76,132.0
315.82,131.0
315.88,135.0
315.94,142.0
316.01,142.0
316.07,125.0
316.13,143.0
316.2,143.0
316.26,158.0
316.32,151.0
316.39,160.0
316.45,165.0
316.51,183.0
316.57,155.0
316.64,156.0
316.7,177.0
316.76,160.0
316.83,170.0
316.89,177.0
316.95,174.0
317.02,188.0
317.08,200.0
317.14,176.0
317.2,175.0
317.27,152.0
317.33,185.0
317.39,184.0
317.46,162.0
317.52,169.0
317.58,168.0
317.65,167.0
317.71,158.0
317.77,169.0
317.83,156.0
317.9,179.0
317.96,181.0
318.02,184.0
318.09,196.0
318.15,168.0
318.21,163.0
318.28,161.0
318.34,168.0
318.4,170.0
318.46,178.0
318.53,158.0
318.59,176.0
318.65,164.0
318.72,162.0
318.78,170.0
318.84,152.0
318.91,151.0
318.97,147.0
319.03,135.0
319.09,140.0
319.16,138.0
319.22,157.0
319.28,148.0
319.35,145.0
319.41,143.0
319.47,159.0
319.54,170.0
319.6,159.0
319.66,157.0
319.72,164.0
319.79,153.0
319.85,145.0
319.91,153.0
319.98,157.0
320.04,143.0
320.1,137.0
320.17,121.0
320.23,121.0
320.29,108.0
320.35,108.0
320.42,119.0
320.48,112.0
320.54,123.0
320.61,105.0
320.67,98.0
320.73,99.0
320.8,109.0
320.86,88.0
320.92,87.0
320.98,89.0
321.05,113.0
321.11,103.0
321.17,89.0
321.24,94.0
321.3,72.0
321.36,73.0
321.43,65.0
321.49,55.0
321.55,55.0
321.61,59.0
321.68,73.0
321.74,64.0
321.8,60.0
321.87,55.0
321.93,47.0
321.99,49.0
322.06,40.0
322.12,55.0
322.18,66.0
322.24,67.0
322.31,65.0
322.37,84.0
322.43,67.0
322.5,60.0
322.56,62.0
322.62,66.0
322.69,60.0
322.75,51.0
322.81,37.0
322.87,37.0
322.94,63.0
323.0,51.0
323.06,60.0
323.13,72.0
323.19,52.0
323.25,44.0
323.32,40.0
323.38,43.0
323.44,47.0
323.5,29.0
323.57,30.0
323.63,27.0
323.69,29.0
323.76,30.0
323.82,35.0
323.88,47.0
323.95,33.0
324.01,11.0
324.07,7.0
324.13,11.0
324.2,15.0
324.26,21.0
324.32,20.0
324.39,15.0
324.45,11.0
324.51,32.0
324.58,35.0
324.64,27.0
324.7,24.0
324.76,16.0
324.83,17.0
324.89,14.0
324.95,25.0
325.02,27.0
325.08,30.0
325.14,58.0
325.21,52.0
325.27,52.0
325.33,55.0
325.39,42.0
325.46,51.0
325.52,55.0
325.58,47.0
325.65,43.0
325.71,48.0
325.77,53.0
325.84,40.0
325.9,40.0
325.96,52.0
326.02,46.0
326.09,51.0
326.15,57.0
326.21,66.0
326.28,71.0
326.34,94.0
326.4,82.0
326.47,58.0
326.53,70.0
326.59,81.0
326.65,79.0
326.72,70.0
326.78,67.0
326.84,62.0
326.91,90.0
326.97,91.0
327.03,108.0
327.1,83.0
327.16,79.0
327.22,87.0
327.28,91.0
327.35,85.0
327.41,73.0
327.47,76.0
327.54,68.0
327.6,68.0
327.66,73.0
327.73,65.0
327.79,78.0
327.85,73.0
327.91,82.0
327.98,82.0
328.04,76.0
328.1,82.0
328.17,90.0
328.23,70.0
328.29,69.0
328.36,74.0
328.42,103.0
328.48,107.0
328.54,83.0
328.61,101.0
328.67,87.0
328.73,98.0
328.8,86.0
328.86,74.0
328.92,84.0
328.99,69.0
329.05,88.0
329.11,77.0
329.17,76.0
329.24,88.0
329.3,88.0
329.36,61.0
329.43,65.0
329.49,62.0
329.55,63.0
329.62,52.0
329.68,62.0
329.74,46.0
329.8,41.0
329.87,36.0
329.93,43.0
329.99,36.0
330.06,53.0
330.12,54.0
330.18,27.0
330.25,20.0
330.31,20.0
330.37,23.0
330.43,30.0
330.5,31.0
330.56,22.0
330.62,30.0
330.69,30.0
330.75,55.0
330.81,35.0
330.88,49.0
330.94,45.0
331.0,40.0
331.06,48.0
331.13,51.0
331.19,42.0
331.25,58.0
331.32,70.0
331.38,57.0
331.44,67.0
331.51,93.0
331.57,69.0
331.63,73.0
331.69,69.0
331.76,58.0
331.82,50.0
331.88,71.0
331.95,77.0
332.01,78.0
332.07,67.0
332.14,75.0
332.2,80.0
332.26,80.0
332.32,82.0
332.39,95.0
332.45,97.0
332.51,75.0
332.58,92.0
332.64,99.0
332.7,107.0
332.77,106.0
332.83,115.0
332.89,122.0
332.95,130.0
333.02,114.0
333.08,127.0
333.14,136.0
333.21,117.0
333.27,124.0
333.33,128.0
333.4,124.0
333.46,129.0
333.52,148.0
333.58,142.0
333.65,157.0
333.71,164.0
333.77,161.0
333.84,159.0
333.9,187.0
333.96,159.0
334.03,158.0
334.09,189.0
334.15,191.0
334.21,175.0
334.28,167.0
334.34,170.0
334.4,184.0
334.47,196.0
334.53,202.0
334.59,220.0
334.66,212.0
334.72,205.0
334.78,200.0
334.84,194.0
334.91,181.0
334.97,202.0
335.03,194.0
335.1,207.0
335.16,192.0
335.22,198.0
335.29,210.0
335.35,211.0
335.41,215.0
335.47,201.0
335.54,184.0
335.6,166.0
335.66,172.0
335.73,179.0
335.79,169.0
335.85,172.0
335.92,167.0
335.98,172.0
336.04,153.0
336.1,183.0
336.17,205.0
336.23,183.0
336.29,181.0
336.36,187.0
336.42,181.0
336.48,180.0
336.55,189.0
336.61,160.0
336.67,183.0
336.73,189.0
336.8,187.0
336.86,180.0
336.92,179.0
336.99,192.0
337.05,194.0
337.11,188.0
337.18,209.0
337.24,202.0
337.3,186.0
337.36,181.0
337.43,183.0
337.49,182.0
337.55,181.0
337.62,190.0
337.68,197.0
337.74,194.0
337.81,179.0
337.87,178.0
337.93,167.0
337.99,172.0
338.06,165.0
338.12,184.0
338.18,197.0
338.25,179.0
338.31,196.0
338.37,184.0
338.44,175.0
338.5,171.0
338.56,178.0
338.62,178.0
338.69,184.0
338.75,181.0
338.81,179.0
338.88,195.0
338.94,177.0
339.0,188.0
339.07,188.0
339.13,171.0
339.19,184.0
339.25,162.0
339.32,169.0
339.38,162.0
339.44,161.0
339.51,148.0
339.57,133.0
339.63,125.0
339.7,139.0
339.76,143.0
339.82,131.0
339.88,145.0
339.95,131.0
340.01,122.0
340.07,127.0
340.14,124.0
340.2,120.0
340.26,101.0
340.33,104.0
340.39,110.0
340.45,104.0
340.51,100.0
340.58,98.0
340.64,90.0
340.7,106.0
340.77,106.0
340.83,111.0
340.89,117.0
340.96,110.0
341.02,132.0
341.08,126.0
341.14,123.0
341.21,132.0
341.27,111.0
341.33,124.0
341.4,127.0
341.46,134.0
341.52,109.0
341.59,118.0
341.65,132.0
341.71,151.0
341.77,151.0
341.84,151.0
341.9,145.0
341.96,143.0
342.03,138.0
342.09,156.0
342.15,187.0
342.22,154.0
342.28,181.0
342.34,152.0
342.4,165.0
342.47,178.0
342.53,184.0
342.59,179.0
342.66,182.0
342.72,162.0
342.78,161.0
342.85,187.0
342.91,171.0
342.97,156.0
343.03,167.0
343.1,170.0
343.16,144.0
343.22,148.0
343.29,139.0
343.35,139.0
343.41,129.0
343.48,121.0
343.54,134.0
343.6,159.0
343.66,142.0
343.73,145.0
343.79,156.0
343.85,137.0
343.92,142.0
343.98,128.0
344.04,128.0
344.11,137.0
344.17,149.0
344.23,131.0
344.29,130.0
344.36,143.0
344.42,135.0
344.48,142.0
344.55,131.0
344.61,133.0
344.67,146.0
344.74,146.0
344.8,129.0
344.86,143.0
344.92,146.0
344.99,140.0
345.05,126.0
345.11,140.0
345.18,141.0
345.24,144.0
345.3,126.0
345.37,124.0
345.43,111.0
345.49,135.0
345.55,132.0
345.62,121.0
345.68,109.0
345.74,112.0
345.81,111.0
345.87,111.0
345.93,114.0
346.0,128.0
346.06,137.0
346.12,145.0
346.18,146.0
346.25,125.0
346.31,134.0
346.37,145.0
346.44,107.0
346.5,107.0
346.56,121.0
346.63,106.0
346.69,92.0
346.75,107.0
346.81,88.0
346.88,88.0
346.94,97.0
347.0,95.0
347.07,91.0
347.13,100.0
347.19,60.0
347.26,62.0
347.32,65.0
347.38,57.0
347.44,46.0
347.51,63.0
347.57,63.0
347.63,46.0
347.7,31.0
347.76,30.0
347.82,30.0
347.89,26.0
347.95,-9.0
348.01,3.0
348.07,-7.0
348.14,6.0
348.2,5.0
348.26,-5.0
348.33,-21.0
348.39,3.0
348.45,5.0
348.52,7.0
348.58,10.0
348.64,4.0
348.7,28.0
348.77,23.0
348.83,25.0
348.89,32.0
348.96,45.0
349.02,45.0
349.08,49.0
349.15,23.0
349.21,51.0
349.27,49.0
349.33,41.0
349.4,40.0
349.46,59.0
349.52,38.0
349.59,54.0
349.65,45.0
349.71,42.0
349.78,38.0
349.84,35.0
349.9,41.0
349.96,36.0
350.03,37.0
350.09,31.0
350.15,55.0
350.22,56.0
350.28,60.0
350.34,64.0
350.41,64.0
350.47,58.0
350.53,55.0
350.59,57.0
350.66,52.0
350.72,72.0
350.78,54.0
350.85,63.0
350.91,77.0
350.97,84.0
351.04,60.0
351.1,44.0
351.16,50.0
351.22,66.0
351.29,63.0
351.35,72.0
351.41,74.0
351.48,74.0
351.54,58.0
351.6,56.0
351.67,89.0
351.73,73.0
351.79,83.0
351.85,81.0
351.92,76.0
351.98,90.0
352.04,102.0
352.11,103.0
352.17,72.0
352.23,82.0
352.3,80.0
352.36,60.0
352.42,61.0
352.48,67.0
352.55,80.0
352.61,88.0
352.67,59.0
352.74,75.0
352.8,104.0
352.86,83.0
352.93,96.0
352.99,70.0
353.05,73.0
353.11,83.0
353.18,81.0
353.24,89.0
353.3,71.0
353.37,63.0
353.43,89.0
353.49,72.0
353.56,68.0
353.62,82.0
353.68,86.0
353.74,59.0
353.81,61.0
353.87,51.0
353.93,53.0
354.0,59.0
354.06,62.0
354.12,48.0
354.19,41.0
354.25,63.0
354.31,60.0
354.37,80.0
354.44,65.0
354.5,35.0
354.56,39.0
354.63,15.0
354.69,34.0
354.75,16.0
354.82,0.0
354.88,8.0
354.94,17.0
355.0,-10.0
355.07,3.0
355.13,30.0
355.19,31.0
355.26,10.0
355.32,12.0
355.38,29.0
355.45,29.0
355.51,18.0
355.57,15.0
355.63,23.0
355.7,1.0
355.76,-22.0
355.82,-1.0
355.89,-2.0
355.95,-12.0
356.01,-12.0
356.08,4.0
356.14,-9.0
356.2,1.0
356.26,2.0
356.33,-4.0
356.39,13.0
356.45,11.0
356.52,11.0
356.58,21.0
356.64,14.0
356.71,4.0
356.77,1.0
356.83,-2.0
356.89,6.0
356.96,10.0
357.02,27.0
357.08,16.0
357.15,21.0
357.21,23.0
357.27,29.0
357.34,25.0
357.4,17.0
357.46,15.0
357.52,24.0
357.59,22.0
357.65,32.0
357.71,19.0
357.78,38.0
357.84,32.0
357.9,22.0
357.97,37.0
358.03,50.0
358.09,33.0
358.15,47.0
358.22,40.0
358.28,65.0
358.34,42.0
358.41,50.0
358.47,47.0
358.53,33.0
358.6,39.0
358.66,37.0
358.72,39.0
358.78,26.0
358.85,36.0
358.91,32.0
358.97,41.0
359.04,50.0
359.1,19.0
359.16,35.0
359.23,49.0
359.29,61.0
359.35,72.0
359.41,68.0
359.48,89.0
359.54,104.0
359.6,93.0
359.67,72.0
359.73,86.0
359.79,90.0
359.86,83.0
359.92,92.0
359.98,96.0
360.04,102.0
360.11,81.0
360.17,84.0
360.23,92.0
360.3,79.0
360.36,98.0
360.42,90.0
360.49,69.0
360.55,90.0
360.61,110.0
360.67,112.0
360.74,94.0
360.8,109.0
360.86,105.0
360.93,118.0
360.99,111.0
361.05,122.0
361.12,132.0
361.18,124.0
361.24,119.0
361.3,129.0
361.37,118.0
361.43,132.0
361.49,145.0
361.56,152.0
361.62,157.0
361.68,149.0
361.75,156.0
361.81,173.0
361.87,187.0
361.93,178.0
362.0,168.0
362.06,172.0
362.12,193.0
362.19,176.0
362.25,194.0
362.31,200.0
362.38,192.0
362.44,186.0
362.5,182.0
362.56,188.0
362.63,167.0
362.69,169.0
362.75,153.0
362.82,167.0
362.88,174.0
362.94,167.0
363.01,132.0
363.07,123.0
363.13,143.0
363.19,147.0
363.26,138.0
363.32,148.0
363.38,120.0
363.45,129.0
363.51,110.0
363.57,104.0
363.64,128.0
363.7,133.0
363.76,113.0
363.82,125.0
363.89,136.0
363.95,116.0
364.01,118.0
364.08,108.0
364.14,118.0
364.2,126.0
364.27,127.0
364.33,119.0
364.39,126.0
364.45,116.0
364.52,115.0
364.58,132.0
364.64,125.0
364.71,117.0
364.77,124.0
364.83,123.0
364.9,119.0
364.96,114.0
365.02,99.0
365.08,100.0
365.15,123.0
365.21,132.0
365.27,124.0
365.34,118.0
365.4,123.0
365.46,105.0
365.53,104.0
365.59,127.0
365.65,117.0
365.71,113.0
365.78,114.0
365.84,121.0
365.9,110.0
365.97,125.0
366.03,134.0
366.09,110.0
366.16,113.0
366.22,114.0
366.28,124.0
366.34,130.0
366.41,148.0
366.47,133.0
366.53,146.0
366.6,143.0
366.66,137.0
366.72,161.0
366.79,157.0
366.85,149.0
366.91,152.0
366.97,148.0
367.04,160.0
367.1,156.0
367.16,162.0
367.23,155.0
367.29,151.0
367.35,158.0
367.42,161.0
367.48,156.0
367.54,165.0
367.6,168.0
367.67,166.0
367.73,179.0
367.79,178.0
367.86,178.0
367.92,179.0
367.98,182.0
368.05,180.0
368.11,180.0
368.17,199.0
368.23,196.0
368.3,179.0
368.36,185.0
368.42,176.0
368.49,171.0
368.55,163.0
368.61,165.0
368.68,165.0
368.74,153.0
368.8,151.0
368.86,144.0
368.93,124.0
368.99,141.0
369.05,141.0
369.12,150.0
369.18,144.0
369.24,141.0
369.31,148.0
369.37,136.0
369.43,138.0
369.49,141.0
369.56,131.0
369.62,130.0
369.68,126.0
369.75,134.0
369.81,138.0
369.87,144.0
369.94,153.0
370.0,148.0
370.06,131.0
370.12,127.0
370.19,134.0
370.25,129.0
370.31,144.0
370.38,148.0
370.44,135.0
370.5,130.0
370.57,123.0
370.63,142.0
370.69,98.0
370.75,99.0
370.82,118.0
370.88,120.0
370.94,118.0
371.01,81.0
371.07,100.0
371.13,84.0
371.2,110.0
371.26,123.0
371.32,106.0
371.38,97.0
371.45,97.0
371.51,102.0
371.57,93.0
371.64,90.0
371.7,102.0
371.76,101.0
371.83,91.0
371.89,101.0
371.95,111.0
372.01,99.0
372.08,83.0
372.14,91.0
372.2,87.0
372.27,80.0
372.33,74.0
372.39,79.0
372.46,78.0
372.52,72.0
372.58,66.0
372.64,63.0
372.71,67.0
372.77,47.0
372.83,43.0
372.9,44.0
372.96,42.0
373.02,26.0
373.09,23.0
373.15,24.0
373.21,27.0
373.27,33.0
373.34,54.0
373.4,62.0
373.46,47.0
373.53,49.0
373.59,46.0
373.65,51.0
373.72,68.0
373.78,54.0
373.84,38.0
373.9,50.0
373.97,28.0
374.03,39.0
374.09,34.0
374.16,34.0
374.22,51.0
374.28,50.0
374.35,46.0
374.41,41.0
374.47,50.0
374.53,49.0
374.6,43.0
374.66,72.0
374.72,51.0
374.79,47.0
374.85,53.0
374.91,46.0
374.98,39.0
375.04,30.0
375.1,47.0
375.16,50.0
375.23,57.0
375.29,41.0
375.35,58.0
375.42,50.0
375.48,53.0
375.54,70.0
375.61,65.0
375.67,57.0
375.73,31.0
375.79,24.0
375.86,54.0
375.92,49.0
375.98,49.0
376.05,42.0
376.11,55.0
376.17,68.0
376.24,54.0
376.3,73.0
376.36,71.0
376.42,62.0
376.49,59.0
376.55,65.0
376.61,78.0
376.68,70.0
376.74,62.0
376.8,71.0
376.87,90.0
376.93,83.0
376.99,109.0
377.05,94.0
377.12,119.0
377.18,110.0
377.24,108.0
377.31,121.0
377.37,104.0
377.43,107.0
377.5,91.0
377.56,104.0
377.62,108.0
377.68,111.0
377.75,113.0
377.81,88.0
377.87,87.0
377.94,104.0
378.0,118.0
378.06,112.0
378.13,112.0
378.19,131.0
378.25,157.0
378.31,135.0
378.38,127.0
378.44,144.0
378.5,149.0
378.57,141.0
378.63,139.0
378.69,126.0
378.76,120.0
378.82,129.0
378.88,129.0
378.94,128.0
379.01,119.0
379.07,128.0
379.13,127.0
379.2,128.0
379.26,97.0
379.32,100.0
379.39,86.0
379.45,79.0
379.51,79.0
379.57,85.0
379.64,85.0
379.7,96.0
379.76,75.0
379.83,61.0
379.89,82.0
379.95,55.0
380.02,46.0
380.08,63.0
380.14,67.0
380.2,73.0
380.27,59.0
380.33,75.0
380.39,92.0
380.46,70.0
380.52,69.0
380.58,72.0
380.65,46.0
380.71,70.0
380.77,72.0
380.83,62.0
380.9,62.0
380.96,54.0
381.02,39.0
381.09,35.0
381.15,53.0
381.21,17.0
381.28,17.0
381.34,15.0
381.4,13.0
381.46,22.0
381.53,39.0
381.59,49.0
381.65,7.0
381.72,19.0
381.78,49.0
381.84,41.0
381.91,23.0
381.97,21.0
382.03,47.0
382.09,57.0
382.16,65.0
382.22,58.0
382.28,69.0
382.35,57.0
382.41,68.0
382.47,61.0
382.54,62.0
382.6,75.0
382.66,70.0
382.72,40.0
382.79,49.0
382.85,62.0
382.91,63.0
382.98,80.0
383.04,65.0
383.1,72.0
383.17,57.0
383.23,60.0
383.29,56.0
383.35,77.0
383.42,77.0
383.48,64.0
383.54,68.0
383.61,60.0
383.67,65.0
383.73,97.0
383.8,99.0
383.86,99.0
383.92,105.0
383.98,90.0
384.05,105.0
384.11,141.0
384.17,94.0
384.24,108.0
384.3,109.0
384.36,103.0
384.43,121.0
384.49,131.0
384.55,130.0
384.61,112.0
384.68,112.0
384.74,120.0
384.8,129.0
384.87,131.0
384.93,132.0
384.99,122.0
385.06,154.0
385.12,145.0
385.18,137.0
385.24,146.0
385.31,155.0
385.37,141.0
385.43,134.0
385.5,145.0
385.56,131.0
385.62,125.0
385.69,149.0
385.75,148.0
385.81,143.0
385.87,151.0
385.94,167.0
386.0,171.0
386.06,155.0
386.13,149.0
386.19,138.0
386.25,139.0
386.32,154.0
386.38,153.0
386.44,133.0
386.5,136.0
386.57,142.0
386.63,146.0
386.69,153.0
386.76,145.0
386.82,162.0
386.88,160.0
386.95,156.0
387.01,153.0
387.07,156.0
387.13,157.0
387.2,167.0
387.26,171.0
387.32,157.0
387.39,165.0
387.45,159.0
387.51,168.0
387.58,175.0
387.64,195.0
387.7,199.0
387.76,186.0
387.83,182.0
387.89,185.0
387.95,200.0
388.02,169.0
388.08,160.0
388.14,170.0
388.21,178.0
388.27,181.0
388.33,166.0
388.39,161.0
388.46,189.0
388.52,176.0
388.58,175.0
388.65,167.0
388.71,159.0
388.77,157.0
388.84,154.0
388.9,152.0
388.96,176.0
389.02,165.0
389.09,161.0
389.15,172.0
389.21,169.0
389.28,179.0
389.34,167.0
389.4,165.0
389.47,156.0
389.53,162.0
389.59,159.0
389.65,159.0
389.72,153.0
389.78,154.0
389.84,153.0
389.91,141.0
389.97,145.0
390.03,128.0
390.1,124.0
390.16,124.0
390.22,125.0
390.28,118.0
390.35,129.0
390.41,135.0
390.47,123.0
390.54,135.0
390.6,107.0
390.66,109.0
390.73,130.0
390.79,140.0
390.85,127.0
390.91,137.0
390.98,143.0
391.04,138.0
391.1,142.0
391.17,127.0
391.23,127.0
391.29,123.0
391.36,142.0
391.42,165.0
391.48,129.0
391.54,153.0
391.61,168.0
391.67,167.0
391.73,171.0
391.8,170.0
391.86,178.0
391.92,206.0
391.99,206.0
392.05,176.0
392.11,181.0
392.17,165.0
392.24,159.0
392.3,181.0
392.36,181.0
392.43,207.0
392.49,196.0
392.55,196.0
392.62,193.0
392.68,208.0
392.74,208.0
392.8,212.0
392.87,210.0
392.93,195.0
392.99,198.0
393.06,200.0
393.12,211.0
393.18,189.0
393.25,196.0
393.31,197.0
393.37,202.0
393.43,230.0
393.5,240.0
393.56,226.0
393.62,226.0
393.69,231.0
393.75,229.0
393.81,241.0
393.88,226.0
393.94,225.0
394.0,220.0
394.06,237.0
394.13,230.0
394.19,241.0
394.25,229.0
394.32,231.0
394.38,245.0
394.44,236.0
394.51,235.0
394.57,237.0
394.63,223.0
394.69,235.0
394.76,237.0
394.82,244.0
394.88,255.0
394.95,252.0
395.01,237.0
395.07,255.0
395.14,259.0
395.2,250.0
395.26,248.0
395.32,248.0
395.39,252.0
395.45,252.0
395.51,262.0
395.58,245.0
395.64,244.0
395.7,238.0
395.77,239.0
395.83,225.0
395.89,221.0
395.95,239.0
396.02,234.0
396.08,211.0
396.14,230.0
396.21,231.0
396.27,230.0
396.33,225.0
396.4,232.0
396.46,229.0
396.52,236.0
396.58,212.0
396.65,211.0
396.71,200.0
396.77,213.0
396.84,211.0
396.9,207.0
396.96,208.0
397.03,190.0
397.09,208.0
397.15,203.0
397.21,200.0
397.28,201.0
397.34,198.0
397.4,217.0
397.47,174.0
397.53,178.0
397.59,186.0
397.66,165.0
397.72,163.0
397.78,156.0
397.84,138.0
397.91,120.0
397.97,107.0
398.03,126.0
398.1,131.0
398.16,109.0
398.22,127.0
398.29,112.0
398.35,104.0
398.41,115.0
398.47,111.0
398.54,99.0
398.6,102.0
398.66,93.0
398.73,98.0
398.79,96.0
398.85,69.0
398.92,66.0
398.98,67.0
399.04,67.0
399.1,55.0
399.17,73.0
399.23,66.0
399.29,86.0
399.36,77.0
399.42,74.0
399.48,78.0
399.55,101.0
399.61,100.0
399.67,88.0
399.73,98.0
399.8,89.0
399.86,93.0
399.92,99.0
399.99,102.0
400.05,86.0
400.11,105.0
400.18,113.0
400.24,100.0
400.3,108.0
400.36,105.0
400.43,96.0
400.49,112.0
400.55,112.0
400.62,108.0
400.68,113.0
400.74,108.0
400.81,130.0
400.87,113.0
400.93,115.0
400.99,107.0
401.06,92.0
401.12,114.0
401.18,112.0
401.25,98.0
401.31,101.0
401.37,102.0
401.44,116.0
401.5,115.0
401.56,126.0
401.62,137.0
401.69,123.0
401.75,137.0
401.81,118.0
401.88,132.0
401.94,118.0
402.0,136.0
402.07,139.0
402.13,127.0
402.19,124.0
402.25,116.0
402.32,112.0
402.38,127.0
402.44,124.0
402.51,110.0
402.57,97.0
402.63,94.0
402.7,112.0
402.76,120.0
402.82,116.0
402.88,107.0
402.95,86.0
403.01,113.0
403.07,123.0
403.14,128.0
403.2,101.0
403.26,100.0
403.33,108.0
403.39,124.0
403.45,123.0
403.51,112.0
403.58,103.0
403.64,102.0
403.7,101.0
403.77,76.0
403.83,77.0
403.89,67.0
403.96,96.0
404.02,97.0
404.08,87.0
404.14,87.0
404.21,56.0
404.27,54.0
404.33,60.0
404.4,43.0
404.46,42.0
404.52,47.0
404.59,52.0
404.65,51.0
404.71,74.0
404.77,69.0
404.84,51.0
404.9,68.0
404.96,50.0
405.03,33.0
405.09,46.0
405.15,46.0
405.22,43.0
405.28,54.0
405.34,58.0
405.4,62.0
405.47,68.0
405.53,58.0
405.59,42.0
405.66,36.0
405.72,45.0
405.78,29.0
405.85,28.0
405.91,24.0
405.97,24.0
406.03,41.0
406.1,31.0
406.16,27.0
406.22,14.0
406.29,2.0
406.35,9.0
406.41,23.0
406.48,19.0
406.54,25.0
406.6,24.0
406.66,28.0
406.73,30.0
406.79,32.0
406.85,33.0
406.92,40.0
406.98,30.0
407.04,44.0
407.11,24.0
407.17,13.0
407.23,30.0
407.29,24.0
407.36,39.0
407.42,36.0
407.48,16.0
407.55,33.0
407.61,21.0
407.67,17.0
407.74,33.0
407.8,21.0
407.86,22.0
407.92,20.0
407.99,3.0
408.05,6.0
408.11,19.0
408.18,8.0
408.24,33.0
408.3,25.0
408.37,20.0
408.43,13.0
408.49,10.0
408.55,24.0
408.62,45.0
408.68,20.0
408.74,9.0
408.81,34.0
408.87,47.0
408.93,49.0
409.0,47.0
409.06,51.0
409.12,59.0
409.18,69.0
409.25,68.0
409.31,68.0
409.37,57.0
409.44,41.0
409.5,43.0
409.56,37.0
409.63,57.0
409.69,74.0
409.75,42.0
409.81,73.0
409.88,54.0
409.94,52.0
410.0,80.0
410.07,66.0
410.13,52.0
410.19,32.0
410.26,50.0
410.32,57.0
410.38,83.0
410.44,76.0
410.51,66.0
410.57,79.0
410.63,78.0
410.7,82.0
410.76,102.0
410.82,92.0
410.89,94.0
410.95,84.0
411.01,77.0
411.07,98.0
411.14,102.0
411.2,88.0
411.26,59.0
411.33,80.0
411.39,95.0
411.45,77.0
411.52,79.0
411.58,89.0
411.64,94.0
411.7,104.0
411.77,123.0
411.83,113.0
411.89,134.0
411.96,137.0
412.02,141.0
412.08,139.0
412.15,145.0
412.21,133.0
412.27,135.0
412.33,145.0
412.4,143.0
412.46,142.0
412.52,145.0
412.59,136.0
412.65,124.0
412.71,118.0
412.78,129.0
412.84,142.0
412.9,148.0
412.96,135.0
413.03,147.0
413.09,119.0
413.15,115.0
413.22,114.0
413.28,93.0
413.34,106.0
413.41,113.0
413.47,116.0
413.53,115.0
413.59,105.0
413.66,113.0
413.72,99.0
413.78,116.0
413.85,118.0
413.91,110.0
413.97,122.0
414.04,124.0
414.1,126.0
414.16,118.0
414.22,116.0
414.29,103.0
414.35,94.0
414.41,96.0
414.48,109.0
414.54,121.0
414.6,104.0
414.67,120.0
414.73,124.0
414.79,103.0
414.85,116.0
414.92,112.0
414.98,100.0
415.04,119.0
415.11,127.0
415.17,123.0
415.23,123.0
415.3,116.0
415.36,120.0
415.42,113.0
415.48,110.0
415.55,94.0
415.61,121.0
415.67,119.0
415.74,121.0
415.8,105.0
415.86,96.0
415.93,118.0
415.99,109.0
416.05,98.0
416.11,112.0
416.18,96.0
416.24,87.0
416.3,87.0
416.37,101.0
416.43,119.0
416.49,92.0
416.56,104.0
416.62,128.0
416.68,132.0
416.74,122.0
416.81,136.0
416.87,137.0
416.93,129.0
417.0,119.0
417.06,123.0
417.12,148.0
417.19,148.0
417.25,149.0
417.31,148.0
417.37,140.0
417.44,162.0
417.5,163.0
417.56,154.0
417.63,157.0
417.69,159.0
417.75,178.0
417.82,168.0
417.88,176.0
417.94,184.0
418.0,184.0
418.07,187.0
418.13,193.0
418.19,201.0
418.26,219.0
418.32,208.0
418.38,200.0
418.45,225.0
418.51,220.0
418.57,214.0
418.63,217.0
418.7,218.0
418.76,237.0
418.82,226.0
418.89,231.0
418.95,239.0
419.01,231.0
419.08,234.0
419.14,224.0
419.2,216.0
419.26,231.0
419.33,218.0
419.39,230.0
419.45,230.0
419.52,229.0
419.58,232.0
419.64,214.0
419.71,226.0
419.77,205.0
419.83,219.0
419.89,221.0
419.96,208.0
420.02,220.0
420.08,210.0
420.15,206.0
420.21,206.0
420.27,208.0
420.34,217.0
420.4,211.0
420.46,219.0
420.52,225.0
420.59,198.0
420.65,229.0
420.71,229.0
420.78,226.0
420.84,215.0
420.9,200.0
420.97,208.0
421.03,225.0
421.09,200.0
421.15,207.0
421.22,218.0
421.28,229.0
421.34,230.0
421.41,225.0
421.47,237.0
421.53,231.0
421.6,213.0
421.66,226.0
421.72,219.0
421.78,224.0
421.85,233.0
421.91,234.0
421.97,234.0
422.04,199.0
422.1,209.0
422.16,194.0
422.23,203.0
422.29,189.0
422.35,164.0
422.41,187.0
422.48,177.0
422.54,179.0
422.6,183.0
422.67,171.0
422.73,178.0
422.79,178.0
422.86,181.0
422.92,185.0
422.98,188.0
423.04,190.0
423.11,184.0
423.17,173.0
423.23,179.0
423.3,187.0
423.36,162.0
423.42,151.0
423.49,154.0
423.55,159.0
423.61,178.0
423.67,157.0
423.74,138.0
423.8,169.0
423.86,169.0
423.93,162.0
423.99,176.0
424.05,143.0
424.12,140.0
424.18,124.0
424.24,107.0
424.3,126.0
424.37,122.0
424.43,115.0
424.49,101.0
424.56,109.0
424.62,106.0
424.68,93.0
424.75,101.0
424.81,108.0
424.87,105.0
424.93,95.0
425.0,72.0
425.06,67.0
425.12,64.0
425.19,70.0
425.25,86.0
425.31,74.0
425.38,66.0
425.44,82.0
425.5,63.0
425.56,74.0
425.63,83.0
425.69,65.0
425.75,65.0
425.82,68.0
425.88,79.0
425.94,78.0
426.01,75.0
426.07,70.0
426.13,68.0
426.19,64.0
426.26,99.0
426.32,89.0
426.38,81.0
426.45,80.0
426.51,84.0
426.57,90.0
426.64,94.0
426.7,109.0
426.76,104.0
426.82,115.0
426.89,101.0
426.95,119.0
427.01,128.0
427.08,119.0
427.14,110.0
427.2,104.0
427.27,117.0
427.33,127.0
427.39,123.0
427.45,112.0
427.52,110.0
427.58,106.0
427.64,116.0
427.71,107.0
427.77,110.0
427.83,101.0
427.9,99.0
427.96,84.0
428.02,109.0
428.08,114.0
428.15,100.0
428.21,119.0
428.27,113.0
428.34,99.0
428.4,115.0
428.46,90.0
428.53,96.0
428.59,125.0
428.65,126.0
428.71,102.0
428.78,86.0
428.84,103.0
428.9,107.0
428.97,87.0
429.03,97.0
429.09,96.0
429.16,97.0
429.22,92.0
429.28,66.0
429.34,99.0
429.41,98.0
429.47,68.0
429.53,72.0
429.6,90.0
429.66,72.0
429.72,79.0
429.79,101.0
429.85,91.0
429.91,86.0
429.97,69.0
430.04,101.0
430.1,87.0
430.16,83.0
430.23,93.0
430.29,80.0
430.35,75.0
430.42,72.0
430.48,63.0
430.54,79.0
430.6,80.0
430.67,58.0
430.73,77.0
430.79,66.0
430.86,50.0
430.92,32.0
430.98,52.0
431.05,38.0
431.11,36.0
431.17,32.0
431.23,3.0
431.3,2.0
431.36,4.0
431.42,5.0
431.49,8.0
431.55,11.0
431.61,6.0
431.68,5.0
431.74,13.0
431.8,-1.0
431.86,13.0
431.93,1.0
431.99,13.0
432.05,16.0
432.12,11.0
432.18,21.0
432.24,1.0
432.31,39.0
432.37,10.0
432.43,13.0
432.49,11.0
432.56,9.0
432.62,20.0
432.68,41.0
432.75,31.0
432.81,34.0
432.87,20.0
432.94,22.0
433.0,68.0
433.06,58.0
433.12,47.0
433.19,51.0
433.25,34.0
433.31,40.0
433.38,31.0
433.44,37.0
433.5,30.0
433.57,26.0
433.63,40.0
433.69,30.0
433.75,32.0
433.82,32.0
433.88,21.0
433.94,42.0
434.01,45.0
434.07,43.0
434.13,42.0
434.2,43.0
434.26,47.0
434.32,51.0
434.38,37.0
434.45,45.0
434.51,49.0
434.57,47.0
434.64,53.0
434.7,33.0
434.76,55.0
434.83,58.0
434.89,64.0
434.95,69.0
435.01,77.0
435.08,68.0
435.14,61.0
435.2,74.0
435.27,73.0
435.33,66.0
435.39,56.0
435.46,81.0
435.52,97.0
435.58,102.0
435.64,67.0
435.71,79.0
435.77,92.0
435.83,111.0
435.9,102.0
435.96,85.0
436.02,91.0
436.09,110.0
436.15,109.0
436.21,84.0
436.27,81.0
436.34,87.0
436.4,82.0
436.46,114.0
436.53,104.0
436.59,116.0
436.65,118.0
436.72,90.0
436.78,100.0
436.84,88.0
436.9,91.0
436.97,90.0
437.03,88.0
437.09,84.0
437.16,78.0
437.22,90.0
437.28,97.0
437.35,94.0
437.41,99.0
437.47,101.0
437.53,74.0
437.6,88.0
437.66,81.0
437.72,97.0
437.79,92.0
437.85,79.0
437.91,86.0
437.98,85.0
438.04,81.0
438.1,75.0
438.16,82.0
438.23,80.0
438.29,92.0
438.35,100.0
438.42,109.0
438.48,93.0
438.54,91.0
438.61,90.0
438.67,97.0
438.73,87.0
438.79,83.0
438.86,75.0
438.92,86.0
438.98,97.0
439.05,107.0
439.11,115.0
439.17,108.0
439.24,113.0
439.3,100.0
439.36,127.0
439.42,100.0
439.49,115.0
439.55,127.0
439.61,112.0
439.68,102.0
439.74,85.0
439.8,97.0
439.87,80.0
439.93,58.0
439.99,71.0
440.05,75.0
440.12,71.0
440.18,81.0
440.24,66.0
440.31,86.0
440.37,77.0
440.43,70.0
440.5,82.0
440.56,90.0
440.62,88.0
440.68,93.0
440.75,88.0
440.81,83.0
440.87,102.0
440.94,97.0
441.0,109.0
441.06,104.0
441.13,78.0
441.19,89.0
441.25,105.0
441.31,69.0
441.38,88.0
441.44,90.0
441.5,91.0
441.57,91.0
441.63,62.0
441.69,88.0
441.76,85.0
441.82,75.0
441.88,75.0
441.94,74.0
442.01,88.0
442.07,75.0
442.13,72.0
442.2,81.0
442.26,93.0
442.32,76.0
442.39,76.0
442.45,100.0
442.51,108.0
442.57,93.0
442.64,91.0
442.7,97.0
442.76,101.0
442.83,111.0
442.89,78.0
442.95,76.0
443.02,125.0
443.08,110.0
443.14,112.0
443.2,124.0
443.27,127.0
443.33,148.0
443.39,130.0
443.46,134.0
443.52,154.0
443.58,154.0
443.65,163.0
443.71,166.0
443.77,162.0
443.83,167.0
443.9,179.0
443.96,181.0
444.02,167.0
444.09,189.0
444.15,196.0
444.21,185.0
444.28,189.0
444.34,174.0
444.4,188.0
444.46,183.0
444.53,190.0
444.59,192.0
444.65,181.0
444.72,187.0
444.78,185.0
444.84,192.0
444.91,178.0
444.97,195.0
445.03,209.0
445.09,202.0
445.16,197.0
445.22,203.0
445.28,185.0
445.35,197.0
445.41,185.0
445.47,173.0
445.54,187.0
445.6,184.0
445.66,179.0
445.72,174.0
445.79,181.0
445.85,176.0
445.91,167.0
445.98,191.0
446.04,201.0
446.1,195.0
446.17,207.0
446.23,204.0
446.29,199.0
446.35,170.0
446.42,154.0
446.48,170.0
446.54,185.0
446.61,148.0
446.67,152.0
446.73,157.0
446.8,144.0
446.86,141.0
446.92,157.0
446.98,148.0
447.05,146.0
447.11,115.0
447.17,163.0
447.24,161.0
447.3,131.0
447.36,142.0
447.43,137.0
447.49,152.0
447.55,143.0
447.61,127.0
447.68,114.0
447.74,130.0
447.8,144.0
447.87,137.0
447.93,134.0
447.99,149.0
448.06,131.0
448.12,124.0
448.18,134.0
448.24,132.0
448.31,121.0
448.37,101.0
448.43,101.0
448.5,121.0
448.56,108.0
448.62,91.0
448.69,111.0
448.75,86.0
448.81,85.0
448.87,100.0
448.94,90.0
449.0,85.0
449.06,77.0
449.13,80.0
449.19,80.0
449.25,73.0
449.32,89.0
449.38,88.0
449.44,91.0
449.5,91.0
449.57,101.0
449.63,86.0
449.69,69.0
449.76,83.0
449.82,89.0
449.88,104.0
449.95,87.0
450.01,93.0
450.07,99.0
450.13,104.0
450.2,122.0
450.26,108.0
450.32,117.0
450.39,104.0
450.45,90.0
450.51,100.0
450.58,104.0
450.64,106.0
450.7,123.0
450.76,119.0
450.83,121.0
450.89,111.0
450.95,98.0
451.02,111.0
451.08,116.0
451.14,122.0
451.21,138.0
451.27,121.0
451.33,137.0
451.39,136.0
451.46,135.0
451.52,120.0
451.58,134.0
451.65,132.0
451.71,130.0
451.77,134.0
451.84,134.0
451.9,138.0
451.96,143.0
452.02,160.0
452.09,144.0
452.15,157.0
452.21,163.0
452.28,154.0
452.34,146.0
452.4,140.0
452.47,156.0
452.53,150.0
452.59,133.0
452.65,126.0
452.72,131.0
452.78,122.0
452.84,123.0
452.91,124.0
452.97,124.0
453.03,122.0
453.1,129.0
453.16,119.0
453.22,105.0
453.28,107.0
453.35,100.0
453.41,109.0
453.47,96.0
453.54,111.0
453.6,123.0
453.66,115.0
453.73,119.0
453.79,124.0
453.85,132.0
453.91,134.0
453.98,139.0
454.04,130.0
454.1,105.0
454.17,133.0
454.23,133.0
454.29,115.0
454.36,143.0
454.42,122.0
454.48,117.0
454.54,129.0
454.61,113.0
454.67,107.0
454.73,107.0
454.8,99.0
454.86,84.0
454.92,94.0
454.99,93.0
455.05,94.0
455.11,104.0
455.17,86.0
455.24,85.0
455.3,89.0
455.36,87.0
455.43,69.0
455.49,112.0
455.55,88.0
455.62,86.0
455.68,89.0
455.74,76.0
455.8,79.0
455.87,71.0
455.93,94.0
455.99,90.0
456.06,95.0
456.12,68.0
456.18,76.0
456.25,80.0
456.31,64.0
456.37,58.0
456.43,52.0
456.5,48.0
456.56,42.0
456.62,29.0
456.69,45.0
456.75,31.0
456.81,40.0
456.88,33.0
456.94,33.0
457.0,54.0
457.06,39.0
457.13,42.0
457.19,36.0
457.25,34.0
457.32,36.0
457.38,44.0
457.44,48.0
457.51,28.0
457.57,38.0
457.63,28.0
457.69,7.0
457.76,12.0
457.82,8.0
457.88,5.0
457.95,2.0
458.01,1.0
458.07,-5.0
458.14,-3.0
458.2,-12.0
458.26,-24.0
458.32,-13.0
458.39,-2.0
458.45,3.0
458.51,-13.0
458.58,0.0
458.64,-11.0
458.7,-11.0
458.77,-12.0
458.83,-17.0
458.89,14.0
458.95,4.0
459.02,-6.0
459.08,-11.0
459.14,4.0
459.21,4.0
459.27,8.0
459.33,32.0
459.4,18.0
459.46,20.0
459.52,25.0
459.58,27.0
459.65,25.0
459.71,36.0
459.77,54.0
459.84,34.0
459.9,38.0
459.96,39.0
460.03,40.0
460.09,44.0
460.15,49.0
460.21,23.0
460.28,23.0
460.34,38.0
460.4,51.0
460.47,52.0
460.53,40.0
460.59,36.0
460.66,40.0
460.72,35.0
460.78,47.0
460.84,42.0
460.91,37.0
460.97,37.0
461.03,41.0
461.1,62.0
461.16,55.0
461.22,44.0
461.29,59.0
461.35,76.0
461.41,73.0
461.47,62.0
461.54,73.0
461.6,67.0
461.66,78.0
461.73,56.0
461.79,63.0
461.85,85.0
461.92,60.0
461.98,58.0
462.04,75.0
462.1,73.0
462.17,96.0
462.23,69.0
462.29,74.0
462.36,92.0
462.42,81.0
462.48,92.0
462.55,89.0
462.61,93.0
462.67,90.0
462.73,88.0
462.8,97.0
462.86,89.0
462.92,103.0
462.99,95.0
463.05,103.0
463.11,114.0
463.18,100.0
463.24,105.0
463.3,114.0
463.36,108.0
463.43,99.0
463.49,90.0
463.55,114.0
463.62,96.0
463.68,108.0
463.74,92.0
463.81,96.0
463.87,115.0
463.93,105.0
463.99,103.0
464.06,99.0
464.12,99.0
464.18,78.0
464.25,86.0
464.31,83.0
464.37,98.0
464.44,72.0
464.5,79.0
464.56,77.0
464.62,66.0
464.69,78.0
464.75,62.0
464.81,47.0
464.88,49.0
464.94,51.0
465.0,59.0
465.07,73.0
465.13,67.0
465.19,58.0
465.25,49.0
465.32,47.0
465.38,62.0
465.44,60.0
465.51,63.0
465.57,69.0
465.63,62.0
465.7,67.0
465.76,50.0
465.82,41.0
465.88,70.0
465.95,60.0
466.01,56.0
466.07,71.0
466.14,58.0
466.2,71.0
466.26,70.0
466.33,83.0
466.39,88.0
466.45,68.0
466.51,66.0
466.58,73.0
466.64,86.0
466.7,78.0
466.77,87.0
466.83,95.0
466.89,108.0
466.96,117.0
467.02,99.0
467.08,101.0
467.14,110.0
467.21,105.0
467.27,106.0
467.33,83.0
467.4,110.0
467.46,111.0
467.52,95.0
467.59,102.0
467.65,120.0
467.71,125.0
467.77,120.0
467.84,135.0
467.9,123.0
467.96,133.0
468.03,126.0
468.09,149.0
468.15,166.0
468.22,150.0
468.28,152.0
468.34,127.0
468.4,153.0
468.47,139.0
468.53,136.0
468.59,144.0
468.66,154.0
468.72,140.0
468.78,147.0
468.85,160.0
468.91,158.0
468.97,140.0
469.03,163.0
469.1,160.0
469.16,162.0
469.22,161.0
469.29,148.0
469.35,142.0
469.41,128.0
469.48,145.0
469.54,141.0
469.6,143.0
469.66,157.0
469.73,168.0
469.79,158.0
469.85,174.0
469.92,148.0
469.98,140.0
470.04,161.0
470.11,166.0
470.17,170.0
470.23,169.0
470.29,171.0
470.36,162.0
470.42,163.0
470.48,167.0
470.55,191.0
470.61,187.0
470.67,197.0
470.74,177.0
470.8,193.0
470.86,207.0
470.92,210.0
470.99,216.0
471.05,182.0
471.11,193.0
471.18,196.0
471.24,179.0
471.3,197.0
471.37,214.0
471.43,204.0
471.49,196.0
471.55,192.0
471.62,185.0
471.68,197.0
471.74,173.0
471.81,167.0
471.87,158.0
471.93,151.0
472.0,168.0
472.06,177.0
472.12,185.0
472.18,184.0
472.25,165.0
472.31,190.0
472.37,191.0
472.44,191.0
472.5,200.0
472.56,186.0
472.63,202.0
472.69,177.0
472.75,180.0
472.81,171.0
472.88,180.0
472.94,195.0
473.0,191.0
473.07,184.0
473.13,170.0
473.19,166.0
473.26,171.0
473.32,174.0
473.38,189.0
473.44,184.0
473.51,183.0
473.57,184.0
473.63,168.0
473.7,177.0
473.76,181.0
473.82,162.0
473.89,179.0
473.95,182.0
474.01,180.0
474.07,175.0
474.14,152.0
474.2,177.0
474.26,168.0
474.33,163.0
474.39,156.0
474.45,157.0
474.52,154.0
474.58,148.0
474.64,136.0
474.7,154.0
474.77,154.0
474.83,150.0
474.89,152.0
474.96,148.0
475.02,135.0
475.08,148.0
475.15,140.0
475.21,128.0
475.27,139.0
475.33,122.0
475.4,126.0
475.46,121.0
475.52,117.0
475.59,131.0
475.65,107.0
475.71,121.0
475.78,90.0
475.84,110.0
475.9,105.0
475.96,92.0
476.03,103.0
476.09,105.0
476.15,102.0
476.22,72.0
476.28,89.0
476.34,100.0
476.41,92.0
476.47,98.0
476.53,88.0
476.59,111.0
476.66,99.0
476.72,97.0
476.78,124.0
476.85,118.0
476.91,134.0
476.97,123.0
477.04,115.0
477.1,132.0
477.16,136.0
477.22,135.0
477.29,110.0
477.35,127.0
477.41,143.0
477.48,149.0
477.54,163.0
477.6,178.0
477.67,160.0
477.73,167.0
477.79,167.0
477.85,152.0
477.92,131.0
477.98,150.0
478.04,159.0
478.11,171.0
478.17,167.0
478.23,162.0
478.3,178.0
478.36,162.0
478.42,187.0
478.48,187.0
478.55,157.0
478.61,191.0
478.67,182.0
478.74,154.0
478.8,166.0
478.86,153.0
478.93,162.0
478.99,168.0
479.05,169.0
479.11,194.0
479.18,182.0
479.24,186.0
479.3,182.0
479.37,148.0
479.43,166.0
479.49,174.0
479.56,188.0
479.62,176.0
479.68,163.0
479.74,173.0
479.81,143.0
479.87,150.0
479.93,145.0
480.0,132.0
480.06,158.0
480.12,159.0
480.19,160.0
480.25,148.0
480.31,148.0
480.37,144.0
480.44,143.0
480.5,140.0
480.56,141.0
480.63,154.0
480.69,144.0
480.75,144.0
480.82,153.0
480.88,150.0
480.94,147.0
481.0,145.0
481.07,135.0
481.13,135.0
481.19,139.0
481.26,130.0
481.32,146.0
481.38,132.0
481.45,144.0
481.51,144.0
481.57,130.0
481.63,127.0
481.7,136.0
481.76,125.0
481.82,109.0
481.89,134.0
481.95,120.0
482.01,121.0
482.08,119.0
482.14,119.0
482.2,124.0
482.26,115.0
482.33,114.0
482.39,121.0
482.45,102.0
482.52,96.0
482.58,107.0
482.64,109.0
482.71,95.0
482.77,94.0
482.83,106.0
482.89,97.0
482.96,101.0
483.02,86.0
483.08,105.0
483.15,96.0
483.21,88.0
483.27,80.0
483.34,68.0
483.4,107.0
483.46,105.0
483.52,90.0
483.59,81.0
483.65,87.0
483.71,108.0
483.78,75.0
483.84,79.0
483.9,67.0
483.97,75.0
484.03,59.0
484.09,74.0
484.15,89.0
484.22,73.0
484.28,85.0
484.34,111.0
484.41,106.0
484.47,90.0
484.53,94.0
484.6,99.0
484.66,77.0
484.72,91.0
484.78,101.0
484.85,82.0
484.91,86.0
484.97,84.0
485.04,100.0
485.1,92.0
485.16,86.0
485.23,99.0
485.29,107.0
485.35,115.0
485.41,108.0
485.48,113.0
485.54,92.0
485.6,101.0
485.67,91.0
485.73,94.0
485.79,74.0
485.86,82.0
485.92,92.0
485.98,97.0
486.04,78.0
486.11,79.0
486.17,48.0
486.23,48.0
486.3,58.0
486.36,54.0
486.42,67.0
486.49,58.0
486.55,54.0
486.61,55.0
486.67,58.0
486.74,73.0
486.8,66.0
486.86,64.0
486.93,72.0
486.99,70.0
487.05,83.0
487.12,55.0
487.18,70.0
487.24,54.0
487.3,39.0
487.37,66.0
487.43,45.0
487.49,84.0
487.56,72.0
487.62,62.0
487.68,74.0
487.75,79.0
487.81,95.0
487.87,77.0
487.93,70.0
488.0,45.0
488.06,58.0
488.12,67.0
488.19,76.0
488.25,54.0
488.31,65.0
488.38,76.0
488.44,54.0
488.5,69.0
488.56,59.0
488.63,58.0
488.69,77.0
488.75,63.0
488.82,53.0
488.88,61.0
488.94,73.0
489.01,70.0
489.07,75.0
489.13,74.0
489.19,60.0
489.26,57.0
489.32,63.0
489.38,64.0
489.45,67.0
489.51,51.0
489.57,65.0
489.64,67.0
489.7,54.0
489.76,44.0
489.82,60.0
489.89,39.0
489.95,34.0
490.01,59.0
490.08,67.0
490.14,66.0
490.2,76.0
490.27,81.0
490.33,89.0
490.39,79.0
490.45,58.0
490.52,47.0
490.58,62.0
490.64,71.0
490.71,60.0
490.77,55.0
490.83,51.0
490.9,56.0
490.96,57.0
491.02,76.0
491.08,80.0
491.15,62.0
491.21,67.0
491.27,80.0
491.34,80.0
491.4,85.0
491.46,56.0
491.53,61.0
491.59,61.0
491.65,81.0
491.71,61.0
491.78,59.0
491.84,50.0
491.9,37.0
491.97,39.0
492.03,38.0
492.09,40.0
492.16,30.0
492.22,55.0
492.28,48.0
492.34,63.0
492.41,50.0
492.47,52.0
492.53,52.0
492.6,29.0
492.66,31.0
492.72,42.0
492.79,55.0
492.85,62.0
492.91,68.0
492.97,49.0
493.04,61.0
493.1,86.0
493.16,53.0
493.23,66.0
493.29,74.0
493.35,71.0
493.42,56.0
493.48,74.0
493.54,102.0
493.6,112.0
493.67,96.0
493.73,112.0
493.79,120.0
493.86,117.0
493.92,92.0
493.98,101.0
494.05,127.0
494.11,144.0
494.17,121.0
494.23,124.0
494.3,120.0
494.36,111.0
494.42,123.0
494.49,118.0
494.55,146.0
494.61,121.0
494.68,123.0
494.74,129.0
494.8,114.0
494.86,130.0
494.93,127.0
494.99,135.0
495.05,129.0
495.12,153.0
495.18,143.0
495.24,127.0
495.31,143.0
495.37,147.0
495.43,143.0
495.49,152.0
495.56,147.0
495.62,122.0
495.68,129.0
495.75,141.0
495.81,147.0
495.87,144.0
495.94,150.0
496.0,158.0
496.06,165.0
496.12,168.0
496.19,163.0
496.25,185.0
496.31,179.0
496.38,178.0
496.44,187.0
496.5,192.0
496.57,207.0
496.63,220.0
496.69,201.0
496.75,198.0
496.82,209.0
496.88,223.0
496.94,208.0
497.01,201.0
497.07,201.0
497.13,188.0
497.2,206.0
497.26,212.0
497.32,192.0
497.38,201.0
497.45,201.0
497.51,217.0
497.57,213.0
497.64,199.0
497.7,185.0
497.76,201.0
497.83,196.0
497.89,195.0
497.95,182.0
498.01,168.0
498.08,163.0
498.14,170.0
498.2,180.0
498.27,159.0
498.33,165.0
498.39,156.0
498.46,171.0
498.52,147.0
498.58,149.0
498.64,155.0
498.71,116.0
498.77,138.0
498.83,132.0
498.9,159.0
498.96,132.0
499.02,142.0
499.09,131.0
499.15,136.0
499.21,133.0
499.27,130.0
499.34,106.0
499.4,105.0
499.46,112.0
499.53,122.0
499.59,133.0
499.65,147.0
499.72,127.0
499.78,136.0
499.84,136.0
499.9,135.0
499.97,149.0
500.03,142.0
500.09,139.0
500.16,159.0
500.22,161.0
500.28,168.0
500.35,163.0
500.41,164.0
500.47,174.0
500.53,163.0
500.6,165.0
500.66,160.0
500.72,175.0
500.79,184.0
500.85,179.0
500.91,180.0
500.98,175.0
501.04,171.0
501.1,152.0
501.16,163.0
501.23,157.0
501.29,158.0
501.35,142.0
501.42,164.0
501.48,148.0
501.54,158.0
501.61,176.0
501.67,150.0
501.73,166.0
501.79,158.0
501.86,150.0
501.92,149.0
501.98,141.0
502.05,154.0
502.11,151.0
502.17,143.0
502.24,149.0
502.3,147.0
502.36,149.0
502.42,133.0
502.49,156.0
502.55,153.0
502.61,136.0
502.68,144.0
502.74,143.0
502.8,138.0
502.87,142.0
502.93,135.0
502.99,132.0
503.05,125.0
503.12,117.0
503.18,121.0
503.24,123.0
503.31,115.0
503.37,104.0
503.43,125.0
503.5,116.0
503.56,109.0
503.62,104.0
503.68,95.0
503.75,119.0
503.81,112.0
503.87,111.0
503.94,114.0
504.0,118.0
504.06,113.0
504.13,120.0
504.19,111.0
504.25,136.0
504.31,108.0
504.38,134.0
504.44,135.0
504.5,124.0
504.57,125.0
504.63,130.0
504.69,141.0
504.76,117.0
504.82,130.0
504.88,112.0
504.94,113.0
505.01,88.0
505.07,117.0
505.13,106.0
505.2,71.0
505.26,80.0
505.32,90.0
505.39,106.0
505.45,103.0
505.51,114.0
505.57,121.0
505.64,105.0
505.7,89.0
505.76,105.0
505.83,135.0
505.89,123.0
505.95,111.0
506.02,121.0
506.08,116.0
506.14,108.0
506.2,92.0
506.27,85.0
506.33,96.0
506.39,88.0
506.46,114.0
506.52,107.0
506.58,89.0
506.65,93.0
506.71,85.0
506.77,89.0
506.83,62.0
506.9,51.0
506.96,77.0
507.02,63.0
507.09,70.0
507.15,68.0
507.21,81.0
507.28,88.0
507.34,92.0
507.4,91.0
507.46,77.0
507.53,78.0
507.59,69.0
507.65,51.0
507.72,52.0
507.78,64.0
507.84,69.0
507.91,50.0
507.97,37.0
508.03,36.0
508.09,43.0
508.16,63.0
508.22,45.0
508.28,39.0
508.35,55.0
508.41,51.0
508.47,47.0
508.54,60.0
508.6,59.0
508.66,44.0
508.72,61.0
508.79,64.0
508.85,51.0
508.91,37.0
508.98,43.0
509.04,52.0
509.1,44.0
509.17,39.0
509.23,27.0
509.29,37.0
509.35,29.0
509.42,44.0
509.48,22.0
509.54,29.0
509.61,16.0
509.67,39.0
509.73,29.0
509.8,24.0
509.86,37.0
509.92,44.0
509.98,37.0
510.05,41.0
510.11,57.0
510.17,43.0
510.24,58.0
510.3,48.0
510.36,56.0
510.43,33.0
510.49,30.0
510.55,47.0
510.61,39.0
510.68,44.0
510.74,37.0
510.8,69.0
510.87,64.0
510.93,54.0
510.99,54.0
511.06,52.0
511.12,72.0
511.18,66.0
511.24,67.0
511.31,59.0
511.37,52.0
511.43,67.0
511.5,53.0
511.56,74.0
511.62,88.0
511.69,75.0
511.75,79.0
511.81,83.0
511.87,88.0
511.94,108.0
512.0,102.0
512.06,87.0
512.13,87.0
512.19,91.0
512.25,109.0
512.32,107.0
512.38,105.0
512.44,110.0
512.5,123.0
512.57,118.0
512.63,100.0
512.69,100.0
512.76,96.0
512.82,113.0
512.88,102.0
512.95,108.0
513.01,117.0
513.07,99.0
513.13,84.0
513.2,72.0
513.26,89.0
513.32,92.0
513.39,79.0
513.45,81.0
513.51,79.0
513.58,82.0
513.64,75.0
513.7,85.0
513.76,92.0
513.83,62.0
513.89,65.0
513.95,78.0
514.02,68.0
514.08,67.0
514.14,88.0
514.21,94.0
514.27,88.0
514.33,76.0
514.39,88.0
514.46,88.0
514.52,77.0
514.58,74.0
514.65,69.0
514.71,73.0
514.77,79.0
514.84,78.0
514.9,75.0
514.96,68.0
515.02,68.0
515.09,63.0
515.15,53.0
515.21,60.0
515.28,55.0
515.34,68.0
515.4,53.0
515.47,61.0
515.53,70.0
515.59,58.0
515.65,70.0
515.72,61.0
515.78,81.0
515.84,61.0
515.91,67.0
515.97,77.0
516.03,81.0
516.1,63.0
516.16,59.0
516.22,65.0
516.28,70.0
516.35,86.0
516.41,59.0
516.47,53.0
516.54,61.0
516.6,72.0
516.66,86.0
516.73,80.0
516.79,69.0
516.85,75.0
516.91,55.0
516.98,44.0
517.04,36.0
517.1,67.0
517.17,46.0
517.23,66.0
517.29,33.0
517.36,37.0
517.42,61.0
517.48,51.0
517.54,70.0
517.61,56.0
517.67,39.0
517.73,51.0
517.8,57.0
517.86,72.0
517.92,63.0
517.99,55.0
518.05,69.0
518.11,74.0
518.17,70.0
518.24,89.0
518.3,103.0
518.36,102.0
518.43,104.0
518.49,81.0
518.55,80.0
518.62,113.0
518.68,91.0
518.74,75.0
518.8,86.0
518.87,69.0
518.93,70.0
518.99,70.0
519.06,73.0
519.12,62.0
519.18,74.0
519.25,83.0
519.31,91.0
519.37,97.0
519.43,99.0
519.5,102.0
519.56,95.0
519.62,96.0
519.69,103.0
519.75,101.0
519.81,108.0
519.88,105.0
519.94,93.0
520.0,113.0
520.06,116.0
520.13,104.0
520.19,116.0
520.25,116.0
520.32,121.0
520.38,118.0
520.44,110.0
520.51,124.0
520.57,151.0
520.63,130.0
520.69,132.0
520.76,147.0
520.82,136.0
520.88,145.0
520.95,119.0
521.01,124.0
521.07,129.0
521.14,129.0
521.2,139.0
521.26,129.0
521.32,147.0
521.39,145.0
521.45,164.0
521.51,158.0
521.58,165.0
521.64,150.0
521.7,186.0
521.77,174.0
521.83,167.0
521.89,162.0
521.95,156.0
522.02,167.0
522.08,161.0
522.14,166.0
522.21,160.0
522.27,163.0
522.33,163.0
522.4,169.0
522.46,160.0
522.52,170.0
522.58,194.0
522.65,198.0
522.71,187.0
522.77,183.0
522.84,179.0
522.9,189.0
522.96,192.0
523.03,171.0
523.09,170.0
523.15,179.0
523.21,163.0
523.28,161.0
523.34,169.0
523.4,163.0
523.47,172.0
523.53,177.0
523.59,165.0
523.66,158.0
523.72,166.0
523.78,167.0
523.84,173.0
523.91,168.0
523.97,165.0
524.03,162.0
524.1,159.0
524.16,168.0
524.22,158.0
524.29,150.0
524.35,163.0
524.41,158.0
524.47,166.0
524.54,152.0
524.6,160.0
524.66,161.0
524.73,158.0
524.79,158.0
524.85,180.0
524.92,176.0
524.98,151.0
525.04,147.0
525.1,171.0
525.17,170.0
525.23,155.0
525.29,157.0
525.36,149.0
525.42,152.0
525.48,155.0
525.55,154.0
525.61,138.0
525.67,136.0
525.73,161.0
525.8,180.0
525.86,168.0
525.92,171.0
525.99,159.0
526.05,164.0
526.11,159.0
526.18,146.0
526.24,161.0
526.3,188.0
526.36,154.0
526.43,178.0
526.49,179.0
526.55,163.0
526.62,163.0
526.68,184.0
526.74,188.0
526.81,187.0
526.87,197.0
526.93,179.0
526.99,185.0
527.06,192.0
527.12,198.0
527.18,201.0
527.25,188.0
527.31,201.0
527.37,188.0
527.44,187.0
527.5,169.0
527.56,156.0
527.62,179.0
527.69,187.0
527.75,179.0
527.81,188.0
527.88,185.0
527.94,167.0
528.0,177.0
528.07,190.0
528.13,200.0
528.19,193.0
528.25,192.0
528.32,172.0
528.38,196.0
528.44,210.0
528.51,192.0
528.57,198.0
528.63,189.0
528.7,202.0
528.76,195.0
528.82,202.0
528.88,215.0
528.95,218.0
529.01,215.0
529.07,242.0
529.14,229.0
529.2,227.0
529.26,218.0
529.33,222.0
529.39,221.0
529.45,214.0
529.51,223.0
529.58,220.0
529.64,223.0
529.7,215.0
529.77,227.0
529.83,248.0
529.89,246.0
529.96,254.0
530.02,257.0
530.08,242.0
530.14,253.0
530.21,238.0
530.27,248.0
530.33,217.0
530.4,217.0
530.46,242.0
530.52,232.0
530.59,234.0
530.65,229.0
530.71,236.0
530.77,239.0
530.84,239.0
530.9,223.0
530.96,218.0
531.03,217.0
531.09,236.0
531.15,227.0
531.22,228.0
531.28,219.0
531.34,230.0
531.4,246.0
531.47,243.0
531.53,227.0
531.59,224.0
531.66,221.0
531.72,225.0
531.78,231.0
531.85,235.0
531.91,213.0
531.97,228.0
532.03,217.0
532.1,221.0
532.16,225.0
532.22,211.0
532.29,201.0
532.35,189.0
532.41,203.0
532.48,185.0
532.54,185.0
532.6,204.0
532.66,213.0
532.73,193.0
532.79,199.0
532.85,195.0
532.92,195.0
532.98,189.0
533.04,172.0
533.11,164.0
533.17,155.0
533.23,153.0
533.29,163.0
533.36,150.0
533.42,161.0
533.48,161.0
533.55,166.0
533.61,177.0
533.67,174.0
533.74,148.0
533.8,157.0
533.86,176.0
533.92,158.0
533.99,165.0
534.05,169.0
534.11,128.0
534.18,123.0
534.24,148.0
534.3,152.0
534.37,138.0
534.43,141.0
534.49,138.0
534.55,144.0
534.62,154.0
534.68,156.0
534.74,151.0
534.81,156.0
534.87,163.0
534.93,152.0
535.0,173.0
535.06,153.0
535.12,150.0
535.18,121.0
535.25,119.0
535.31,123.0
535.37,136.0
535.44,135.0
535.5,136.0
535.56,128.0
535.63,123.0
535.69,138.0
535.75,138.0
535.81,125.0
535.88,124.0
535.94,137.0
536.0,144.0
536.07,111.0
536.13,118.0
536.19,140.0
536.26,142.0
536.32,129.0
536.38,119.0
536.44,116.0
536.51,119.0
536.57,131.0
536.63,128.0
536.7,134.0
536.76,128.0
536.82,118.0
536.89,129.0
536.95,117.0
537.01,114.0
537.07,115.0
537.14,118.0
537.2,133.0
537.26,122.0
537.33,119.0
537.39,113.0
537.45,127.0
537.52,130.0
537.58,122.0
537.64,122.0
537.7,119.0
537.77,135.0
537.83,153.0
537.89,131.0
537.96,111.0
538.02,130.0
538.08,128.0
538.15,122.0
538.21,115.0
538.27,134.0
538.33,128.0
538.4,119.0
538.46,136.0
538.52,127.0
538.59,130.0
538.65,124.0
538.71,121.0
538.78,106.0
538.84,106.0
538.9,86.0
538.96,107.0
539.03,108.0
539.09,92.0
539.15,64.0
539.22,46.0
539.28,54.0
539.34,65.0
539.41,70.0
539.47,85.0
539.53,74.0
539.59,50.0
539.66,70.0
539.72,59.0
539.78,57.0
539.85,73.0
539.91,88.0
539.97,74.0
540.04,72.0
540.1,73.0
540.16,66.0
540.22,67.0
540.29,71.0
540.35,98.0
540.41,80.0
540.48,78.0
540.54,85.0
540.6,69.0
540.67,59.0
540.73,47.0
540.79,73.0
540.85,88.0
540.92,91.0
540.98,61.0
541.04,67.0
541.11,58.0
541.17,64.0
541.23,66.0
541.3,63.0
541.36,77.0
541.42,51.0
541.48,59.0
541.55,46.0
541.61,45.0
541.67,37.0
541.74,25.0
541.8,58.0
541.86,56.0
541.93,48.0
541.99,44.0
542.05,41.0
542.11,20.0
542.18,22.0
542.24,31.0
542.3,24.0
542.37,23.0
542.43,15.0
542.49,22.0
542.56,26.0
542.62,33.0
542.68,17.0
542.74,37.0
542.81,19.0
542.87,25.0
542.93,26.0
543.0,18.0
543.06,11.0
543.12,7.0
543.19,10.0
543.25,-2.0
543.31,-8.0
543.37,17.0
543.44,6.0
543.5,1.0
543.56,27.0
543.63,20.0
543.69,10.0
543.75,15.0
543.82,11.0
543.88,21.0
543.94,22.0
544.0,40.0
544.07,32.0
544.13,54.0
544.19,48.0
544.26,47.0
544.32,58.0
544.38,60.0
544.45,57.0
544.51,28.0
544.57,36.0
544.63,49.0
544.7,22.0
544.76,23.0
544.82,36.0
544.89,35.0
544.95,23.0
545.01,18.0
545.08,12.0
545.14,25.0
545.2,29.0
545.26,26.0
545.33,19.0
545.39,40.0
545.45,23.0
545.52,40.0
545.58,67.0
545.64,54.0
545.71,36.0
545.77,36.0
545.83,60.0
545.89,48.0
545.96,83.0
546.02,68.0
546.08,65.0
546.15,83.0
546.21,65.0
546.27,74.0
546.34,64.0
546.4,77.0
546.46,96.0
546.52,77.0
546.59,91.0
546.65,106.0
546.71,91.0
546.78,103.0
546.84,111.0
546.9,108.0
546.97,117.0
547.03,114.0
547.09,123.0
547.15,125.0
547.22,115.0
547.28,106.0
547.34,129.0
547.41,112.0
547.47,114.0
547.53,140.0
547.6,114.0
547.66,126.0
547.72,117.0
547.78,98.0
547.85,120.0
547.91,110.0
547.97,125.0
548.04,117.0
548.1,97.0
548.16,101.0
548.23,96.0
548.29,104.0
548.35,125.0
548.41,138.0
548.48,120.0
548.54,133.0
548.6,143.0
548.67,127.0
548.73,143.0
548.79,128.0
548.86,109.0
548.92,130.0
548.98,125.0
549.04,128.0
549.11,133.0
549.17,138.0
549.23,131.0
549.3,141.0
549.36,128.0
549.42,140.0
549.49,120.0
549.55,116.0
549.61,123.0
549.67,122.0
549.74,120.0
549.8,119.0
549.86,132.0
549.93,101.0
549.99,124.0
550.05,127.0
550.12,115.0
550.18,135.0
550.24,116.0
550.3,93.0
550.37,105.0
550.43,105.0
550.49,104.0
550.56,123.0
550.62,95.0
550.68,109.0
550.75,129.0
550.81,121.0
550.87,125.0
550.93,119.0
551.0,117.0
551.06,133.0
551.12,127.0
551.19,111.0
551.25,122.0
551.31,115.0
551.38,108.0
551.44,134.0
551.5,136.0
551.56,131.0
551.63,139.0
551.69,149.0
551.75,144.0
551.82,145.0
551.88,138.0
551.94,140.0
552.01,129.0
552.07,119.0
552.13,147.0
552.19,139.0
552.26,149.0
552.32,163.0
552.38,146.0
552.45,145.0
552.51,142.0
552.57,142.0
552.64,147.0
552.7,146.0
552.76,146.0
552.82,158.0
552.89,151.0
552.95,144.0
553.01,146.0
553.08,161.0
553.14,132.0
553.2,139.0
553.27,136.0
553.33,127.0
553.39,133.0
553.45,135.0
553.52,135.0
553.58,128.0
553.64,150.0
553.71,128.0
553.77,108.0
553.83,123.0
553.9,136.0
553.96,150.0
554.02,142.0
554.08,153.0
554.15,167.0
554.21,151.0
554.27,156.0
554.34,147.0
554.4,145.0
554.46,186.0
554.53,202.0
554.59,181.0
554.65,174.0
554.71,167.0
554.78,169.0
554.84,159.0
554.9,180.0
554.97,179.0
555.03,169.0
555.09,202.0
555.16,177.0
555.22,175.0
555.28,186.0
555.34,159.0
555.41,161.0
555.47,178.0
555.53,181.0
555.6,182.0
555.66,186.0
555.72,175.0
555.79,155.0
555.85,156.0
555.91,162.0
555.97,159.0
556.04,168.0
556.1,179.0
556.16,156.0
556.23,163.0
556.29,159.0
556.35,174.0
556.42,177.0
556.48,155.0
556.54,162.0
556.6,180.0
556.67,186.0
556.73,183.0
556.79,191.0
556.86,174.0
556.92,172.0
556.98,187.0
557.05,191.0
557.11,161.0
557.17,144.0
557.23,150.0
557.3,134.0
557.36,142.0
557.42,127.0
557.49,127.0
557.55,141.0
557.61,166.0
557.68,164.0
557.74,148.0
557.8,136.0
557.86,131.0
557.93,134.0
557.99,168.0
558.05,147.0
558.12,134.0
558.18,149.0
558.24,131.0
558.31,144.0
558.37,143.0
558.43,169.0
558.49,161.0
558.56,145.0
558.62,157.0
558.68,149.0
558.75,138.0
558.81,119.0
558.87,133.0
558.94,141.0
559.0,116.0
559.06,107.0
559.12,135.0
559.19,149.0
559.25,128.0
559.31,140.0
559.38,163.0
559.44,147.0
559.5,136.0
559.57,114.0
559.63,128.0
559.69,106.0
559.75,106.0
559.82,103.0
559.88,86.0
559.94,102.0
560.01,106.0
560.07,93.0
560.13,98.0
560.2,87.0
560.26,80.0
560.32,81.0
560.38,82.0
560.45,84.0
560.51,67.0
560.57,72.0
560.64,80.0
560.7,79.0
560.76,72.0
560.83,59.0
560.89,75.0
560.95,62.0
561.01,46.0
561.08,49.0
561.14,62.0
561.2,78.0
561.27,73.0
561.33,67.0
561.39,68.0
561.46,55.0
561.52,69.0
561.58,61.0
561.64,69.0
561.71,66.0
561.77,58.0
561.83,54.0
561.9,62.0
561.96,57.0
562.02,67.0
562.09,77.0
562.15,70.0
562.21,77.0
562.27,85.0
562.34,81.0
562.4,54.0
562.46,86.0
562.53,102.0
562.59,67.0
562.65,56.0
562.72,73.0
562.78,94.0
562.84,73.0
562.9,78.0
562.97,78.0
563.03,93.0
563.09,87.0
563.16,73.0
563.22,85.0
563.28,81.0
563.35,96.0
563.41,86.0
563.47,79.0
563.53,80.0
563.6,81.0
563.66,72.0
563.72,87.0
563.79,76.0
563.85,90.0
563.91,68.0
563.98,63.0
564.04,43.0
564.1,73.0
564.16,77.0
564.23,80.0
564.29,86.0
564.35,73.0
564.42,83.0
564.48,64.0
564.54,80.0
564.61,81.0
564.67,93.0
564.73,72.0
564.79,59.0
564.86,67.0
564.92,68.0
564.98,66.0
565.05,53.0
565.11,45.0
565.17,38.0
565.24,47.0
565.3,53.0
565.36,21.0
565.42,22.0
565.49,10.0
565.55,29.0
565.61,46.0
565.68,27.0
565.74,30.0
565.8,42.0
565.87,48.0
565.93,40.0
565.99,30.0
566.05,9.0
566.12,32.0
566.18,35.0
566.24,33.0
566.31,44.0
566.37,31.0
566.43,34.0
566.5,31.0
566.56,48.0
566.62,50.0
566.68,42.0
566.75,44.0
566.81,50.0
566.87,39.0
566.94,40.0
567.0,38.0
567.06,43.0
567.13,34.0
567.19,26.0
567.25,56.0
567.31,41.0
567.38,29.0
567.44,16.0
567.5,31.0
567.57,53.0
567.63,51.0
567.69,50.0
567.76,67.0
567.82,58.0
567.88,59.0
567.94,73.0
568.01,63.0
568.07,92.0
568.13,86.0
568.2,66.0
568.26,67.0
568.32,36.0
568.39,26.0
568.45,29.0
568.51,34.0
568.57,43.0
568.64,36.0
568.7,28.0
568.76,50.0
568.83,41.0
568.89,25.0
568.95,37.0
569.02,32.0
569.08,32.0
569.14,30.0
569.2,17.0
569.27,26.0
569.33,-5.0
569.39,5.0
569.46,14.0
569.52,7.0
569.58,20.0
569.65,35.0
569.71,42.0
569.77,35.0
569.83,32.0
569.9,37.0
569.96,26.0
570.02,28.0
570.09,32.0
570.15,41.0
570.21,20.0
570.28,16.0
570.34,27.0
570.4,21.0
570.46,16.0
570.53,29.0
570.59,37.0
570.65,19.0
570.72,-12.0
570.78,-3.0
570.84,8.0
570.91,15.0
570.97,16.0
571.03,40.0
571.09,29.0
571.16,12.0
571.22,34.0
571.28,26.0
571.35,18.0
571.41,15.0
571.47,21.0
571.54,34.0
571.6,26.0
571.66,55.0
571.72,57.0
571.79,59.0
571.85,60.0
571.91,26.0
571.98,42.0
572.04,46.0
572.1,46.0
572.17,55.0
572.23,55.0
572.29,66.0
572.35,63.0
572.42,55.0
572.48,64.0
572.54,59.0
572.61,57.0
572.67,53.0
572.73,54.0
572.8,42.0
572.86,46.0
572.92,56.0
572.98,78.0
573.05,64.0
573.11,93.0
573.17,109.0
573.24,79.0
573.3,72.0
573.36,92.0
573.43,98.0
573.49,101.0
573.55,107.0
573.61,122.0
573.68,117.0
573.74,125.0
573.8,122.0
573.87,132.0
573.93,131.0
573.99,140.0
574.06,123.0
574.12,115.0
574.18,116.0
574.24,100.0
574.31,124.0
574.37,121.0
574.43,147.0
574.5,136.0
574.56,129.0
574.62,102.0
574.69,117.0
574.75,97.0
574.81,81.0
574.87,103.0
574.94,106.0
575.0,111.0
575.06,112.0
575.13,128.0
575.19,106.0
575.25,139.0
575.32,125.0
575.38,107.0
575.44,133.0
575.5,132.0
575.57,114.0
575.63,120.0
575.69,117.0
575.76,111.0
575.82,118.0
575.88,120.0
575.95,126.0
576.01,124.0
576.07,132.0
576.13,118.0
576.2,117.0
576.26,89.0
576.32,102.0
576.39,115.0
576.45,111.0
576.51,117.0
576.58,114.0
576.64,128.0
576.7,132.0
576.76,139.0
576.83,147.0
576.89,143.0
576.95,141.0
577.02,139.0
577.08,134.0
577.14,127.0
577.21,136.0
577.27,133.0
577.33,133.0
577.39,136.0
577.46,142.0
577.52,158.0
577.58,161.0
577.65,151.0
577.71,160.0
577.77,161.0
577.84,188.0
577.9,185.0
577.96,172.0
578.02,158.0
578.09,146.0
578.15,161.0
578.21,166.0
578.28,173.0
578.34,174.0
578.4,157.0
578.47,180.0
578.53,189.0
578.59,189.0
578.65,187.0
578.72,214.0
578.78,218.0
578.84,196.0
578.91,213.0
578.97,203.0
579.03,230.0
579.1,216.0
579.16,213.0
579.22,213.0
579.28,217.0
579.35,214.0
579.41,202.0
579.47,207.0
579.54,200.0
579.6,220.0
579.66,217.0
579.73,220.0
579.79,238.0
579.85,227.0
579.91,244.0
579.98,233.0
580.04,229.0
580.1,256.0
580.17,255.0
580.23,246.0
580.29,241.0
580.36,260.0
580.42,239.0
580.48,242.0
580.54,236.0
580.61,227.0
580.67,242.0
580.73,246.0
580.8,231.0
580.86,245.0
580.92,236.0
580.99,217.0
581.05,223.0
581.11,239.0
581.17,250.0
581.24,217.0
581.3,224.0
581.36,241.0
581.43,247.0
581.49,214.0
581.55,229.0
581.62,241.0
581.68,199.0
581.74,221.0
581.8,232.0
581.87,252.0
581.93,228.0
581.99,208.0
582.06,233.0
582.12,221.0
582.18,228.0
582.25,222.0
582.31,221.0
582.37,246.0
582.43,239.0
582.5,239.0
582.56,233.0
582.62,221.0
582.69,229.0
582.75,227.0
582.81,216.0
582.88,226.0
582.94,216.0
583.0,230.0
583.06,198.0
583.13,171.0
583.19,203.0
583.25,214.0
583.32,203.0
583.38,215.0
583.44,216.0
583.51,200.0
583.57,218.0
583.63,205.0
583.69,228.0
583.76,231.0
583.82,209.0
583.88,219.0
583.95,190.0
584.01,203.0
584.07,207.0
584.14,204.0
584.2,210.0
584.26,216.0
584.32,202.0
584.39,211.0
584.45,223.0
584.51,202.0
584.58,227.0
584.64,213.0
584.7,202.0
584.77,195.0
584.83,234.0
584.89,207.0
584.95,186.0
585.02,201.0
585.08,220.0
585.14,210.0
585.21,202.0
585.27,199.0
585.33,197.0
585.4,175.0
585.46,189.0
585.52,203.0
585.58,180.0
585.65,192.0
585.71,172.0
585.77,189.0
585.84,208.0
585.9,192.0
585.96,183.0
586.03,173.0
586.09,173.0
586.15,157.0
586.21,181.0
586.28,178.0
586.34,183.0
586.4,143.0
586.47,142.0
586.53,122.0
586.59,136.0
586.66,124.0
586.72,126.0
586.78,130.0
586.84,129.0
586.91,142.0
586.97,143.0
587.03,109.0
587.1,99.0
587.16,117.0
587.22,126.0
587.29,110.0
587.35,95.0
587.41,118.0
587.47,101.0
587.54,94.0
587.6,104.0
587.66,119.0
587.73,111.0
587.79,140.0
587.85,117.0
587.92,95.0
587.98,112.0
588.04,113.0
588.1,114.0
588.17,122.0
588.23,124.0
588.29,103.0
588.36,104.0
588.42,114.0
588.48,111.0
588.55,131.0
588.61,107.0
588.67,96.0
588.73,119.0
588.8,111.0
588.86,115.0
588.92,80.0
588.99,104.0
589.05,97.0
589.11,91.0
589.18,134.0
589.24,129.0
589.3,132.0
589.36,129.0
589.43,129.0
589.49,145.0
589.55,127.0
589.62,115.0
589.68,126.0
589.74,121.0
589.81,130.0
589.87,123.0
589.93,120.0
589.99,115.0
590.06,92.0
590.12,99.0
590.18,103.0
590.25,107.0
590.31,96.0
590.37,94.0
590.44,78.0
590.5,88.0
590.56,88.0
590.62,85.0
590.69,52.0
590.75,62.0
590.81,49.0
590.88,49.0
590.94,66.0
591.0,68.0
591.07,76.0
591.13,75.0
591.19,64.0
591.25,33.0
591.32,26.0
591.38,40.0
591.44,40.0
591.51,53.0
591.57,41.0
591.63,51.0
591.7,49.0
591.76,42.0
591.82,57.0
591.88,48.0
591.95,44.0
592.01,60.0
592.07,43.0
592.14,41.0
592.2,37.0
592.26,23.0
592.33,33.0
592.39,26.0
592.45,36.0
592.51,36.0
592.58,34.0
592.64,41.0
592.7,31.0
592.77,13.0
592.83,15.0
592.89,31.0
592.96,45.0
593.02,47.0
593.08,37.0
593.14,37.0
593.21,15.0
593.27,26.0
593.33,15.0
593.4,19.0
593.46,29.0
593.52,45.0
593.59,35.0
593.65,45.0
593.71,38.0
593.77,20.0
593.84,8.0
593.9,41.0
593.96,31.0
594.03,31.0
594.09,48.0
594.15,34.0
594.22,22.0
594.28,30.0
594.34,43.0
594.4,31.0
594.47,19.0
594.53,37.0
594.59,28.0
594.66,-4.0
594.72,19.0
594.78,24.0
594.85,17.0
594.91,29.0
594.97,6.0
595.03,16.0
595.1,35.0
595.16,44.0
595.22,60.0
595.29,26.0
595.35,30.0
595.41,22.0
595.48,24.0
595.54,26.0
595.6,24.0
595.66,42.0
595.73,19.0
595.79,14.0
595.85,21.0
595.92,19.0
595.98,20.0
596.04,12.0
596.11,10.0
596.17,10.0
596.23,19.0
596.29,15.0
596.36,22.0
596.42,20.0
596.48,-5.0
596.55,5.0
596.61,2.0
596.67,-8.0
596.74,6.0
596.8,16.0
596.86,6.0
596.92,17.0
596.99,37.0
597.05,47.0
597.11,47.0
597.18,36.0
597.24,53.0
597.3,60.0
597.37,61.0
597.43,67.0
597.49,65.0
597.55,31.0
597.62,41.0
597.68,62.0
597.74,57.0
597.81,31.0
597.87,31.0
597.93,37.0
598.0,45.0
598.06,34.0
598.12,57.0
598.18,69.0
598.25,66.0
598.31,42.0
598.37,50.0
598.44,53.0
598.5,53.0
598.56,58.0
598.63,43.0
598.69,44.0
598.75,57.0
598.81,68.0
598.88,46.0
598.94,48.0
599.0,58.0
599.07,42.0
599.13,47.0
599.19,54.0
599.26,82.0
599.32,80.0
599.38,57.0
599.44,93.0
599.51,64.0
599.57,74.0
599.63,105.0
599.7,101.0
599.76,104.0
599.82,105.0
599.89,123.0
599.95,105.0
600.01,86.0
600.07,85.0
600.14,103.0
600.2,130.0
600.26,129.0
600.33,117.0
600.39,112.0
600.45,109.0
600.52,112.0
600.58,105.0
600.64,109.0
600.7,107.0
600.77,116.0
600.83,103.0
600.89,102.0
600.96,110.0
601.02,105.0
601.08,86.0
601.15,95.0
601.21,96.0
601.27,101.0
601.33,93.0
601.4,91.0
601.46,94.0
601.52,99.0
601.59,94.0
601.65,107.0
601.71,107.0
601.78,99.0
601.84,72.0
601.9,87.0
601.96,104.0
602.03,105.0
602.09,113.0
602.15,115.0
602.22,100.0
602.28,89.0
602.34,101.0
602.41,99.0
602.47,112.0
602.53,113.0
602.59,125.0
602.66,132.0
602.72,131.0
602.78,116.0
602.85,102.0
602.91,143.0
602.97,132.0
603.04,119.0
603.1,116.0
603.16,122.0
603.22,130.0
603.29,115.0
603.35,140.0
603.41,130.0
603.48,116.0
603.54,126.0
603.6,141.0
603.67,146.0
603.73,131.0
603.79,152.0
603.85,153.0
603.92,151.0
603.98,145.0
604.04,149.0
604.11,150.0
604.17,168.0
604.23,152.0
604.3,150.0
604.36,155.0
604.42,127.0
604.48,141.0
604.55,167.0
604.61,162.0
604.67,157.0
604.74,154.0
604.8,163.0
604.86,161.0
604.93,189.0
604.99,163.0
605.05,156.0
605.11,162.0
605.18,136.0
605.24,143.0
605.3,165.0
605.37,154.0
605.43,126.0
605.49,130.0
605.56,149.0
605.62,123.0
605.68,144.0
605.74,138.0
605.81,122.0
605.87,123.0
605.93,119.0
606.0,132.0
606.06,138.0
606.12,134.0
606.19,121.0
606.25,100.0
606.31,123.0
606.37,139.0
606.44,140.0
606.5,167.0
606.56,166.0
606.63,169.0
606.69,169.0
606.75,195.0
606.82,196.0
606.88,197.0
606.94,200.0
607.0,182.0
607.07,173.0
607.13,172.0
607.19,156.0
607.26,173.0
607.32,170.0
607.38,155.0
607.45,167.0
607.51,153.0
607.57,127.0
607.63,137.0
607.7,151.0
607.76,147.0
607.82,164.0
607.89,140.0
607.95,163.0
608.01,123.0
608.08,107.0
608.14,113.0
608.2,103.0
608.26,108.0
608.33,96.0
608.39,108.0
608.45,131.0
608.52,91.0
608.58,76.0
608.64,112.0
608.71,124.0
608.77,116.0
608.83,125.0
608.89,125.0
608.96,114.0
609.02,118.0
609.08,134.0
609.15,117.0
609.21,114.0
609.27,104.0
609.34,125.0
609.4,127.0
609.46,124.0
609.52,145.0
609.59,139.0
609.65,117.0
609.71,118.0
609.78,128.0
609.84,135.0
609.9,127.0
609.97,116.0
610.03,137.0
610.09,108.0
610.15,98.0
610.22,113.0
610.28,118.0
610.34,109.0
610.41,114.0
610.47,121.0
610.53,90.0
610.6,94.0
610.66,90.0
610.72,114.0
610.78,113.0
610.85,122.0
610.91,127.0
610.97,118.0
611.04,108.0
611.1,107.0
611.16,128.0
611.23,128.0
611.29,120.0
611.35,105.0
611.41,112.0
611.48,122.0
611.54,110.0
611.6,121.0
611.67,110.0
611.73,118.0
611.79,101.0
611.86,112.0
611.92,98.0
611.98,108.0
612.04,105.0
612.11,124.0
612.17,123.0
612.23,109.0
612.3,106.0
612.36,104.0
612.42,108.0
612.49,119.0
612.55,121.0
612.61,124.0
612.67,117.0
612.74,135.0
612.8,119.0
612.86,112.0
612.93,107.0
612.99,112.0
613.05,108.0
613.12,105.0
613.18,90.0
613.24,79.0
613.3,96.0
613.37,96.0
613.43,105.0
613.49,104.0
613.56,123.0
613.62,93.0
613.68,99.0
613.75,113.0
613.81,110.0
613.87,116.0
613.93,116.0
614.0,109.0
614.06,111.0
614.12,119.0
614.19,135.0
614.25,130.0
614.31,121.0
614.38,131.0
614.44,126.0
614.5,135.0
614.56,153.0
614.63,147.0
614.69,146.0
614.75,136.0
614.82,116.0
614.88,127.0
614.94,142.0
615.01,137.0
615.07,122.0
615.13,134.0
615.19,132.0
615.26,145.0
615.32,141.0
615.38,150.0
615.45,164.0
615.51,135.0
615.57,134.0
615.64,145.0
615.7,152.0
615.76,147.0
615.82,149.0
615.89,142.0
615.95,119.0
616.01,123.0
616.08,116.0
616.14,122.0
616.2,122.0
616.27,116.0
616.33,124.0
616.39,138.0
616.45,123.0
616.52,107.0
616.58,88.0
616.64,98.0
616.71,99.0
616.77,123.0
616.83,104.0
616.9,90.0
616.96,101.0
617.02,123.0
617.08,106.0
617.15,109.0
617.21,107.0
617.27,110.0
617.34,120.0
617.4,113.0
617.46,112.0
617.53,117.0
617.59,92.0
617.65,86.0
617.71,79.0
617.78,101.0
617.84,104.0
617.9,76.0
617.97,67.0
618.03,67.0
618.09,75.0
618.16,71.0
618.22,67.0
618.28,78.0
618.34,80.0
618.41,77.0
618.47,69.0
618.53,85.0
618.6,88.0
618.66,79.0
618.72,68.0
618.79,59.0
618.85,81.0
618.91,95.0
618.97,110.0
619.04,95.0
619.1,92.0
619.16,99.0
619.23,81.0
619.29,97.0
619.35,68.0
619.42,77.0
619.48,76.0
619.54,66.0
619.6,77.0
619.67,63.0
619.73,69.0
619.79,61.0
619.86,59.0
619.92,56.0
619.98,54.0
620.05,65.0
620.11,48.0
620.17,58.0
620.23,52.0
620.3,47.0
620.36,43.0
620.42,54.0
620.49,38.0
620.55,41.0
620.61,39.0
620.68,25.0
620.74,39.0
620.8,42.0
620.86,62.0
620.93,62.0
620.99,68.0
621.05,66.0
621.12,67.0
621.18,57.0
621.24,52.0
621.31,38.0
621.37,45.0
621.43,34.0
621.49,41.0
621.56,66.0
621.62,58.0
621.68,53.0
621.75,50.0
621.81,54.0
621.87,45.0
621.94,71.0
622.0,76.0
622.06,65.0
622.12,82.0
622.19,71.0
622.25,49.0
622.31,55.0
622.38,52.0
622.44,66.0
622.5,52.0
622.57,60.0
622.63,85.0
622.69,67.0
622.75,72.0
622.82,50.0
622.88,68.0
622.94,57.0
623.01,67.0
623.07,72.0
623.13,73.0
623.2,68.0
623.26,74.0
623.32,61.0
623.38,72.0
623.45,83.0
623.51,77.0
623.57,96.0
623.64,97.0
623.7,91.0
623.76,93.0
623.83,91.0
623.89,83.0
623.95,85.0
624.01,105.0
624.08,94.0
624.14,100.0
624.2,79.0
624.27,82.0
624.33,76.0
624.39,82.0
624.46,75.0
624.52,81.0
624.58,77.0
624.64,81.0
624.71,79.0
624.77,66.0
624.83,73.0
624.9,63.0
624.96,62.0
625.02,65.0
625.09,69.0
625.15,66.0
625.21,63.0
625.27,72.0
625.34,78.0
625.4,102.0
625.46,81.0
625.53,84.0
625.59,87.0
625.65,91.0
625.72,100.0
625.78,81.0
625.84,87.0
625.9,85.0
625.97,91.0
626.03,107.0
626.09,90.0
626.16,60.0
626.22,74.0
626.28,96.0
626.35,70.0
626.41,101.0
626.47,93.0
626.53,67.0
626.6,99.0
626.66,69.0
626.72,46.0
626.79,47.0
626.85,61.0
626.91,74.0
626.98,57.0
627.04,66.0
627.1,64.0
627.16,68.0
627.23,72.0
627.29,72.0
627.35,86.0
627.42,72.0
627.48,93.0
627.54,74.0
627.61,71.0
627.67,85.0
627.73,85.0
627.79,103.0
627.86,87.0
627.92,85.0
627.98,82.0
628.05,79.0
628.11,86.0
628.17,102.0
628.24,104.0
628.3,96.0
628.36,91.0
628.42,93.0
628.49,113.0
628.55,101.0
628.61,99.0
628.68,97.0
628.74,121.0
628.8,131.0
628.87,127.0
628.93,116.0
628.99,156.0
629.05,146.0
629.12,145.0
629.18,126.0
629.24,143.0
629.31,168.0
629.37,161.0
629.43,159.0
629.5,142.0
629.56,152.0
629.62,159.0
629.68,171.0
629.75,192.0
629.81,182.0
629.87,197.0
629.94,192.0
630.0,207.0
630.06,204.0
630.13,215.0
630.19,199.0
630.25,189.0
630.31,190.0
630.38,171.0
630.44,189.0
630.5,168.0
630.57,202.0
630.63,211.0
630.69,206.0
630.76,198.0
630.82,164.0
630.88,200.0
630.94,190.0
631.01,163.0
631.07,150.0
631.13,167.0
631.2,174.0
631.26,182.0
631.32,179.0
631.39,196.0
631.45,209.0
631.51,205.0
631.57,192.0
631.64,179.0
631.7,179.0
631.76,201.0
631.83,160.0
631.89,178.0
631.95,186.0
632.02,200.0
632.08,198.0
632.14,185.0
632.2,214.0
632.27,203.0
632.33,207.0
632.39,195.0
632.46,203.0
632.52,204.0
632.58,192.0
632.65,176.0
632.71,179.0
632.77,197.0
632.83,192.0
632.9,179.0
632.96,209.0
633.02,197.0
633.09,187.0
633.15,181.0
633.21,178.0
633.28,183.0
633.34,173.0
633.4,175.0
633.46,187.0
633.53,192.0
633.59,183.0
633.65,178.0
633.72,195.0
633.78,196.0
633.84,185.0
633.91,175.0
633.97,169.0
634.03,187.0
634.09,202.0
634.16,200.0
634.22,208.0
634.28,217.0
634.35,213.0
634.41,221.0
634.47,215.0
634.54,190.0
634.6,186.0
634.66,196.0
634.72,207.0
634.79,205.0
634.85,202.0
634.91,201.0
634.98,229.0
635.04,221.0
635.1,229.0
635.17,237.0
635.23,229.0
635.29,231.0
635.35,215.0
635.42,210.0
635.48,201.0
635.54,214.0
635.61,222.0
635.67,219.0
635.73,200.0
635.8,209.0
635.86,214.0
635.92,212.0
635.98,208.0
636.05,201.0
636.11,206.0
636.17,195.0
636.24,212.0
636.3,209.0
636.36,204.0
636.43,208.0
636.49,197.0
636.55,194.0
636.61,195.0
636.68,194.0
636.74,168.0
636.8,195.0
636.87,199.0
636.93,174.0
636.99,182.0
637.06,169.0
637.12,176.0
637.18,193.0
637.24,206.0
637.31,175.0
637.37,158.0
637.43,150.0
637.5,132.0
637.56,151.0
637.62,170.0
637.69,157.0
637.75,140.0
637.81,149.0
637.87,146.0
637.94,156.0
638.0,138.0
638.06,144.0
638.13,134.0
638.19,160.0
638.25,178.0
638.32,165.0
638.38,167.0
638.44,163.0
638.5,176.0
638.57,152.0
638.63,158.0
638.69,162.0
638.76,171.0
638.82,193.0
638.88,182.0
638.95,175.0
639.01,184.0
639.07,171.0
639.13,168.0
639.2,167.0
639.26,176.0
639.32,156.0
639.39,163.0
639.45,157.0
639.51,157.0
639.58,134.0
639.64,146.0
639.7,168.0
639.76,171.0
639.83,163.0
639.89,137.0
639.95,141.0
640.02,135.0
640.08,122.0
640.14,119.0
640.21,141.0
640.27,167.0
640.33,141.0
640.39,145.0
640.46,134.0
640.52,151.0
640.58,160.0
640.65,143.0
640.71,125.0
640.77,122.0
640.84,140.0
640.9,121.0
640.96,127.0
641.02,111.0
641.09,133.0
641.15,144.0
641.21,150.0
641.28,136.0
641.34,122.0
641.4,151.0
641.47,131.0
641.53,134.0
641.59,139.0
641.65,119.0
641.72,130.0
641.78,134.0
641.84,129.0
641.91,127.0
641.97,123.0
642.03,129.0
642.1,105.0
642.16,114.0
642.22,89.0
642.28,97.0
642.35,86.0
642.41,89.0
642.47,95.0
642.54,93.0
642.6,93.0
642.66,87.0
642.73,107.0
642.79,77.0
642.85,72.0
642.91,63.0
642.98,81.0
643.04,63.0
643.1,38.0
643.17,54.0
643.23,60.0
643.29,76.0
643.36,56.0
643.42,50.0
643.48,51.0
643.54,63.0
643.61,67.0
643.67,61.0
643.73,72.0
643.8,61.0
643.86,50.0
643.92,72.0
643.99,62.0
644.05,86.0
644.11,77.0
644.17,82.0
644.24,86.0
644.3,112.0
644.36,84.0
644.43,54.0
644.49,61.0
644.55,89.0
644.62,93.0
644.68,86.0
644.74,97.0
644.8,76.0
644.87,86.0
644.93,96.0
644.99,72.0
645.06,71.0
645.12,86.0
645.18,80.0
645.25,70.0
645.31,72.0
645.37,79.0
645.43,86.0
645.5,88.0
645.56,98.0
645.62,90.0
645.69,109.0
645.75,88.0
645.81,84.0
645.88,90.0
645.94,87.0
646.0,94.0
646.06,83.0
646.13,66.0
646.19,75.0
646.25,65.0
646.32,61.0
646.38,78.0
646.44,55.0
646.51,57.0
646.57,58.0
646.63,49.0
646.69,66.0
646.76,53.0
646.82,68.0
646.88,77.0
646.95,66.0
647.01,73.0
647.07,50.0
647.14,39.0
647.2,23.0
647.26,28.0
647.32,24.0
647.39,15.0
647.45,42.0
647.51,30.0
647.58,36.0
647.64,45.0
647.7,33.0
647.77,26.0
647.83,51.0
647.89,68.0
647.95,48.0
648.02,70.0
648.08,64.0
648.14,65.0
648.21,65.0
648.27,34.0
648.33,45.0
648.4,77.0
648.46,54.0
648.52,46.0
648.58,45.0
648.65,59.0
648.71,31.0
648.77,31.0
648.84,49.0
648.9,39.0
648.96,33.0
649.03,31.0
649.09,54.0
649.15,33.0
649.21,47.0
649.28,38.0
649.34,50.0
649.4,58.0
649.47,28.0
649.53,52.0
649.59,39.0
649.66,31.0
649.72,20.0
649.78,28.0
649.84,20.0
649.91,28.0
649.97,15.0
650.03,21.0
650.1,20.0
650.16,11.0
650.22,15.0
650.29,0.0
650.35,17.0
650.41,31.0
650.47,29.0
650.54,35.0
650.6,28.0
650.66,42.0
650.73,47.0
650.79,30.0
650.85,38.0
650.92,38.0
650.98,60.0
651.04,32.0
651.1,36.0
651.17,44.0
651.23,50.0
651.29,39.0
651.36,50.0
651.42,74.0
651.48,96.0
651.55,99.0
651.61,72.0
651.67,89.0
651.73,81.0
651.8,70.0
651.86,76.0
651.92,89.0
651.99,75.0
652.05,79.0
652.11,89.0
652.18,91.0
652.24,93.0
652.3,90.0
652.36,85.0
652.43,64.0
652.49,62.0
652.55,62.0
652.62,73.0
652.68,90.0
652.74,57.0
652.81,83.0
652.87,81.0
652.93,79.0
652.99,87.0
653.06,72.0
653.12,89.0
653.18,90.0
653.25,95.0
653.31,88.0
653.37,90.0
653.44,74.0
653.5,71.0
653.56,79.0
653.62,98.0
653.69,76.0
653.75,74.0
653.81,80.0
653.88,97.0
653.94,103.0
654.0,73.0
654.07,70.0
654.13,75.0
654.19,66.0
654.25,68.0
654.32,68.0
654.38,75.0
654.44,72.0
654.51,55.0
654.57,67.0
654.63,85.0
654.7,59.0
654.76,74.0
654.82,84.0
654.88,79.0
654.95,79.0
655.01,87.0
655.07,99.0
655.14,86.0
655.2,87.0
655.26,79.0
655.33,89.0
655.39,83.0
655.45,114.0
655.51,89.0
655.58,93.0
655.64,90.0
655.7,100.0
655.77,101.0
655.83,94.0
655.89,98.0
655.96,113.0
656.02,116.0
656.08,101.0
656.14,94.0
656.21,100.0
656.27,107.0
656.33,105.0
656.4,77.0
656.46,75.0
656.52,88.0
656.59,108.0
656.65,119.0
656.71,101.0
656.77,81.0
656.84,101.0
656.9,97.0
656.96,83.0
657.03,82.0
657.09,89.0
657.15,118.0
657.22,112.0
657.28,95.0
657.34,93.0
657.4,101.0
657.47,129.0
657.53,134.0
657.59,119.0
657.66,125.0
657.72,120.0
657.78,122.0
657.85,125.0
657.91,134.0
657.97,152.0
658.03,140.0
658.1,130.0
658.16,140.0
658.22,145.0
658.29,165.0
658.35,137.0
658.41,152.0
658.48,150.0
658.54,129.0
658.6,124.0
658.66,134.0
658.73,127.0
658.79,140.0
658.85,148.0
658.92,135.0
658.98,146.0
659.04,131.0
659.11,135.0
659.17,142.0
659.23,131.0
659.29,131.0
659.36,134.0
659.42,127.0
659.48,149.0
659.55,148.0
659.61,163.0
659.67,146.0
659.74,152.0
659.8,127.0
659.86,162.0
659.92,182.0
659.99,151.0
660.05,146.0
660.11,159.0
660.18,151.0
660.24,144.0
660.3,150.0
660.37,143.0
660.43,140.0
660.49,142.0
660.55,149.0
660.62,140.0
660.68,149.0
660.74,135.0
660.81,151.0
660.87,135.0
660.93,129.0
661.0,153.0
661.06,132.0
661.12,123.0
661.18,115.0
661.25,132.0
661.31,141.0
661.37,131.0
661.44,110.0
661.5,120.0
661.56,135.0
661.63,133.0
661.69,119.0
661.75,131.0
661.81,134.0
661.88,134.0
661.94,124.0
662.0,130.0
662.07,126.0
662.13,142.0
662.19,151.0
662.26,156.0
662.32,142.0
662.38,132.0
662.44,146.0
662.51,160.0
662.57,171.0
662.63,165.0
662.7,175.0
662.76,154.0
662.82,164.0
662.89,146.0
662.95,146.0
663.01,167.0
663.07,164.0
663.14,172.0
663.2,179.0
663.26,173.0
663.33,168.0
663.39,178.0
663.45,169.0
663.52,170.0
663.58,190.0
663.64,188.0
663.7,189.0
663.77,184.0
663.83,140.0
663.89,145.0
663.96,145.0
664.02,152.0
664.08,162.0
664.15,138.0
664.21,151.0
664.27,145.0
664.33,148.0
664.4,159.0
664.46,148.0
664.52,143.0
664.59,137.0
664.65,128.0
664.71,131.0
664.78,145.0
664.84,130.0
664.9,148.0
664.96,162.0
665.03,154.0
665.09,156.0
665.15,147.0
665.22,144.0
665.28,150.0
665.34,145.0
665.41,144.0
665.47,142.0
665.53,152.0
665.59,141.0
665.66,137.0
665.72,149.0
665.78,153.0
665.85,150.0
665.91,174.0
665.97,165.0
666.04,174.0
666.1,161.0
666.16,143.0
666.22,150.0
666.29,146.0
666.35,141.0
666.41,149.0
666.48,153.0
666.54,163.0
666.6,168.0
666.67,141.0
666.73,163.0
666.79,170.0
666.85,156.0
666.92,158.0
666.98,170.0
667.04,189.0
667.11,178.0
667.17,165.0
667.23,181.0
667.3,161.0
667.36,180.0
667.42,182.0
667.48,176.0
667.55,173.0
667.61,178.0
667.67,161.0
667.74,163.0
667.8,187.0
667.86,189.0
667.93,182.0
667.99,186.0
668.05,166.0
668.11,155.0
668.18,179.0
668.24,180.0
668.3,156.0
668.37,150.0
668.43,154.0
668.49,162.0
668.56,167.0
668.62,143.0
668.68,149.0
668.74,151.0
668.81,156.0
668.87,158.0
668.93,145.0
669.0,154.0
669.06,160.0
669.12,189.0
669.19,195.0
669.25,192.0
669.31,182.0
669.37,189.0
669.44,177.0
669.5,182.0
669.56,185.0
669.63,186.0
669.69,206.0
669.75,203.0
669.82,187.0
669.88,195.0
669.94,189.0
670.0,169.0
670.07,180.0
670.13,160.0
670.19,179.0
670.26,182.0
670.32,173.0
670.38,188.0
670.45,190.0
670.51,181.0
670.57,166.0
670.63,173.0
670.7,169.0
670.76,178.0
670.82,193.0
670.89,186.0
670.95,185.0
671.01,191.0
671.08,168.0
671.14,183.0
671.2,172.0
671.26,152.0
671.33,148.0
671.39,138.0
671.45,156.0
671.52,139.0
671.58,155.0
671.64,146.0
671.71,146.0
671.77,148.0
671.83,136.0
671.89,137.0
671.96,150.0
672.02,160.0
672.08,157.0
672.15,155.0
672.21,179.0
672.27,168.0
672.34,159.0
672.4,171.0
672.46,152.0
672.52,142.0
672.59,145.0
672.65,146.0
672.71,143.0
672.78,121.0
672.84,138.0
672.9,145.0
672.97,120.0
673.03,118.0
673.09,132.0
673.15,140.0
673.22,129.0
673.28,121.0
673.34,105.0
673.41,103.0
673.47,131.0
673.53,124.0
673.6,119.0
673.66,113.0
673.72,122.0
673.78,108.0
673.85,105.0
673.91,124.0
673.97,119.0
674.04,114.0
674.1,109.0
674.16,98.0
674.23,104.0
674.29,107.0
674.35,94.0
674.41,110.0
674.48,106.0
674.54,84.0
674.6,94.0
674.67,97.0
674.73,94.0
674.79,86.0
674.86,105.0
674.92,93.0
674.98,104.0
675.04,100.0
675.11,99.0
675.17,127.0
675.23,118.0
675.3,115.0
675.36,92.0
675.42,94.0
675.49,112.0
675.55,72.0
675.61,86.0
675.67,100.0
675.74,102.0
675.8,97.0
675.86,86.0
675.93,88.0
675.99,71.0
676.05,76.0
676.12,78.0
676.18,89.0
676.24,87.0
676.3,90.0
676.37,88.0
676.43,83.0
676.49,62.0
676.56,69.0
676.62,86.0
676.68,83.0
676.75,76.0
676.81,71.0
676.87,77.0
676.93,80.0
677.0,81.0
677.06,68.0
677.12,75.0
677.19,81.0
677.25,77.0
677.31,87.0
677.38,67.0
677.44,73.0
677.5,80.0
677.56,83.0
677.63,78.0
677.69,87.0
677.75,98.0
677.82,67.0
677.88,76.0
677.94,89.0
678.01,70.0
678.07,61.0
678.13,90.0
678.19,105.0
678.26,93.0
678.32,86.0
678.38,71.0
678.45,81.0
678.51,85.0
678.57,91.0
678.64,87.0
678.7,87.0
678.76,98.0
678.82,87.0
678.89,82.0
678.95,90.0
679.01,98.0
679.08,104.0
679.14,91.0
679.2,93.0
679.27,106.0
679.33,90.0
679.39,119.0
679.45,105.0
679.52,84.0
679.58,102.0
679.64,101.0
679.71,77.0
679.77,88.0
679.83,122.0
679.9,127.0
679.96,126.0
680.02,129.0
680.08,126.0
680.15,135.0
680.21,145.0
680.27,131.0
680.34,141.0
680.4,137.0
680.46,118.0
680.53,130.0
680.59,143.0
680.65,138.0
680.71,156.0
680.78,118.0
680.84,112.0
680.9,119.0
680.97,121.0
681.03,137.0
681.09,149.0
681.16,141.0
681.22,158.0
681.28,138.0
681.34,129.0
681.41,148.0
681.47,149.0
681.53,151.0
681.6,145.0
681.66,146.0
681.72,168.0
681.79,165.0
681.85,129.0
681.91,140.0
681.97,142.0
682.04,146.0
682.1,135.0
682.16,134.0
682.23,131.0
682.29,119.0
682.35,124.0
682.42,115.0
682.48,131.0
682.54,129.0
682.6,120.0
682.67,109.0
682.73,113.0
682.79,119.0
682.86,123.0
682.92,138.0
682.98,119.0
683.05,130.0
683.11,135.0
683.17,127.0
683.23,130.0
683.3,126.0
683.36,145.0
683.42,135.0
683.49,162.0
683.55,149.0
683.61,138.0
683.68,143.0
683.74,150.0
683.8,135.0
683.86,137.0
683.93,134.0
683.99,136.0
684.05,118.0
684.12,122.0
684.18,121.0
684.24,127.0
684.31,145.0
684.37,145.0
684.43,144.0
684.49,136.0
684.56,132.0
684.62,131.0
684.68,137.0
684.75,145.0
684.81,152.0
684.87,181.0
684.94,162.0
685.0,168.0
685.06,168.0
685.12,161.0
685.19,167.0
685.25,167.0
685.31,158.0
685.38,168.0
685.44,175.0
685.5,184.0
685.57,174.0
685.63,171.0
685.69,167.0
685.75,176.0
685.82,176.0
685.88,178.0
685.94,181.0
686.01,196.0
686.07,168.0
686.13,169.0
686.2,173.0
686.26,165.0
686.32,182.0
686.38,210.0
686.45,184.0
686.51,200.0
686.57,201.0
686.64,208.0
686.7,210.0
686.76,206.0
686.83,222.0
686.89,196.0
686.95,208.0
687.01,191.0
687.08,212.0
687.14,201.0
687.2,198.0
687.27,195.0
687.33,176.0
687.39,200.0
687.46,182.0
687.52,179.0
687.58,195.0
687.64,193.0
687.71,189.0
687.77,211.0
687.83,221.0
687.9,212.0
687.96,199.0
688.02,195.0
688.09,202.0
688.15,196.0
688.21,208.0
688.27,189.0
688.34,168.0
688.4,173.0
688.46,182.0
688.53,178.0
688.59,192.0
688.65,183.0
688.72,171.0
688.78,177.0
688.84,176.0
688.9,175.0
688.97,178.0
689.03,178.0
689.09,182.0
689.16,187.0
689.22,189.0
689.28,184.0
689.35,185.0
689.41,176.0
689.47,166.0
689.53,160.0
689.6,174.0
689.66,175.0
689.72,175.0
689.79,173.0
689.85,173.0
689.91,169.0
689.98,164.0
690.04,170.0
690.1,187.0
690.16,181.0
690.23,143.0
690.29,158.0
690.35,160.0
690.42,159.0
690.48,174.0
690.54,167.0
690.61,148.0
690.67,143.0
690.73,153.0
690.79,151.0
690.86,130.0
690.92,123.0
690.98,134.0
691.05,131.0
691.11,135.0
691.17,127.0
691.24,125.0
691.3,131.0
691.36,128.0
691.42,120.0
691.49,114.0
691.55,113.0
691.61,119.0
691.68,120.0
691.74,118.0
691.8,124.0
691.87,118.0
691.93,133.0
691.99,127.0
692.05,141.0
692.12,139.0
692.18,139.0
692.24,132.0
692.31,137.0
692.37,124.0
692.43,121.0
692.5,106.0
692.56,107.0
692.62,105.0
692.68,93.0
692.75,83.0
692.81,89.0
692.87,86.0
692.94,89.0
693.0,81.0
693.06,93.0
693.13,119.0
693.19,85.0
693.25,80.0
693.31,81.0
693.38,95.0
693.44,105.0
693.5,97.0
693.57,91.0
693.63,85.0
693.69,83.0
693.76,94.0
693.82,94.0
693.88,105.0
693.94,138.0
694.01,108.0
694.07,115.0
694.13,105.0
694.2,103.0
694.26,104.0
694.32,91.0
694.39,96.0
694.45,134.0
694.51,141.0
694.57,141.0
694.64,129.0
694.7,110.0
694.76,97.0
694.83,102.0
694.89,101.0
694.95,118.0
695.02,115.0
695.08,89.0
695.14,98.0
695.2,92.0
695.27,101.0
695.33,112.0
695.39,107.0
695.46,97.0
695.52,88.0
695.58,91.0
695.65,94.0
695.71,107.0
695.77,101.0
695.83,84.0
695.9,105.0
695.96,97.0
696.02,117.0
696.09,132.0
696.15,130.0
696.21,137.0
696.28,123.0
696.34,111.0
696.4,116.0
696.46,109.0
696.53,137.0
696.59,148.0
696.65,131.0
696.72,123.0
696.78,113.0
696.84,126.0
696.91,110.0
696.97,97.0
697.03,89.0
697.09,94.0
697.16,84.0
697.22,89.0
697.28,93.0
697.35,96.0
697.41,80.0
697.47,94.0
697.54,82.0
697.6,59.0
697.66,76.0
697.72,80.0
697.79,79.0
697.85,80.0
697.91,73.0
697.98,70.0
698.04,66.0
698.1,69.0
698.17,71.0
698.23,58.0
698.29,59.0
698.35,58.0
698.42,68.0
698.48,83.0
698.54,71.0
698.61,62.0
698.67,61.0
698.73,59.0
698.8,76.0
698.86,60.0
698.92,44.0
698.98,68.0
699.05,72.0
699.11,78.0
699.17,98.0
699.24,79.0
699.3,72.0
699.36,60.0
699.43,74.0
699.49,62.0
699.55,55.0
699.61,77.0
699.68,58.0
699.74,68.0
699.8,67.0
699.87,62.0
699.93,64.0
699.99,58.0
700.06,46.0
700.12,50.0
700.18,44.0
700.24,39.0
700.31,60.0
700.37,46.0
700.43,31.0
700.5,19.0
700.56,5.0
700.62,25.0
700.69,17.0
700.75,36.0
700.81,42.0
700.87,33.0
700.94,36.0
701.0,35.0
701.06,2.0
701.13,25.0
701.19,20.0
701.25,2.0
701.32,6.0
701.38,15.0
701.44,15.0
701.5,16.0
701.57,33.0
701.63,30.0
701.69,27.0
701.76,33.0
701.82,20.0
701.88,17.0
701.95,38.0
702.01,9.0
702.07,17.0
702.13,21.0
702.2,15.0
702.26,15.0
702.32,29.0
702.39,22.0
702.45,29.0
702.51,28.0
702.58,28.0
702.64,12.0
702.7,32.0
702.76,20.0
702.83,17.0
702.89,19.0
702.95,16.0
703.02,27.0
703.08,32.0
703.14,35.0
703.21,36.0
703.27,35.0
703.33,47.0
703.39,38.0
703.46,49.0
703.52,40.0
703.58,32.0
703.65,21.0
703.71,29.0
703.77,35.0
703.84,34.0
703.9,57.0
703.96,41.0
704.02,40.0
704.09,35.0
704.15,29.0
704.21,31.0
704.28,30.0
704.34,8.0
704.4,27.0
704.47,39.0
704.53,33.0
704.59,22.0
704.65,21.0
704.72,31.0
704.78,14.0
704.84,28.0
704.91,33.0
704.97,31.0
705.03,35.0
705.1,26.0
705.16,21.0
705.22,25.0
705.28,35.0
705.35,22.0
705.41,30.0
705.47,28.0
705.54,15.0
705.6,31.0
705.66,28.0
705.73,24.0
705.79,24.0
705.85,31.0
705.91,23.0
705.98,15.0
706.04,24.0
706.1,5.0
706.17,30.0
706.23,30.0
706.29,28.0
706.36,34.0
706.42,26.0
706.48,44.0
706.54,41.0
706.61,65.0
706.67,48.0
706.73,74.0
706.8,68.0
706.86,58.0
706.92,77.0
706.99,61.0
707.05,79.0
707.11,76.0
707.17,74.0
707.24,85.0
707.3,61.0
707.36,65.0
707.43,73.0
707.49,80.0
707.55,87.0
707.62,62.0
707.68,85.0
707.74,86.0
707.8,85.0
707.87,83.0
707.93,77.0
707.99,79.0
708.06,93.0
708.12,82.0
708.18,72.0
708.25,70.0
708.31,72.0
708.37,88.0
708.43,102.0
708.5,109.0
708.56,93.0
708.62,115.0
708.69,115.0
708.75,74.0
708.81,97.0
708.88,82.0
708.94,97.0
709.0,99.0
709.06,71.0
709.13,87.0
709.19,104.0
709.25,80.0
709.32,75.0
709.38,66.0
709.44,77.0
709.51,95.0
709.57,98.0
709.63,67.0
709.69,58.0
709.76,72.0
709.82,39.0
709.88,49.0
709.95,68.0
710.01,72.0
710.07,64.0
710.14,72.0
710.2,61.0
710.26,68.0
710.32,75.0
710.39,80.0
710.45,85.0
710.51,68.0
710.58,79.0
710.64,79.0
710.7,88.0
710.77,74.0
710.83,77.0
710.89,77.0
710.95,59.0
711.02,56.0
711.08,56.0
711.14,56.0
711.21,67.0
711.27,65.0
711.33,80.0
711.4,71.0
711.46,87.0
711.52,77.0
711.58,59.0
711.65,74.0
711.71,73.0
711.77,79.0
711.84,75.0
711.9,87.0
711.96,94.0
712.03,97.0
712.09,88.0
712.15,93.0
712.21,105.0
712.28,105.0
712.34,100.0
712.4,108.0
712.47,117.0
712.53,127.0
712.59,137.0
712.66,123.0
712.72,122.0
712.78,118.0
712.84,123.0
712.91,130.0
712.97,112.0
713.03,113.0
713.1,103.0
713.16,125.0
713.22,111.0
713.29,120.0
713.35,126.0
713.41,127.0
713.47,145.0
713.54,129.0
713.6,124.0
713.66,115.0
713.73,132.0
713.79,131.0
713.85,130.0
713.92,141.0
713.98,127.0
714.04,142.0
714.1,127.0
714.17,132.0
714.23,119.0
714.29,121.0
714.36,108.0
714.42,102.0
714.48,105.0
714.55,112.0
714.61,113.0
714.67,121.0
714.73,113.0
714.8,119.0
714.86,123.0
714.92,134.0
714.99,167.0
715.05,148.0
715.11,148.0
715.18,141.0
715.24,131.0
715.3,148.0
715.36,148.0
715.43,151.0
715.49,142.0
715.55,163.0
715.62,162.0
715.68,167.0
715.74,178.0
715.81,176.0
715.87,170.0
715.93,156.0
715.99,154.0
716.06,164.0
716.12,180.0
716.18,189.0
716.25,184.0
716.31,178.0
716.37,190.0
716.44,200.0
716.5,193.0
716.56,184.0
716.62,162.0
716.69,185.0
716.75,199.0
716.81,189.0
716.88,186.0
716.94,179.0
717.0,183.0
717.07,165.0
717.13,162.0
717.19,152.0
717.25,153.0
717.32,152.0
717.38,143.0
717.44,142.0
717.51,159.0
717.57,156.0
717.63,140.0
717.7,135.0
717.76,151.0
717.82,156.0
717.88,146.0
717.95,158.0
718.01,166.0
718.07,162.0
718.14,168.0
718.2,181.0
718.26,182.0
718.33,163.0
718.39,174.0
718.45,176.0
718.51,192.0
718.58,176.0
718.64,182.0
718.7,187.0
718.77,181.0
718.83,189.0
718.89,199.0
718.96,200.0
719.02,183.0
719.08,187.0
719.14,192.0
719.21,197.0
719.27,209.0
719.33,187.0
719.4,205.0
719.46,191.0
719.52,178.0
719.59,173.0
719.65,167.0
719.71,182.0
719.77,204.0
719.84,208.0
719.9,189.0
719.96,182.0
720.03,204.0
720.09,180.0
720.15,182.0
720.22,195.0
720.28,185.0
720.34,182.0
720.4,163.0
720.47,178.0
720.53,164.0
720.59,150.0
720.66,166.0
720.72,178.0
720.78,171.0
720.85,179.0
720.91,176.0
720.97,156.0
721.03,150.0
721.1,157.0
721.16,161.0
721.22,157.0
721.29,164.0
721.35,171.0
721.41,159.0
721.48,164.0
721.54,165.0
721.6,166.0
721.66,170.0
721.73,173.0
721.79,191.0
721.85,177.0
721.92,165.0
721.98,172.0
722.04,169.0
722.11,184.0
722.17,156.0
722.23,162.0
722.29,168.0
722.36,171.0
722.42,167.0
722.48,171.0
722.55,170.0
722.61,166.0
722.67,146.0
722.74,164.0
722.8,170.0
722.86,179.0
722.92,160.0
722.99,163.0
723.05,186.0
723.11,175.0
723.18,168.0
723.24,145.0
723.3,146.0
723.37,164.0
723.43,158.0
723.49,175.0
723.55,158.0
723.62,151.0
723.68,132.0
723.74,130.0
723.81,142.0
723.87,152.0
723.93,134.0
724.0,143.0
724.06,123.0
724.12,128.0
724.18,132.0
724.25,126.0
724.31,126.0
724.37,133.0
724.44,98.0
724.5,104.0
724.56,126.0
724.63,118.0
724.69,105.0
724.75,106.0
724.81,87.0
724.88,80.0
724.94,90.0
725.0,68.0
725.07,46.0
725.13,44.0
725.19,61.0
725.26,76.0
725.32,63.0
725.38,61.0
725.44,49.0
725.51,54.0
725.57,42.0
725.63,42.0
725.7,36.0
725.76,32.0
725.82,11.0
725.89,18.0
725.95,2.0
726.01,-5.0
726.07,27.0
726.14,17.0
726.2,46.0
726.26,52.0
726.33,29.0
726.39,48.0
726.45,48.0
726.52,35.0
726.58,28.0
726.64,13.0
726.7,33.0
726.77,34.0
726.83,41.0
726.89,61.0
726.96,54.0
727.02,46.0
727.08,52.0
727.15,52.0
727.21,38.0
727.27,25.0
727.33,30.0
727.4,27.0
727.46,34.0
727.52,24.0
727.59,20.0
727.65,19.0
727.71,-4.0
727.78,-6.0
727.84,-4.0
727.9,-3.0
727.96,13.0
728.03,19.0
728.09,21.0
728.15,8.0
728.22,-2.0
728.28,34.0
728.34,14.0
728.41,16.0
728.47,-3.0
728.53,12.0
728.59,46.0
728.66,27.0
728.72,40.0
728.78,27.0
728.85,16.0
728.91,14.0
728.97,17.0
729.04,14.0
729.1,21.0
729.16,26.0
729.22,28.0
729.29,25.0
729.35,42.0
729.41,51.0
729.48,45.0
729.54,8.0
729.6,30.0
729.67,9.0
729.73,22.0
729.79,43.0
729.85,51.0
729.92,39.0
729.98,49.0
730.04,52.0
730.11,35.0
730.17,44.0
730.23,52.0
730.3,56.0
730.36,57.0
730.42,52.0
730.48,20.0
730.55,25.0
730.61,24.0
730.67,23.0
730.74,41.0
730.8,49.0
730.86,58.0
730.93,44.0
730.99,56.0
731.05,60.0
731.11,61.0
731.18,64.0
731.24,73.0
731.3,45.0
731.37,48.0
731.43,28.0
731.49,37.0
731.56,62.0
731.62,67.0
731.68,45.0
731.74,50.0
731.81,48.0
731.87,48.0
731.93,77.0
732.0,84.0
732.06,65.0
732.12,95.0
732.19,89.0
732.25,56.0
732.31,78.0
732.37,65.0
732.44,67.0
732.5,84.0
732.56,65.0
732.63,74.0
732.69,60.0
732.75,67.0
732.82,85.0
732.88,76.0
732.94,77.0
733.0,79.0
733.07,62.0
733.13,62.0
733.19,71.0
733.26,67.0
733.32,34.0
733.38,48.0
733.45,64.0
733.51,67.0
733.57,63.0
733.63,61.0
733.7,59.0
733.76,72.0
733.82,87.0
733.89,111.0
733.95,88.0
734.01,85.0
734.08,88.0
734.14,94.0
734.2,84.0
734.26,63.0
734.33,77.0
734.39,97.0
734.45,93.0
734.52,96.0
734.58,111.0
734.64,115.0
734.71,114.0
734.77,122.0
734.83,106.0
734.89,128.0
734.96,126.0
735.02,114.0
735.08,119.0
735.15,134.0
735.21,139.0
735.27,148.0
735.34,166.0
735.4,159.0
735.46,141.0
735.52,160.0
735.59,136.0
735.65,145.0
735.71,138.0
735.78,153.0
735.84,158.0
735.9,174.0
735.97,174.0
736.03,178.0
736.09,172.0
736.15,170.0
736.22,172.0
736.28,168.0
736.34,182.0
736.41,170.0
736.47,155.0
736.53,153.0
736.6,166.0
736.66,181.0
736.72,175.0
736.78,165.0
736.85,167.0
736.91,170.0
736.97,194.0
737.04,192.0
737.1,182.0
737.16,184.0
737.23,205.0
737.29,187.0
737.35,195.0
737.41,189.0
737.48,196.0
737.54,203.0
737.6,194.0
737.67,206.0
737.73,200.0
737.79,207.0
737.86,203.0
737.92,205.0
737.98,199.0
738.04,210.0
738.11,214.0
738.17,194.0
738.23,199.0
738.3,210.0
738.36,222.0
738.42,220.0
738.49,206.0
738.55,221.0
738.61,218.0
738.67,199.0
738.74,225.0
738.8,214.0
738.86,209.0
738.93,203.0
738.99,208.0
739.05,211.0
739.12,199.0
739.18,199.0
739.24,204.0
739.3,199.0
739.37,190.0
739.43,191.0
739.49,209.0
739.56,213.0
739.62,218.0
739.68,232.0
739.75,219.0
739.81,199.0
739.87,203.0
739.93,203.0
740.0,207.0
740.06,206.0
740.12,193.0
740.19,216.0
740.25,192.0
740.31,210.0
740.38,208.0
740.44,205.0
740.5,198.0
740.56,205.0
740.63,189.0
740.69,217.0
740.75,194.0
740.82,196.0
740.88,180.0
740.94,195.0
741.01,191.0
741.07,197.0
741.13,196.0
741.19,182.0
741.26,195.0
741.32,192.0
741.38,183.0
741.45,192.0
741.51,188.0
741.57,194.0
741.64,215.0
741.7,211.0
741.76,197.0
741.82,190.0
741.89,185.0
741.95,192.0
742.01,188.0
742.08,194.0
742.14,195.0
742.2,178.0
742.27,181.0
742.33,183.0
742.39,167.0
742.45,167.0
742.52,177.0
742.58,171.0
742.64,167.0
742.71,164.0
742.77,168.0
742.83,156.0
742.9,145.0
742.96,144.0
743.02,161.0
743.08,185.0
743.15,173.0
743.21,174.0
743.27,180.0
743.34,174.0
743.4,184.0
743.46,187.0
743.53,188.0
743.59,163.0
743.65,173.0
743.71,184.0
743.78,170.0
743.84,166.0
743.9,183.0
743.97,183.0
744.03,188.0
744.09,184.0
744.16,185.0
744.22,176.0
744.28,181.0
744.34,165.0
744.41,175.0
744.47,158.0
744.53,166.0
744.6,181.0
744.66,187.0
744.72,194.0
744.79,181.0
744.85,174.0
744.91,177.0
744.97,181.0
745.04,181.0
745.1,182.0
745.16,152.0
745.23,174.0
745.29,175.0
745.35,178.0
745.42,172.0
745.48,141.0
745.54,144.0
745.6,154.0
745.67,144.0
745.73,140.0
745.79,160.0
745.86,161.0
745.92,150.0
745.98,145.0
746.05,166.0
746.11,159.0
746.17,159.0
746.23,170.0
746.3,169.0
746.36,166.0
746.42,173.0
746.49,177.0
746.55,175.0
746.61,175.0
746.68,161.0
746.74,164.0
746.8,158.0
746.86,155.0
746.93,170.0
746.99,159.0
747.05,159.0
747.12,183.0
747.18,150.0
747.24,153.0
747.31,170.0
747.37,158.0
747.43,147.0
747.49,157.0
747.56,162.0
747.62,139.0
747.68,140.0
747.75,133.0
747.81,143.0
747.87,118.0
747.94,122.0
748.0,121.0
748.06,131.0
748.12,144.0
748.19,137.0
748.25,143.0
748.31,117.0
748.38,136.0
748.44,144.0
748.5,148.0
748.57,133.0
748.63,118.0
748.69,134.0
748.75,139.0
748.82,128.0
748.88,128.0
748.94,130.0
749.01,129.0
749.07,122.0
749.13,129.0
749.2,108.0
749.26,90.0
749.32,74.0
749.38,82.0
749.45,76.0
749.51,82.0
749.57,64.0
749.64,79.0
749.7,78.0
749.76,87.0
749.83,80.0
749.89,68.0
749.95,64.0
750.01,59.0
750.08,72.0
750.14,65.0
750.2,89.0
750.27,74.0
750.33,71.0
750.39,67.0
750.46,73.0
750.52,68.0
750.58,72.0
750.64,74.0
750.71,60.0
750.77,70.0
750.83,75.0
750.9,84.0
750.96,78.0
751.02,41.0
751.09,48.0
751.15,57.0
751.21,57.0
751.27,62.0
751.34,49.0
751.4,56.0
751.46,45.0
751.53,32.0
751.59,33.0
751.65,53.0
751.72,56.0
751.78,58.0
751.84,60.0
751.9,67.0
751.97,62.0
752.03,50.0
752.09,43.0
752.16,66.0
752.22,35.0
752.28,64.0
752.35,54.0
752.41,56.0
752.47,81.0
752.53,63.0
752.6,72.0
752.66,62.0
752.72,43.0
752.79,51.0
752.85,54.0
752.91,30.0
752.98,23.0
753.04,26.0
753.1,34.0
753.16,27.0
753.23,20.0
753.29,16.0
753.35,40.0
753.42,37.0
753.48,12.0
753.54,28.0
753.61,20.0
753.67,40.0
753.73,55.0
753.79,32.0
753.86,18.0
753.92,18.0
753.98,29.0
754.05,23.0
754.11,29.0
754.17,20.0
754.24,33.0
754.3,42.0
754.36,39.0
754.42,31.0
754.49,34.0
754.55,41.0
754.61,51.0
754.68,52.0
754.74,60.0
754.8,65.0
754.87,76.0
754.93,68.0
754.99,56.0
755.05,53.0
755.12,38.0
755.18,49.0
755.24,56.0
755.31,43.0
755.37,39.0
755.43,50.0
755.5,40.0
755.56,23.0
755.62,24.0
755.68,27.0
755.75,30.0
755.81,24.0
755.87,34.0
755.94,33.0
756.0,21.0
756.06,19.0
756.13,35.0
756.19,17.0
756.25,8.0
756.31,22.0
756.38,17.0
756.44,13.0
756.5,21.0
756.57,23.0
756.63,10.0
756.69,29.0
756.76,-1.0
756.82,13.0
756.88,27.0
756.94,31.0
757.01,9.0
757.07,22.0
757.13,28.0
757.2,2.0
757.26,5.0
757.32,19.0
757.39,29.0
757.45,22.0
757.51,1.0
757.57,9.0
757.64,3.0
757.7,4.0
757.76,17.0
757.83,17.0
757.89,22.0
757.95,-6.0
758.02,-12.0
758.08,-8.0
758.14,-24.0
758.2,-15.0
758.27,11.0
758.33,0.0
758.39,-17.0
758.46,-13.0
758.52,-12.0
758.58,-29.0
758.65,-19.0
758.71,20.0
758.77,10.0
758.83,9.0
758.9,17.0
758.96,10.0
759.02,-6.0
759.09,2.0
759.15,-19.0
759.21,-15.0
759.28,-15.0
759.34,-33.0
759.4,-21.0
759.46,-8.0
759.53,-10.0
759.59,12.0
759.65,-24.0
759.72,-13.0
759.78,-15.0
759.84,-25.0
759.91,5.0
759.97,-20.0
760.03,2.0
760.09,-19.0
760.16,7.0
760.22,4.0
760.28,-5.0
760.35,8.0
760.41,-16.0
760.47,-3.0
760.54,25.0
760.6,34.0
760.66,50.0
760.72,61.0
760.79,67.0
760.85,67.0
760.91,58.0
760.98,57.0
761.04,52.0
761.1,47.0
761.17,47.0
761.23,41.0
761.29,61.0
761.35,56.0
761.42,65.0
761.48,79.0
761.54,85.0
761.61,71.0
761.67,57.0
761.73,71.0
761.8,75.0
761.86,85.0
761.92,76.0
761.98,72.0
762.05,66.0
762.11,76.0
762.17,76.0
762.24,80.0
762.3,74.0
762.36,93.0
762.43,108.0
762.49,99.0
762.55,102.0
762.61,100.0
762.68,107.0
762.74,104.0
762.8,113.0
762.87,119.0
762.93,110.0
762.99,122.0
763.06,128.0
763.12,123.0
763.18,135.0
763.24,131.0
763.31,124.0
763.37,135.0
763.43,144.0
763.5,147.0
763.56,155.0
763.62,163.0
763.69,166.0
763.75,158.0
763.81,149.0
763.87,177.0
763.94,170.0
764.0,172.0
764.06,142.0
764.13,177.0
764.19,181.0
764.25,166.0
764.32,176.0
764.38,170.0
764.44,170.0
764.5,159.0
764.57,180.0
764.63,187.0
764.69,178.0
764.76,173.0
764.82,168.0
764.88,181.0
764.95,184.0
765.01,183.0
765.07,186.0
765.13,177.0
765.2,177.0
765.26,183.0
765.32,201.0
765.39,190.0
765.45,187.0
765.51,201.0
765.58,200.0
765.64,194.0
765.7,190.0
765.76,184.0
765.83,195.0
765.89,180.0
765.95,170.0
766.02,174.0
766.08,177.0
766.14,169.0
766.21,164.0
766.27,157.0
766.33,166.0
766.39,174.0
766.46,171.0
766.52,167.0
766.58,152.0
766.65,144.0
766.71,148.0
766.77,160.0
766.84,164.0
766.9,143.0
766.96,143.0
767.02,173.0
767.09,153.0
767.15,160.0
767.21,170.0
767.28,166.0
767.34,152.0
767.4,176.0
767.47,173.0
767.53,164.0
767.59,171.0
767.65,158.0
767.72,179.0
767.78,167.0
767.84,171.0
767.91,168.0
767.97,163.0
768.03,168.0
768.1,155.0
768.16,172.0
768.22,190.0
768.28,162.0
768.35,172.0
768.41,182.0
768.47,193.0
768.54,169.0
768.6,168.0
768.66,177.0
768.73,184.0
768.79,191.0
768.85,195.0
768.91,192.0
768.98,194.0
769.04,195.0
769.1,197.0
769.17,199.0
769.23,215.0
769.29,208.0
769.36,227.0
769.42,207.0
769.48,212.0
769.54,209.0
769.61,200.0
769.67,217.0
769.73,213.0
769.8,219.0
769.86,206.0
769.92,215.0
769.99,210.0
770.05,223.0
770.11,233.0
770.17,222.0
770.24,224.0
770.3,213.0
770.36,228.0
770.43,241.0
770.49,245.0
770.55,239.0
770.62,249.0
770.68,231.0
770.74,238.0
770.8,247.0
770.87,235.0
770.93,238.0
770.99,258.0
771.06,264.0
771.12,244.0
771.18,261.0
771.25,237.0
771.31,232.0
771.37,239.0
771.43,231.0
771.5,210.0
771.56,214.0
771.62,222.0
771.69,213.0
771.75,220.0
771.81,217.0
771.88,230.0
771.94,228.0
772.0,237.0
772.06,235.0
772.13,212.0
772.19,230.0
772.25,201.0
772.32,194.0
772.38,197.0
772.44,190.0
772.51,203.0
772.57,185.0
772.63,211.0
772.69,185.0
772.76,184.0
772.82,203.0
772.88,181.0
772.95,168.0
773.01,174.0
773.07,177.0
773.14,181.0
773.2,173.0
773.26,186.0
773.32,192.0
773.39,158.0
773.45,180.0
773.51,191.0
773.58,181.0
773.64,194.0
773.7,190.0
773.77,196.0
773.83,214.0
773.89,192.0
773.95,196.0
774.02,188.0
774.08,188.0
774.14,190.0
774.21,176.0
774.27,182.0
774.33,194.0
774.4,188.0
774.46,176.0
774.52,172.0
774.58,174.0
774.65,176.0
774.71,165.0
774.77,188.0
774.84,194.0
774.9,180.0
774.96,198.0
775.03,184.0
775.09,182.0
775.15,160.0
775.21,150.0
775.28,126.0
775.34,132.0
775.4,146.0
775.47,143.0
775.53,124.0
775.59,107.0
775.66,111.0
775.72,110.0
775.78,104.0
775.84,99.0
775.91,77.0
775.97,72.0
776.03,81.0
776.1,81.0
776.16,79.0
776.22,75.0
776.29,63.0
776.35,71.0
776.41,77.0
776.47,70.0
776.54,68.0
776.6,64.0
776.66,52.0
776.73,64.0
776.79,73.0
776.85,68.0
776.92,56.0
776.98,64.0
777.04,88.0
777.1,77.0
777.17,62.0
777.23,64.0
777.29,72.0
777.36,52.0
777.42,48.0
777.48,35.0
777.55,26.0
777.61,47.0
777.67,33.0
777.73,23.0
777.8,22.0
777.86,26.0
777.92,41.0
777.99,29.0
778.05,45.0
778.11,50.0
778.18,52.0
778.24,59.0
778.3,45.0
778.36,55.0
778.43,51.0
778.49,48.0
778.55,58.0
778.62,49.0
778.68,47.0
778.74,35.0
778.81,40.0
778.87,52.0
778.93,77.0
778.99,72.0
779.06,72.0
779.12,94.0
779.18,66.0
779.25,84.0
779.31,81.0
779.37,89.0
779.44,106.0
779.5,89.0
779.56,81.0
779.62,104.0
779.69,101.0
779.75,100.0
779.81,110.0
779.88,122.0
779.94,99.0
780.0,96.0
780.07,97.0
780.13,95.0
780.19,100.0
780.25,93.0
780.32,107.0
780.38,100.0
780.44,104.0
780.51,121.0
780.57,115.0
780.63,104.0
780.7,94.0
780.76,100.0
780.82,100.0
780.88,109.0
780.95,111.0
781.01,124.0
781.07,110.0
781.14,108.0
781.2,95.0
781.26,116.0
781.33,98.0
781.39,88.0
781.45,108.0
781.51,100.0
781.58,103.0
781.64,94.0
781.7,108.0
781.77,107.0
781.83,107.0
781.89,91.0
781.96,88.0
782.02,81.0
782.08,82.0
782.14,86.0
782.21,66.0
782.27,82.0
782.33,90.0
782.4,92.0
782.46,94.0
782.52,86.0
782.59,91.0
782.65,80.0
782.71,77.0
782.77,88.0
782.84,110.0
782.9,111.0
782.96,103.0
783.03,111.0
783.09,119.0
783.15,110.0
783.22,97.0
783.28,98.0
783.34,100.0
783.4,71.0
783.47,76.0
783.53,94.0
783.59,82.0
783.66,91.0
783.72,97.0
783.78,92.0
783.85,94.0
783.91,72.0
783.97,87.0
784.03,95.0
784.1,60.0
784.16,72.0
784.22,90.0
784.29,78.0
784.35,85.0
784.41,84.0
784.48,92.0
784.54,89.0
784.6,73.0
784.66,76.0
784.73,67.0
784.79,73.0
784.85,74.0
784.92,38.0
784.98,73.0
785.04,85.0
785.11,77.0
785.17,82.0
785.23,82.0
785.29,81.0
785.36,85.0
785.42,70.0
785.48,67.0
785.55,81.0
785.61,78.0
785.67,102.0
785.74,76.0
785.8,75.0
785.86,80.0
785.92,90.0
785.99,109.0
786.05,96.0
786.11,111.0
786.18,116.0
786.24,106.0
786.3,105.0
786.37,107.0
786.43,114.0
786.49,119.0
786.55,130.0
786.62,109.0
786.68,92.0
786.74,121.0
786.81,118.0
786.87,102.0
786.93,100.0
787.0,104.0
787.06,115.0
787.12,99.0
787.18,140.0
787.25,136.0
787.31,110.0
787.37,105.0
787.44,96.0
787.5,99.0
787.56,122.0
787.63,135.0
787.69,130.0
787.75,134.0
787.81,146.0
787.88,145.0
787.94,158.0
788.0,140.0
788.07,140.0
788.13,170.0
788.19,172.0
788.26,170.0
788.32,167.0
788.38,166.0
788.44,185.0
788.51,178.0
788.57,193.0
788.63,200.0
788.7,210.0
788.76,190.0
788.82,199.0
788.89,205.0
788.95,214.0
789.01,195.0
789.07,208.0
789.14,190.0
789.2,200.0
789.26,209.0
789.33,225.0
789.39,235.0
789.45,224.0
789.52,220.0
789.58,241.0
789.64,218.0
789.7,220.0
789.77,245.0
789.83,238.0
789.89,225.0
789.96,210.0
790.02,217.0
790.08,218.0
790.15,231.0
790.21,241.0
790.27,242.0
790.33,236.0
790.4,223.0
790.46,223.0
790.52,206.0
790.59,224.0
790.65,210.0
790.71,224.0
790.78,217.0
790.84,213.0
790.9,223.0
790.96,233.0
791.03,242.0
791.09,232.0
791.15,219.0
791.22,193.0
791.28,197.0
791.34,200.0
791.41,197.0
791.47,215.0
791.53,196.0
791.59,196.0
791.66,209.0
791.72,206.0
791.78,212.0
791.85,205.0
791.91,217.0
791.97,224.0
792.04,213.0
792.1,203.0
792.16,175.0
792.22,187.0
792.29,173.0
792.35,188.0
792.41,184.0
792.48,179.0
792.54,200.0
792.6,180.0
792.67,173.0
792.73,188.0
792.79,188.0
792.85,187.0
792.92,155.0
792.98,148.0
793.04,158.0
793.11,170.0
793.17,172.0
793.23,170.0
793.3,177.0
793.36,176.0
793.42,168.0
793.48,160.0
793.55,148.0
793.61,158.0
793.67,140.0
793.74,143.0
793.8,155.0
793.86,162.0
793.93,157.0
793.99,158.0
794.05,162.0
794.11,142.0
794.18,132.0
794.24,134.0
794.3,114.0
794.37,143.0
794.43,127.0
794.49,132.0
794.56,145.0
794.62,148.0
794.68,160.0
794.74,140.0
794.81,135.0
794.87,141.0
794.93,129.0
795.0,112.0
795.06,114.0
795.12,140.0
795.19,150.0
795.25,148.0
795.31,141.0
795.37,139.0
795.44,130.0
795.5,129.0
795.56,134.0
795.63,151.0
795.69,151.0
795.75,147.0
795.82,130.0
795.88,129.0
795.94,149.0
796.0,138.0
796.07,109.0
796.13,144.0
796.19,149.0
796.26,153.0
796.32,150.0
796.38,153.0
796.45,148.0
796.51,153.0
796.57,163.0
796.63,166.0
796.7,174.0
796.76,168.0
796.82,158.0
796.89,157.0
796.95,149.0
797.01,165.0
797.08,156.0
797.14,161.0
797.2,152.0
797.26,166.0
797.33,163.0
797.39,154.0
797.45,139.0
797.52,154.0
797.58,170.0
797.64,155.0
797.71,168.0
797.77,163.0
797.83,190.0
797.89,170.0
797.96,166.0
798.02,179.0
798.08,177.0
798.15,176.0
798.21,170.0
798.27,168.0
798.34,183.0
798.4,171.0
798.46,171.0
798.52,166.0
798.59,177.0
798.65,175.0
798.71,147.0
798.78,148.0
798.84,156.0
798.9,138.0
798.97,130.0
799.03,173.0
799.09,173.0
799.15,157.0
799.22,157.0
799.28,161.0
799.34,166.0
799.41,155.0
799.47,137.0
799.53,141.0
799.6,156.0
799.66,162.0
799.72,137.0
799.78,141.0
799.85,149.0
799.91,155.0
799.97,148.0
800.04,143.0
800.1,152.0
800.16,145.0
800.23,141.0
800.29,154.0
800.35,149.0
800.41,172.0
800.48,169.0
800.54,182.0
800.6,185.0
800.67,175.0
800.73,147.0
800.79,152.0
800.86,153.0
800.92,152.0
800.98,144.0
801.04,139.0
801.11,124.0
801.17,143.0
801.23,129.0
801.3,121.0
801.36,111.0
801.42,114.0
801.49,97.0
801.55,100.0
801.61,94.0
801.67,106.0
801.74,114.0
801.8,109.0
801.86,113.0
801.93,115.0
801.99,110.0
802.05,98.0
802.12,126.0
802.18,101.0
802.24,110.0
802.3,107.0
802.37,100.0
802.43,85.0
802.49,93.0
802.56,88.0
802.62,88.0
802.68,99.0
802.75,80.0
802.81,82.0
802.87,78.0
802.93,78.0
803.0,82.0
803.06,89.0
803.12,75.0
803.19,88.0
803.25,89.0
803.31,112.0
803.38,86.0
803.44,93.0
803.5,107.0
803.56,86.0
803.63,79.0
803.69,96.0
803.75,103.0
803.82,110.0
803.88,100.0
803.94,104.0
804.01,112.0
804.07,110.0
804.13,87.0
804.19,86.0
804.26,117.0
804.32,111.0
804.38,104.0
804.45,104.0
804.51,82.0
804.57,98.0
804.64,90.0
804.7,97.0
804.76,123.0
804.82,104.0
804.89,114.0
804.95,116.0
805.01,116.0
805.08,97.0
805.14,104.0
805.2,124.0
805.27,107.0
805.33,103.0
805.39,104.0
805.45,98.0
805.52,99.0
805.58,111.0
805.64,106.0
805.71,104.0
805.77,116.0
805.83,119.0
805.9,106.0
805.96,138.0
806.02,100.0
806.08,111.0
806.15,101.0
806.21,77.0
806.27,79.0
806.34,69.0
806.4,63.0
806.46,72.0
806.53,87.0
806.59,90.0
806.65,78.0
806.71,84.0
806.78,77.0
806.84,71.0
806.9,86.0
806.97,88.0
807.03,88.0
807.09,67.0
807.16,80.0
807.22,62.0
807.28,58.0
807.34,86.0
807.41,63.0
807.47,71.0
807.53,52.0
807.6,41.0
807.66,50.0
807.72,57.0
807.79,66.0
807.85,72.0
807.91,68.0
807.97,55.0
808.04,52.0
808.1,69.0
808.16,72.0
808.23,73.0
808.29,68.0
808.35,70.0
808.42,53.0
808.48,43.0
808.54,49.0
808.6,41.0
808.67,47.0
808.73,47.0
808.79,46.0
808.86,49.0
808.92,33.0
808.98,41.0
809.05,15.0
809.11,27.0
809.17,20.0
809.23,15.0
809.3,-4.0
809.36,-13.0
809.42,-1.0
809.49,12.0
809.55,-5.0
809.61,9.0
809.68,10.0
809.74,28.0
809.8,28.0
809.86,15.0
809.93,16.0
809.99,12.0
810.05,3.0
810.12,10.0
810.18,6.0
810.24,18.0
810.31,39.0
810.37,30.0
810.43,31.0
810.49,28.0
810.56,27.0
810.62,21.0
810.68,12.0
810.75,50.0
810.81,14.0
810.87,9.0
810.94,30.0
811.0,31.0
811.06,30.0
811.12,34.0
811.19,34.0
811.25,34.0
811.31,29.0
811.38,36.0
811.44,8.0
811.5,5.0
811.57,12.0
811.63,22.0
811.69,12.0
811.75,8.0
811.82,26.0
811.88,34.0
811.94,12.0
812.01,12.0
812.07,6.0
812.13,15.0
812.2,29.0
812.26,32.0
812.32,27.0
812.38,23.0
812.45,6.0
812.51,20.0
812.57,31.0
812.64,40.0
812.7,43.0
812.76,40.0
812.83,63.0
812.89,63.0
812.95,68.0
813.01,76.0
813.08,86.0
813.14,75.0
813.2,87.0
813.27,104.0
813.33,73.0
813.39,95.0
813.46,97.0
813.52,103.0
813.58,103.0
813.64,106.0
813.71,112.0
813.77,101.0
813.83,123.0
813.9,111.0
813.96,138.0
814.02,136.0
814.09,135.0
814.15,125.0
814.21,131.0
814.27,127.0
814.34,130.0
814.4,134.0
814.46,122.0
814.53,138.0
814.59,139.0
814.65,149.0
814.72,158.0
814.78,150.0
814.84,152.0
814.9,140.0
814.97,137.0
815.03,150.0
815.09,159.0
815.16,156.0
815.22,131.0
815.28,154.0
815.35,141.0
815.41,155.0
815.47,164.0
815.53,139.0
815.6,141.0
815.66,164.0
815.72,157.0
815.79,146.0
815.85,149.0
815.91,178.0
815.98,169.0
816.04,181.0
816.1,180.0
816.16,169.0
816.23,175.0
816.29,177.0
816.35,198.0
816.42,180.0
816.48,174.0
816.54,174.0
816.61,159.0
816.67,179.0
816.73,181.0
816.79,184.0
816.86,158.0
816.92,161.0
816.98,171.0
817.05,166.0
817.11,154.0
817.17,153.0
817.24,180.0
817.3,189.0
817.36,174.0
817.42,193.0
817.49,184.0
817.55,170.0
817.61,169.0
817.68,188.0
817.74,181.0
817.8,171.0
817.87,181.0
817.93,185.0
817.99,170.0
818.05,175.0
818.12,193.0
818.18,214.0
818.24,207.0
818.31,193.0
818.37,204.0
818.43,192.0
818.5,194.0
818.56,203.0
818.62,230.0
818.68,219.0
818.75,209.0
818.81,211.0
818.87,209.0
818.94,211.0
819.0,193.0
819.06,195.0
819.13,220.0
819.19,193.0
819.25,202.0
819.31,210.0
819.38,213.0
819.44,217.0
819.5,210.0
819.57,218.0
819.63,226.0
819.69,218.0
819.76,247.0
819.82,241.0
819.88,231.0
819.94,235.0
820.01,237.0
820.07,227.0
820.13,235.0
820.2,242.0
820.26,241.0
820.32,233.0
820.39,223.0
820.45,238.0
820.51,223.0
820.57,226.0
820.64,237.0
820.7,258.0
820.76,244.0
820.83,243.0
820.89,248.0
820.95,230.0
821.02,249.0
821.08,247.0
821.14,236.0
821.2,244.0
821.27,238.0
821.33,226.0
821.39,237.0
821.46,237.0
821.52,228.0
821.58,219.0
821.65,219.0
821.71,211.0
821.77,229.0
821.83,214.0
821.9,213.0
821.96,191.0
822.02,199.0
822.09,217.0
822.15,200.0
822.21,207.0
822.28,183.0
822.34,189.0
822.4,195.0
822.46,203.0
822.53,215.0
822.59,215.0
822.65,215.0
822.72,201.0
822.78,201.0
822.84,207.0
822.91,211.0
822.97,222.0
823.03,215.0
823.09,226.0
823.16,211.0
823.22,194.0
823.28,222.0
823.35,218.0
823.41,235.0
823.47,219.0
823.54,214.0
823.6,217.0
823.66,196.0
823.72,229.0
823.79,227.0
823.85,225.0
823.91,203.0
823.98,223.0
824.04,211.0
824.1,212.0
824.17,205.0
824.23,194.0
824.29,208.0
824.35,222.0
824.42,224.0
824.48,221.0
824.54,199.0
824.61,207.0
824.67,190.0
824.73,202.0
824.8,189.0
824.86,196.0
824.92,214.0
824.98,214.0
825.05,224.0
825.11,208.0
825.17,205.0
825.24,198.0
825.3,189.0
825.36,172.0
825.43,163.0
825.49,147.0
825.55,163.0
825.61,162.0
825.68,160.0
825.74,164.0
825.8,158.0
825.87,151.0
825.93,163.0
825.99,149.0
826.06,134.0
826.12,130.0
826.18,140.0
826.24,133.0
826.31,134.0
826.37,139.0
826.43,129.0
826.5,111.0
826.56,113.0
826.62,106.0
826.69,110.0
826.75,108.0
826.81,105.0
826.87,100.0
826.94,98.0
827.0,108.0
827.06,89.0
827.13,87.0
827.19,87.0
827.25,75.0
827.32,68.0
827.38,83.0
827.44,97.0
827.5,94.0
827.57,74.0
827.63,81.0
827.69,64.0
827.76,62.0
827.82,77.0
827.88,53.0
827.95,45.0
828.01,68.0
828.07,59.0
828.13,51.0
828.2,52.0
828.26,72.0
828.32,85.0
828.39,69.0
828.45,56.0
828.51,61.0
828.58,70.0
828.64,65.0
828.7,67.0
828.76,84.0
828.83,84.0
828.89,61.0
828.95,60.0
829.02,43.0
829.08,53.0
829.14,42.0
829.21,57.0
829.27,31.0
829.33,42.0
829.39,51.0
829.46,43.0
829.52,42.0
829.58,43.0
829.65,41.0
829.71,57.0
829.77,46.0
829.84,26.0
829.9,30.0
829.96,38.0
830.02,56.0
830.09,70.0
830.15,73.0
830.21,84.0
830.28,81.0
830.34,88.0
830.4,86.0
830.47,84.0
830.53,89.0
830.59,81.0
830.65,98.0
830.72,109.0
830.78,99.0
830.84,106.0
830.91,103.0
830.97,98.0
831.03,108.0
831.1,103.0
831.16,116.0
831.22,99.0
831.28,88.0
831.35,93.0
831.41,78.0
831.47,73.0
831.54,75.0
831.6,70.0
831.66,90.0
831.73,100.0
831.79,95.0
831.85,109.0
831.91,92.0
831.98,95.0
832.04,90.0
832.1,90.0
832.17,92.0
832.23,81.0
832.29,75.0
832.36,75.0
832.42,91.0
832.48,108.0
832.54,105.0
832.61,81.0
832.67,81.0
832.73,79.0
832.8,79.0
832.86,69.0
832.92,64.0
832.99,55.0
833.05,52.0
833.11,78.0
833.17,75.0
833.24,62.0
833.3,60.0
833.36,68.0
833.43,48.0
833.49,71.0
833.55,47.0
833.62,50.0
833.68,51.0
833.74,21.0
833.8,27.0
833.87,45.0
833.93,35.0
833.99,31.0
834.06,23.0
834.12,31.0
834.18,29.0
834.25,34.0
834.31,41.0
834.37,45.0
834.43,39.0
834.5,52.0
834.56,40.0
834.62,35.0
834.69,55.0
834.75,46.0
834.81,39.0
834.88,50.0
834.94,53.0
835.0,54.0
835.06,59.0
835.13,50.0
835.19,64.0
835.25,70.0
835.32,62.0
835.38,53.0
835.44,63.0
835.51,57.0
835.57,41.0
835.63,45.0
835.69,48.0
835.76,35.0
835.82,30.0
835.88,44.0
835.95,53.0
836.01,42.0
836.07,47.0
836.14,46.0
836.2,39.0
836.26,37.0
836.32,48.0
836.39,54.0
836.45,57.0
836.51,59.0
836.58,62.0
836.64,78.0
836.7,65.0
836.77,64.0
836.83,74.0
836.89,85.0
836.95,80.0
837.02,88.0
837.08,89.0
837.14,103.0
837.21,116.0
837.27,116.0
837.33,78.0
837.4,77.0
837.46,105.0
837.52,105.0
837.58,94.0
837.65,108.0
837.71,106.0
837.77,117.0
837.84,103.0
837.9,120.0
837.96,129.0
838.03,130.0
838.09,127.0
838.15,110.0
838.21,135.0
838.28,145.0
838.34,105.0
838.4,104.0
838.47,97.0
838.53,131.0
838.59,138.0
838.66,136.0
838.72,148.0
838.78,148.0
838.84,133.0
838.91,145.0
838.97,145.0
839.03,137.0
839.1,153.0
839.16,134.0
839.22,160.0
839.29,156.0
839.35,136.0
839.41,119.0
839.47,129.0
839.54,139.0
839.6,148.0
839.66,143.0
839.73,137.0
839.79,163.0
839.85,167.0
839.92,171.0
839.98,161.0
840.04,177.0
840.1,193.0
840.17,192.0
840.23,189.0
840.29,181.0
840.36,189.0
840.42,181.0
840.48,169.0
840.55,163.0
840.61,172.0
840.67,141.0
840.73,158.0
840.8,172.0
840.86,155.0
840.92,166.0
840.99,159.0
841.05,160.0
841.11,164.0
841.18,167.0
841.24,179.0
841.3,149.0
841.36,155.0
841.43,171.0
841.49,145.0
841.55,158.0
841.62,170.0
841.68,155.0
841.74,152.0
841.81,151.0
841.87,166.0
841.93,160.0
841.99,151.0
842.06,165.0
842.12,163.0
842.18,146.0
842.25,159.0
842.31,157.0
842.37,132.0
842.44,139.0
842.5,144.0
842.56,127.0
842.62,149.0
842.69,153.0
842.75,160.0
842.81,173.0
842.88,168.0
842.94,185.0
843.0,176.0
843.07,131.0
843.13,143.0
843.19,160.0
843.25,165.0
843.32,156.0
843.38,115.0
843.44,143.0
843.51,145.0
843.57,133.0
843.63,142.0
843.7,127.0
843.76,122.0
843.82,125.0
843.88,116.0
843.95,115.0
844.01,121.0
844.07,94.0
844.14,101.0
844.2,90.0
844.26,88.0
844.33,126.0
844.39,130.0
844.45,136.0
844.51,149.0
844.58,142.0
844.64,129.0
844.7,114.0
844.77,128.0
844.83,142.0
844.89,117.0
844.96,127.0
845.02,136.0
845.08,137.0
845.14,145.0
845.21,136.0
845.27,116.0
845.33,147.0
845.4,149.0
845.46,158.0
845.52,148.0
845.59,160.0
845.65,137.0
845.71,142.0
845.77,167.0
845.84,177.0
845.9,163.0
845.96,165.0
846.03,189.0
846.09,192.0
846.15,166.0
846.22,181.0
846.28,180.0
846.34,200.0
846.4,196.0
846.47,189.0
846.53,192.0
846.59,189.0
846.66,214.0
846.72,240.0
846.78,224.0
846.85,226.0
846.91,218.0
846.97,211.0
847.03,194.0
847.1,199.0
847.16,203.0
847.22,215.0
847.29,221.0
847.35,224.0
847.41,211.0
847.48,232.0
847.54,219.0
847.6,204.0
847.66,229.0
847.73,218.0
847.79,214.0
847.85,217.0
847.92,195.0
847.98,201.0
848.04,218.0
848.11,216.0
848.17,221.0
848.23,200.0
848.29,217.0
848.36,202.0
848.42,203.0
848.48,183.0
848.55,178.0
848.61,185.0
848.67,192.0
848.74,181.0
848.8,164.0
848.86,177.0
848.92,202.0
848.99,193.0
849.05,185.0
849.11,192.0
849.18,194.0
849.24,166.0
849.3,187.0
849.37,193.0
849.43,167.0
849.49,166.0
849.55,180.0
849.62,186.0
849.68,186.0
849.74,172.0
849.81,157.0
849.87,177.0
849.93,156.0
850.0,150.0
850.06,161.0
850.12,145.0
850.18,147.0
850.25,155.0
850.31,150.0
850.37,145.0
850.44,178.0
850.5,157.0
850.56,152.0
850.63,152.0
850.69,156.0
850.75,139.0
850.81,147.0
850.88,143.0
850.94,139.0
851.0,122.0
851.07,121.0
851.13,116.0
851.19,98.0
851.26,112.0
851.32,137.0
851.38,120.0
851.44,130.0
851.51,156.0
851.57,146.0
851.63,167.0
851.7,158.0
851.76,126.0
851.82,142.0
851.89,140.0
851.95,143.0
852.01,127.0
852.07,138.0
852.14,136.0
852.2,119.0
852.26,125.0
852.33,113.0
852.39,100.0
852.45,109.0
852.52,156.0
852.58,112.0
852.64,127.0
852.7,126.0
852.77,114.0
852.83,116.0
852.89,90.0
852.96,105.0
853.02,113.0
853.08,138.0
853.15,131.0
853.21,127.0
853.27,123.0
853.33,114.0
853.4,124.0
853.46,123.0
853.52,117.0
853.59,139.0
853.65,142.0
853.71,133.0
853.78,115.0
853.84,134.0
853.9,121.0
853.96,118.0
854.03,133.0
854.09,123.0
854.15,124.0
854.22,148.0
854.28,131.0
854.34,144.0
854.41,149.0
854.47,123.0
854.53,119.0
854.59,142.0
854.66,133.0
854.72,129.0
854.78,141.0
854.85,129.0
854.91,133.0
854.97,132.0
855.04,109.0
855.1,113.0
855.16,124.0
855.22,148.0
855.29,136.0
855.35,131.0
855.41,129.0
855.48,119.0
855.54,138.0
855.6,130.0
855.67,141.0
855.73,145.0
855.79,130.0
855.85,127.0
855.92,155.0
855.98,125.0
856.04,119.0
856.11,155.0
856.17,128.0
856.23,142.0
856.3,143.0
856.36,167.0
856.42,164.0
856.48,139.0
856.55,145.0
856.61,133.0
856.67,144.0
856.74,144.0
856.8,128.0
856.86,134.0
856.93,133.0
856.99,138.0
857.05,131.0
857.11,150.0
857.18,127.0
857.24,114.0
857.3,129.0
857.37,121.0
857.43,130.0
857.49,109.0
857.56,108.0
857.62,94.0
857.68,96.0
857.74,116.0
857.81,98.0
857.87,124.0
857.93,139.0
858.0,139.0
858.06,120.0
858.12,116.0
858.19,117.0
858.25,123.0
858.31,124.0
858.37,110.0
858.44,92.0
858.5,95.0
858.56,81.0
858.63,97.0
858.69,89.0
858.75,92.0
858.82,79.0
858.88,86.0
858.94,72.0
859.0,71.0
859.07,74.0
859.13,49.0
859.19,64.0
859.26,60.0
859.32,75.0
859.38,46.0
859.45,68.0
859.51,60.0
859.57,37.0
859.63,26.0
859.7,27.0
859.76,15.0
859.82,33.0
859.89,42.0
859.95,28.0
860.01,38.0
860.08,30.0
860.14,22.0
860.2,22.0
860.26,21.0
860.33,15.0
860.39,20.0
860.45,24.0
860.52,-16.0
860.58,3.0
860.64,0.0
860.71,-11.0
860.77,6.0
860.83,1.0
860.89,0.0
860.96,8.0
861.02,14.0
861.08,30.0
861.15,18.0
861.21,29.0
861.27,35.0
861.34,31.0
861.4,42.0
861.46,44.0
861.52,35.0
861.59,30.0
861.65,15.0
861.71,16.0
861.78,14.0
861.84,43.0
861.9,52.0
861.97,47.0
862.03,7.0
862.09,2.0
862.15,11.0
862.22,2.0
862.28,-16.0
862.34,-3.0
862.41,-6.0
862.47,3.0
862.53,2.0
862.6,5.0
862.66,1.0
862.72,-6.0
862.78,-2.0
862.85,4.0
862.91,-7.0
862.97,-8.0
863.04,-11.0
863.1,-13.0
863.16,-14.0
863.23,5.0
863.29,-5.0
863.35,1.0
863.41,-8.0
863.48,3.0
863.54,11.0
863.6,9.0
863.67,12.0
863.73,16.0
863.79,30.0
863.86,37.0
863.92,14.0
863.98,22.0
864.04,49.0
864.11,38.0
864.17,29.0
864.23,26.0
864.3,33.0
864.36,29.0
864.42,36.0
864.49,46.0
864.55,71.0
864.61,68.0
864.67,74.0
864.74,70.0
864.8,60.0
864.86,82.0
864.93,72.0
864.99,88.0
865.05,73.0
865.12,59.0
865.18,77.0
865.24,69.0
865.3,68.0
865.37,70.0
865.43,59.0
865.49,63.0
865.56,48.0
865.62,46.0
865.68,61.0
865.75,57.0
865.81,69.0
865.87,79.0
865.93,81.0
866.0,89.0
866.06,79.0
866.12,50.0
866.19,76.0
866.25,75.0
866.31,58.0
866.38,58.0
866.44,75.0
866.5,66.0
866.56,74.0
866.63,73.0
866.69,87.0
866.75,94.0
866.82,86.0
866.88,75.0
866.94,73.0
867.01,58.0
867.07,57.0
867.13,61.0
867.19,71.0
867.26,77.0
867.32,76.0
867.38,71.0
867.45,66.0
867.51,67.0
867.57,91.0
867.64,87.0
867.7,83.0
867.76,92.0
867.82,71.0
867.89,74.0
867.95,85.0
868.01,90.0
868.08,82.0
868.14,72.0
868.2,73.0
868.27,72.0
868.33,65.0
868.39,68.0
868.45,76.0
868.52,79.0
868.58,84.0
868.64,70.0
868.71,102.0
868.77,111.0
868.83,123.0
868.9,110.0
868.96,95.0
869.02,101.0
869.08,73.0
869.15,103.0
869.21,117.0
869.27,126.0
869.34,131.0
869.4,132.0
869.46,134.0
869.53,123.0
869.59,104.0
869.65,110.0
869.71,108.0
869.78,109.0
869.84,107.0
869.9,110.0
869.97,136.0
870.03,131.0
870.09,122.0
870.16,140.0
870.22,140.0
870.28,136.0
870.34,153.0
870.41,155.0
870.47,148.0
870.53,139.0
870.6,147.0
870.66,167.0
870.72,165.0
870.79,184.0
870.85,197.0
870.91,179.0
870.97,165.0
871.04,154.0
871.1,157.0
871.16,167.0
871.23,143.0
871.29,157.0
871.35,169.0
871.42,181.0
871.48,171.0
871.54,149.0
871.6,165.0
871.67,147.0
871.73,151.0
871.79,153.0
871.86,158.0
871.92,173.0
871.98,163.0
872.05,176.0
872.11,176.0
872.17,184.0
872.23,184.0
872.3,183.0
872.36,171.0
872.42,170.0
872.49,180.0
872.55,186.0
872.61,208.0
872.68,210.0
872.74,202.0
872.8,211.0
872.86,211.0
872.93,181.0
872.99,202.0
873.05,186.0
873.12,192.0
873.18,175.0
873.24,193.0
873.31,197.0
873.37,186.0
873.43,187.0
873.49,176.0
873.56,186.0
873.62,197.0
873.68,197.0
873.75,197.0
873.81,192.0
873.87,198.0
873.94,193.0
874.0,198.0
874.06,214.0
874.12,204.0
874.19,196.0
874.25,203.0
874.31,218.0
874.38,209.0
874.44,196.0
874.5,198.0
874.57,205.0
874.63,209.0
874.69,213.0
874.75,225.0
874.82,224.0
874.88,217.0
874.94,209.0
875.01,205.0
875.07,198.0
875.13,209.0
875.2,206.0
875.26,223.0
875.32,204.0
875.38,203.0
875.45,210.0
875.51,205.0
875.57,184.0
875.64,200.0
875.7,201.0
875.76,196.0
875.83,191.0
875.89,194.0
875.95,190.0
876.01,187.0
876.08,181.0
876.14,187.0
876.2,187.0
876.27,172.0
876.33,174.0
876.39,172.0
876.46,175.0
876.52,160.0
876.58,146.0
876.64,132.0
876.71,153.0
876.77,157.0
876.83,148.0
876.9,136.0
876.96,128.0
877.02,148.0
877.09,129.0
877.15,139.0
877.21,156.0
877.27,130.0
877.34,125.0
877.4,138.0
877.46,142.0
877.53,131.0
877.59,130.0
877.65,134.0
877.72,154.0
877.78,158.0
877.84,156.0
877.9,155.0
877.97,139.0
878.03,150.0
878.09,140.0
878.16,135.0
878.22,130.0
878.28,122.0
878.35,130.0
878.41,126.0
878.47,119.0
878.53,126.0
878.6,118.0
878.66,121.0
878.72,115.0
878.79,120.0
878.85,131.0
878.91,124.0
878.98,120.0
879.04,104.0
879.1,84.0
879.16,115.0
879.23,114.0
879.29,98.0
879.35,117.0
879.42,97.0
879.48,101.0
879.54,91.0
879.61,100.0
879.67,99.0
879.73,88.0
879.79,100.0
879.86,106.0
879.92,84.0
879.98,93.0
880.05,90.0
880.11,83.0
880.17,103.0
880.24,129.0
880.3,118.0
880.36,121.0
880.42,144.0
880.49,140.0
880.55,120.0
880.61,145.0
880.68,129.0
880.74,143.0
880.8,147.0
880.87,166.0
880.93,145.0
880.99,155.0
881.05,158.0
881.12,169.0
881.18,191.0
881.24,168.0
881.31,184.0
881.37,197.0
881.43,183.0
881.5,164.0
881.56,168.0
881.62,161.0
881.68,165.0
881.75,156.0
881.81,144.0
881.87,132.0
881.94,141.0
882.0,134.0
882.06,121.0
882.13,162.0
882.19,146.0
882.25,144.0
882.31,135.0
882.38,134.0
882.44,142.0
882.5,136.0
882.57,151.0
882.63,156.0
882.69,169.0
882.76,170.0
882.82,179.0
882.88,158.0
882.94,146.0
883.01,154.0
883.07,159.0
883.13,151.0
883.2,151.0
883.26,169.0
883.32,154.0
883.39,158.0
883.45,165.0
883.51,176.0
883.57,169.0
883.64,169.0
883.7,169.0
883.76,168.0
883.83,159.0
883.89,168.0
883.95,162.0
884.02,148.0
884.08,145.0
884.14,143.0
884.2,120.0
884.27,134.0
884.33,109.0
884.39,107.0
884.46,121.0
884.52,135.0
884.58,120.0
884.65,131.0
884.71,117.0
884.77,130.0
884.83,123.0
884.9,114.0
884.96,106.0
885.02,88.0
885.09,93.0
885.15,90.0
885.21,79.0
885.28,80.0
885.34,77.0
885.4,84.0
885.46,69.0
885.53,82.0
885.59,93.0
885.65,88.0
885.72,79.0
885.78,80.0
885.84,98.0
885.91,85.0
885.97,88.0
886.03,74.0
886.09,85.0
886.16,88.0
886.22,70.0
886.28,82.0
886.35,100.0
886.41,92.0
886.47,84.0
886.54,96.0
886.6,103.0
886.66,99.0
886.72,89.0
886.79,94.0
886.85,87.0
886.91,95.0
886.98,75.0
887.04,84.0
887.1,106.0
887.17,92.0
887.23,99.0
887.29,79.0
887.35,84.0
887.42,96.0
887.48,89.0
887.54,88.0
887.61,91.0
887.67,85.0
887.73,89.0
887.8,95.0
887.86,92.0
887.92,87.0
887.98,76.0
888.05,76.0
888.11,72.0
888.17,88.0
888.24,79.0
888.3,74.0
888.36,54.0
888.43,77.0
888.49,64.0
888.55,88.0
888.61,84.0
888.68,95.0
888.74,77.0
888.8,100.0
888.87,103.0
888.93,107.0
888.99,110.0
889.06,98.0
889.12,100.0
889.18,96.0
889.24,103.0
889.31,91.0
889.37,88.0
889.43,107.0
889.5,112.0
889.56,97.0
889.62,104.0
889.69,131.0
889.75,119.0
889.81,105.0
889.87,118.0
889.94,118.0
890.0,123.0
890.06,134.0
890.13,139.0
890.19,147.0
890.25,132.0
890.32,122.0
890.38,131.0
890.44,150.0
890.5,119.0
890.57,121.0
890.63,125.0
890.69,111.0
890.76,108.0
890.82,134.0
890.88,140.0
890.95,139.0
891.01,128.0
891.07,156.0
891.13,134.0
891.2,122.0
891.26,128.0
891.32,128.0
891.39,143.0
891.45,139.0
891.51,126.0
891.58,115.0
891.64,139.0
891.7,114.0
891.76,148.0
891.83,139.0
891.89,121.0
891.95,142.0
892.02,140.0
892.08,138.0
892.14,153.0
892.21,162.0
892.27,143.0
892.33,133.0
892.39,146.0
892.46,132.0
892.52,129.0
892.58,118.0
892.65,123.0
892.71,113.0
892.77,118.0
892.84,117.0
892.9,113.0
892.96,118.0
893.02,116.0
893.09,98.0
893.15,101.0
893.21,87.0
893.28,85.0
893.34,95.0
893.4,68.0
893.47,72.0
893.53,63.0
893.59,67.0
893.65,81.0
893.72,88.0
893.78,73.0
893.84,115.0
893.91,95.0
893.97,76.0
894.03,96.0
894.1,70.0
894.16,65.0
894.22,62.0
894.28,78.0
894.35,65.0
894.41,62.0
894.47,61.0
894.54,63.0
894.6,68.0
894.66,40.0
894.73,53.0
894.79,47.0
894.85,57.0
894.91,57.0
894.98,43.0
895.04,45.0
895.1,57.0
895.17,43.0
895.23,62.0
895.29,63.0
895.36,67.0
895.42,66.0
895.48,66.0
895.54,80.0
895.61,83.0
895.67,62.0
895.73,68.0
895.8,84.0
895.86,85.0
895.92,86.0
895.99,95.0
896.05,98.0
896.11,103.0
896.17,91.0
896.24,90.0
896.3,114.0
896.36,99.0
896.43,83.0
896.49,98.0
896.55,111.0
896.62,92.0
896.68,105.0
896.74,84.0
896.8,82.0
896.87,87.0
896.93,101.0
896.99,110.0
897.06,107.0
897.12,106.0
897.18,111.0
897.25,123.0
897.31,128.0
897.37,128.0
897.43,145.0
897.5,138.0
897.56,124.0
897.62,124.0
897.69,153.0
897.75,140.0
897.81,139.0
897.88,143.0
897.94,132.0
898.0,131.0
898.06,137.0
898.13,125.0
898.19,136.0
898.25,132.0
898.32,148.0
898.38,132.0
898.44,136.0
898.51,131.0
898.57,145.0
898.63,126.0
898.69,114.0
898.76,120.0
898.82,114.0
898.88,126.0
898.95,124.0
899.01,126.0
899.07,104.0
899.14,118.0
899.2,138.0
899.26,142.0
899.32,138.0
899.39,153.0
899.45,123.0
899.51,135.0
899.58,125.0
899.64,124.0
899.7,142.0
899.77,145.0
899.83,121.0
899.89,135.0
899.95,139.0
900.02,123.0
900.08,149.0
900.14,168.0
900.21,163.0
900.27,160.0
900.33,150.0
900.4,156.0
900.46,144.0
900.52,147.0
900.58,142.0
900.65,150.0
900.71,159.0
900.77,169.0
900.84,169.0
900.9,164.0
900.96,176.0
901.03,164.0
901.09,154.0
901.15,161.0
901.21,162.0
901.28,161.0
901.34,148.0
901.4,143.0
901.47,146.0
901.53,140.0
901.59,133.0
901.66,132.0
901.72,125.0
901.78,138.0
901.84,141.0
901.91,126.0
901.97,139.0
902.03,147.0
902.1,139.0
902.16,130.0
902.22,119.0
902.29,134.0
902.35,137.0
902.41,141.0
902.47,150.0
902.54,134.0
902.6,118.0
902.66,139.0
902.73,164.0
902.79,158.0
902.85,131.0
902.92,143.0
902.98,141.0
903.04,165.0
903.1,163.0
903.17,127.0
903.23,145.0
903.29,141.0
903.36,153.0
903.42,142.0
903.48,148.0
903.55,171.0
903.61,157.0
903.67,157.0
903.73,158.0
903.8,163.0
903.86,167.0
903.92,160.0
903.99,142.0
904.05,153.0
904.11,165.0
904.18,163.0
904.24,146.0
904.3,145.0
904.36,121.0
904.43,160.0
904.49,172.0
904.55,151.0
904.62,150.0
904.68,161.0
904.74,159.0
904.81,155.0
904.87,156.0
904.93,169.0
904.99,179.0
905.06,149.0
905.12,156.0
905.18,146.0
905.25,149.0
905.31,147.0
905.37,161.0
905.44,167.0
905.5,169.0
905.56,169.0
905.62,161.0
905.69,150.0
905.75,143.0
905.81,161.0
905.88,139.0
905.94,175.0
906.0,178.0
906.07,168.0
906.13,186.0
906.19,185.0
906.25,207.0
906.32,197.0
906.38,181.0
906.44,195.0
906.51,194.0
906.57,187.0
906.63,184.0
906.7,213.0
906.76,227.0
906.82,223.0
906.88,224.0
906.95,202.0
907.01,225.0
907.07,220.0
907.14,209.0
907.2,214.0
907.26,212.0
907.33,229.0
907.39,216.0
907.45,222.0
907.51,231.0
907.58,228.0
907.64,215.0
907.7,212.0
907.77,219.0
907.83,219.0
907.89,247.0
907.96,232.0
908.02,246.0
908.08,228.0
908.14,226.0
908.21,220.0
908.27,202.0
908.33,212.0
908.4,233.0
908.46,224.0
908.52,229.0
908.59,234.0
908.65,232.0
908.71,212.0
908.77,218.0
908.84,234.0
908.9,233.0
908.96,230.0
909.03,214.0
909.09,224.0
909.15,229.0
909.22,231.0
909.28,234.0
909.34,245.0
909.4,220.0
909.47,219.0
909.53,214.0
909.59,216.0
909.66,225.0
909.72,212.0
909.78,225.0
909.85,230.0
909.91,186.0
909.97,165.0
910.03,171.0
910.1,175.0
910.16,180.0
910.22,168.0
910.29,182.0
910.35,179.0
910.41,167.0
910.48,168.0
910.54,157.0
910.6,153.0
910.66,147.0
910.73,137.0
910.79,131.0
910.85,125.0
910.92,138.0
910.98,126.0
911.04,110.0
911.11,122.0
911.17,106.0
911.23,111.0
911.29,110.0
911.36,113.0
911.42,109.0
911.48,106.0
911.55,111.0
911.61,114.0
911.67,106.0
911.74,125.0
911.8,93.0
911.86,90.0
911.92,101.0
911.99,88.0
912.05,82.0
912.11,106.0
912.18,80.0
912.24,98.0
912.3,109.0
912.37,106.0
912.43,115.0
912.49,112.0
912.55,117.0
912.62,91.0
912.68,72.0
912.74,82.0
912.81,90.0
912.87,104.0
912.93,116.0
913.0,95.0
913.06,102.0
913.12,101.0
913.18,94.0
913.25,116.0
913.31,96.0
913.37,88.0
913.44,111.0
913.5,120.0
913.56,94.0
913.63,84.0
913.69,68.0
913.75,69.0
913.81,84.0
913.88,52.0
913.94,44.0
914.0,65.0
914.07,52.0
914.13,65.0
914.19,64.0
914.26,59.0
914.32,48.0
914.38,64.0
914.44,50.0
914.51,62.0
914.57,49.0
914.63,51.0
914.7,53.0
914.76,62.0
914.82,73.0
914.89,61.0
914.95,57.0
915.01,60.0
915.07,69.0
915.14,57.0
915.2,63.0
915.26,54.0
915.33,63.0
915.39,54.0
915.45,67.0
915.52,70.0
915.58,67.0
915.64,69.0
915.7,66.0
915.77,85.0
915.83,85.0
915.89,71.0
915.96,63.0
916.02,68.0
916.08,54.0
916.15,66.0
916.21,63.0
916.27,64.0
916.33,68.0
916.4,55.0
916.46,84.0
916.52,65.0
916.59,63.0
916.65,66.0
916.71,62.0
916.78,58.0
916.84,54.0
916.9,57.0
916.96,73.0
917.03,73.0
917.09,74.0
917.15,77.0
917.22,92.0
917.28,87.0
917.34,79.0
917.41,71.0
917.47,80.0
917.53,69.0
917.59,68.0
917.66,61.0
917.72,62.0
917.78,73.0
917.85,57.0
917.91,40.0
917.97,68.0
918.04,65.0
918.1,69.0
918.16,69.0
918.22,64.0
918.29,62.0
918.35,42.0
918.41,64.0
918.48,44.0
918.54,34.0
918.6,44.0
918.67,33.0
918.73,47.0
918.79,41.0
918.85,52.0
918.92,49.0
918.98,48.0
919.04,47.0
919.11,66.0
919.17,46.0
919.23,35.0
919.3,53.0
919.36,59.0
919.42,41.0
919.48,40.0
919.55,51.0
919.61,39.0
919.67,40.0
919.74,40.0
919.8,18.0
919.86,57.0
919.93,51.0
919.99,51.0
920.05,41.0
920.11,19.0
920.18,37.0
920.24,26.0
920.3,26.0
920.37,49.0
920.43,44.0
920.49,37.0
920.56,43.0
920.62,29.0
920.68,24.0
920.74,25.0
920.81,25.0
920.87,29.0
920.93,18.0
921.0,49.0
921.06,42.0
921.12,28.0
921.19,51.0
921.25,40.0
921.31,47.0
921.37,30.0
921.44,61.0
921.5,52.0
921.56,63.0
921.63,73.0
921.69,66.0
921.75,70.0
921.82,69.0
921.88,73.0
921.94,87.0
922.0,107.0
922.07,99.0
922.13,79.0
922.19,88.0
922.26,65.0
922.32,79.0
922.38,106.0
922.45,104.0
922.51,103.0
922.57,93.0
922.63,102.0
922.7,117.0
922.76,115.0
922.82,117.0
922.89,126.0
922.95,115.0
923.01,107.0
923.08,136.0
923.14,147.0
923.2,136.0
923.26,154.0
923.33,182.0
923.39,192.0
923.45,202.0
923.52,175.0
923.58,175.0
923.64,187.0
923.71,213.0
923.77,197.0
923.83,190.0
923.89,197.0
923.96,192.0
924.02,198.0
924.08,199.0
924.15,209.0
924.21,201.0
924.27,185.0
924.34,195.0
924.4,211.0
924.46,217.0
924.52,205.0
924.59,219.0
924.65,223.0
924.71,231.0
924.78,217.0
924.84,228.0
924.9,222.0
924.97,217.0
925.03,221.0
925.09,188.0
925.15,222.0
925.22,218.0
925.28,206.0
925.34,224.0
925.41,219.0
925.47,216.0
925.53,219.0
925.6,204.0
925.66,234.0
925.72,216.0
925.78,230.0
925.85,209.0
925.91,207.0
925.97,224.0
926.04,231.0
926.1,219.0
926.16,229.0
926.23,229.0
926.29,220.0
926.35,209.0
926.41,212.0
926.48,218.0
926.54,227.0
926.6,231.0
926.67,220.0
926.73,195.0
926.79,200.0
926.86,215.0
926.92,228.0
926.98,220.0
927.04,216.0
927.11,215.0
927.17,222.0
927.23,210.0
927.3,204.0
927.36,213.0
927.42,198.0
927.49,214.0
927.55,201.0
927.61,203.0
927.67,185.0
927.74,189.0
927.8,198.0
927.86,200.0
927.93,211.0
927.99,190.0
928.05,195.0
928.12,198.0
928.18,188.0
928.24,189.0
928.3,198.0
928.37,190.0
928.43,196.0
928.49,194.0
928.56,201.0
928.62,174.0
928.68,180.0
928.75,175.0
928.81,191.0
928.87,155.0
928.93,162.0
929.0,172.0
929.06,158.0
929.12,150.0
929.19,145.0
929.25,150.0
929.31,153.0
929.38,165.0
929.44,170.0
929.5,166.0
929.56,175.0
929.63,153.0
929.69,171.0
929.75,162.0
929.82,167.0
929.88,163.0
929.94,165.0
930.01,170.0
930.07,161.0
930.13,165.0
930.19,169.0
930.26,168.0
930.32,163.0
930.38,169.0
930.45,163.0
930.51,169.0
930.57,178.0
930.64,178.0
930.7,159.0
930.76,161.0
930.82,183.0
930.89,175.0
930.95,183.0
931.01,184.0
931.08,181.0
931.14,192.0
931.2,163.0
931.27,171.0
931.33,194.0
931.39,197.0
931.45,194.0
931.52,198.0
931.58,192.0
931.64,172.0
931.71,168.0
931.77,174.0
931.83,180.0
931.9,173.0
931.96,173.0
932.02,179.0
932.08,201.0
932.15,192.0
932.21,188.0
932.27,194.0
932.34,207.0
932.4,194.0
932.46,194.0
932.53,206.0
932.59,168.0
932.65,186.0
932.71,187.0
932.78,172.0
932.84,195.0
932.9,183.0
932.97,177.0
933.03,164.0
933.09,171.0
933.16,175.0
933.22,183.0
933.28,183.0
933.34,191.0
933.41,190.0
933.47,189.0
933.53,191.0
933.6,184.0
933.66,177.0
933.72,181.0
933.79,166.0
933.85,172.0
933.91,176.0
933.97,153.0
934.04,167.0
934.1,167.0
934.16,172.0
934.23,175.0
934.29,183.0
934.35,183.0
934.42,188.0
934.48,188.0
934.54,186.0
934.6,187.0
934.67,171.0
934.73,182.0
934.79,187.0
934.86,184.0
934.92,189.0
934.98,187.0
935.05,181.0
935.11,152.0
935.17,169.0
935.23,161.0
935.3,133.0
935.36,162.0
935.42,190.0
935.49,183.0
935.55,154.0
935.61,175.0
935.68,166.0
935.74,154.0
935.8,153.0
935.86,139.0
935.93,144.0
935.99,152.0
936.05,137.0
936.12,121.0
936.18,115.0
936.24,116.0
936.31,114.0
936.37,112.0
936.43,121.0
936.49,103.0
936.56,90.0
936.62,105.0
936.68,98.0
936.75,93.0
936.81,99.0
936.87,112.0
936.94,117.0
937.0,107.0
937.06,107.0
937.12,96.0
937.19,105.0
937.25,76.0
937.31,69.0
937.38,80.0
937.44,68.0
937.5,94.0
937.57,88.0
937.63,84.0
937.69,89.0
937.75,70.0
937.82,79.0
937.88,93.0
937.94,94.0
938.01,105.0
938.07,84.0
938.13,82.0
938.2,94.0
938.26,103.0
938.32,97.0
938.38,99.0
938.45,105.0
938.51,110.0
938.57,116.0
938.64,79.0
938.7,89.0
938.76,103.0
938.83,103.0
938.89,98.0
938.95,92.0
939.01,98.0
939.08,84.0
939.14,83.0
939.2,106.0
939.27,115.0
939.33,110.0
939.39,115.0
939.46,109.0
939.52,116.0
939.58,128.0
939.64,126.0
939.71,94.0
939.77,90.0
939.83,96.0
939.9,100.0
939.96,110.0
940.02,87.0
940.09,101.0
940.15,100.0
940.21,97.0
940.27,77.0
940.34,71.0
940.4,94.0
940.46,74.0
940.53,75.0
940.59,80.0
940.65,84.0
940.72,81.0
940.78,92.0
940.84,91.0
940.9,69.0
940.97,81.0
941.03,96.0
941.09,103.0
941.16,95.0
941.22,102.0
941.28,110.0
941.35,120.0
941.41,120.0
941.47,106.0
941.53,114.0
941.6,104.0
941.66,93.0
941.72,100.0
941.79,114.0
941.85,112.0
941.91,106.0
941.98,131.0
942.04,119.0
942.1,118.0
942.16,124.0
942.23,99.0
942.29,85.0
942.35,89.0
942.42,99.0
942.48,104.0
942.54,85.0
942.61,96.0
942.67,85.0
942.73,87.0
942.79,92.0
942.86,101.0
942.92,95.0
942.98,72.0
943.05,98.0
943.11,101.0
943.17,97.0
943.24,89.0
943.3,89.0
943.36,98.0
943.42,100.0
943.49,92.0
943.55,96.0
943.61,91.0
943.68,105.0
943.74,70.0
943.8,83.0
943.87,89.0
943.93,60.0
943.99,62.0
944.05,71.0
944.12,59.0
944.18,74.0
944.24,51.0
944.31,37.0
944.37,47.0
944.43,58.0
944.5,52.0
944.56,45.0
944.62,52.0
944.68,51.0
944.75,52.0
944.81,55.0
944.87,58.0
944.94,60.0
945.0,46.0
945.06,30.0
945.13,36.0
945.19,46.0
945.25,47.0
945.31,75.0
945.38,53.0
945.44,53.0
945.5,44.0
945.57,53.0
945.63,36.0
945.69,26.0
945.76,62.0
945.82,48.0
945.88,44.0
945.94,36.0
946.01,41.0
946.07,34.0
946.13,36.0
946.2,33.0
946.26,32.0
946.32,48.0
946.39,63.0
946.45,65.0
946.51,69.0
946.57,76.0
946.64,53.0
946.7,80.0
946.76,91.0
946.83,80.0
946.89,66.0
946.95,81.0
947.02,82.0
947.08,81.0
947.14,88.0
947.2,72.0
947.27,95.0
947.33,99.0
947.39,106.0
947.46,107.0
947.52,112.0
947.58,107.0
947.65,108.0
947.71,138.0
947.77,131.0
947.83,124.0
947.9,128.0
947.96,123.0
948.02,110.0
948.09,112.0
948.15,114.0
948.21,118.0
948.28,115.0
948.34,122.0
948.4,129.0
948.46,139.0
948.53,133.0
948.59,120.0
948.65,125.0
948.72,150.0
948.78,131.0
948.84,128.0
948.91,117.0
948.97,117.0
949.03,97.0
949.09,97.0
949.16,96.0
949.22,93.0
949.28,104.0
949.35,97.0
949.41,108.0
949.47,119.0
949.54,102.0
949.6,100.0
949.66,107.0
949.72,109.0
949.79,128.0
949.85,113.0
949.91,107.0
949.98,121.0
950.04,122.0
950.1,125.0
950.17,147.0
950.23,134.0
950.29,146.0
950.35,174.0
950.42,198.0
950.48,148.0
950.54,147.0
950.61,148.0
950.67,164.0
950.73,163.0
950.8,136.0
950.86,131.0
950.92,125.0
950.98,123.0
951.05,129.0
951.11,136.0
951.17,131.0
951.24,128.0
951.3,122.0
951.36,129.0
951.43,112.0
951.49,101.0
951.55,103.0
951.61,93.0
951.68,92.0
951.74,70.0
951.8,87.0
951.87,81.0
951.93,106.0
951.99,96.0
952.06,78.0
952.12,81.0
952.18,76.0
952.24,82.0
952.31,81.0
952.37,73.0
952.43,87.0
952.5,73.0
952.56,73.0
952.62,71.0
952.69,70.0
952.75,72.0
952.81,77.0
952.87,69.0
952.94,87.0
953.0,71.0
953.06,72.0
953.13,85.0
953.19,79.0
953.25,98.0
953.32,90.0
953.38,101.0
953.44,113.0
953.5,124.0
953.57,105.0
953.63,112.0
953.69,115.0
953.76,102.0
953.82,96.0
953.88,81.0
953.95,100.0
954.01,99.0
954.07,99.0
954.13,97.0
954.2,106.0
954.26,106.0
954.32,96.0
954.39,92.0
954.45,99.0
954.51,96.0
954.58,92.0
954.64,96.0
954.7,101.0
954.76,102.0
954.83,120.0
954.89,91.0
954.95,106.0
955.02,121.0
955.08,119.0
955.14,104.0
955.21,94.0
955.27,101.0
955.33,128.0
955.39,134.0
955.46,118.0
955.52,117.0
955.58,126.0
955.65,117.0
955.71,104.0
955.77,106.0
955.84,121.0
955.9,115.0
955.96,118.0
956.02,136.0
956.09,127.0
956.15,127.0
956.21,134.0
956.28,154.0
956.34,151.0
956.4,140.0
956.47,151.0
956.53,147.0
956.59,162.0
956.65,160.0
956.72,157.0
956.78,161.0
956.84,166.0
956.91,183.0
956.97,192.0
957.03,178.0
957.1,183.0
957.16,192.0
957.22,202.0
957.28,178.0
957.35,191.0
957.41,175.0
957.47,161.0
957.54,184.0
957.6,186.0
957.66,199.0
957.73,191.0
957.79,184.0
957.85,181.0
957.91,178.0
957.98,180.0
958.04,203.0
958.1,183.0
958.17,189.0
958.23,185.0
958.29,174.0
958.36,187.0
958.42,187.0
958.48,194.0
958.54,198.0
958.61,197.0
958.67,208.0
958.73,205.0
958.8,232.0
958.86,230.0
958.92,222.0
958.99,238.0
959.05,236.0
959.11,245.0
959.17,242.0
959.24,245.0
959.3,254.0
959.36,235.0
959.43,255.0
959.49,253.0
959.55,249.0
959.62,257.0
959.68,256.0
959.74,239.0
959.8,245.0
959.87,225.0
959.93,223.0
959.99,238.0
960.06,227.0
960.12,258.0
960.18,235.0
960.25,223.0
960.31,199.0
960.37,214.0
960.43,231.0
960.5,217.0
960.56,249.0
960.62,242.0
960.69,223.0
960.75,218.0
960.81,228.0
960.88,237.0
960.94,218.0
961.0,228.0
961.06,237.0
961.13,225.0
961.19,238.0
961.25,220.0
961.32,225.0
961.38,197.0
961.44,200.0
961.51,218.0
961.57,211.0
961.63,220.0
961.69,218.0
961.76,193.0
961.82,187.0
961.88,172.0
961.95,167.0
962.01,167.0
962.07,173.0
962.14,186.0
962.2,167.0
962.26,160.0
962.32,156.0
962.39,150.0
962.45,154.0
962.51,153.0
962.58,136.0
962.64,146.0
962.7,133.0
962.77,133.0
962.83,145.0
962.89,154.0
962.95,151.0
963.02,163.0
963.08,153.0
963.14,133.0
963.21,134.0
963.27,146.0
963.33,159.0
963.4,147.0
963.46,164.0
963.52,161.0
963.58,153.0
963.65,170.0
963.71,156.0
963.77,150.0
963.84,177.0
963.9,199.0
963.96,178.0
964.03,184.0
964.09,182.0
964.15,180.0
964.21,174.0
964.28,178.0
964.34,166.0
964.4,158.0
964.47,165.0
964.53,150.0
964.59,156.0
964.66,159.0
964.72,153.0
964.78,130.0
964.84,132.0
964.91,148.0
964.97,150.0
965.03,123.0
965.1,136.0
965.16,118.0
965.22,131.0
965.29,124.0
965.35,114.0
965.41,106.0
965.47,106.0
965.54,97.0
965.6,109.0
965.66,109.0
965.73,111.0
965.79,113.0
965.85,100.0
965.92,109.0
965.98,115.0
966.04,99.0
966.1,95.0
966.17,88.0
966.23,81.0
966.29,104.0
966.36,80.0
966.42,70.0
966.48,94.0
966.55,93.0
966.61,95.0
966.67,77.0
966.73,75.0
966.8,93.0
966.86,90.0
966.92,72.0
966.99,84.0
967.05,113.0
967.11,99.0
967.18,83.0
967.24,76.0
967.3,91.0
967.36,78.0
967.43,61.0
967.49,79.0
967.55,59.0
967.62,62.0
967.68,55.0
967.74,44.0
967.81,76.0
967.87,75.0
967.93,49.0
967.99,49.0
968.06,57.0
968.12,71.0
968.18,63.0
968.25,55.0
968.31,51.0
968.37,37.0
968.44,22.0
968.5,27.0
968.56,35.0
968.62,55.0
968.69,56.0
968.75,35.0
968.81,49.0
968.88,51.0
968.94,53.0
969.0,65.0
969.07,65.0
969.13,64.0
969.19,49.0
969.25,44.0
969.32,33.0
969.38,24.0
969.44,22.0
969.51,23.0
969.57,11.0
969.63,16.0
969.7,18.0
969.76,11.0
969.82,14.0
969.88,17.0
969.95,0.0
970.01,11.0
970.07,-2.0
970.14,13.0
970.2,13.0
970.26,17.0
970.33,-1.0
970.39,-5.0
970.45,-18.0
970.51,0.0
970.58,-5.0
970.64,-11.0
970.7,-12.0
970.77,-21.0
970.83,-27.0
970.89,-24.0
970.96,-10.0
971.02,-14.0
971.08,8.0
971.14,-1.0
971.21,-3.0
971.27,5.0
971.33,31.0
971.4,5.0
971.46,3.0
971.52,11.0
971.59,9.0
971.65,16.0
971.71,6.0
971.77,-10.0
971.84,-11.0
971.9,17.0
971.96,4.0
972.03,15.0
972.09,31.0
972.15,19.0
972.22,7.0
972.28,15.0
972.34,16.0
972.4,11.0
972.47,20.0
972.53,43.0
972.59,23.0
972.66,39.0
972.72,36.0
972.78,40.0
972.85,54.0
972.91,39.0
972.97,46.0
973.03,63.0
973.1,55.0
973.16,58.0
973.22,87.0
973.29,77.0
973.35,96.0
973.41,81.0
973.48,59.0
973.54,74.0
973.6,67.0
973.66,90.0
973.73,81.0
973.79,80.0
973.85,84.0
973.92,91.0
973.98,98.0
974.04,101.0
974.11,109.0
974.17,127.0
974.23,116.0
974.29,93.0
974.36,111.0
974.42,128.0
974.48,119.0
974.55,111.0
974.61,108.0
974.67,108.0
974.74,127.0
974.8,131.0
974.86,139.0
974.92,141.0
974.99,147.0
975.05,153.0
975.11,161.0
975.18,185.0
975.24,164.0
975.3,157.0
975.37,149.0
975.43,174.0
975.49,195.0
975.55,187.0
975.62,173.0
975.68,187.0
975.74,175.0
975.81,181.0
975.87,194.0
975.93,198.0
976.0,209.0
976.06,187.0
976.12,189.0
976.18,179.0
976.25,187.0
976.31,198.0
976.37,204.0
976.44,209.0
976.5,215.0
976.56,201.0
976.63,198.0
976.69,209.0
976.75,212.0
976.81,192.0
976.88,221.0
976.94,209.0
977.0,207.0
977.07,221.0
977.13,180.0
977.19,190.0
977.26,186.0
977.32,182.0
977.38,179.0
977.44,187.0
977.51,192.0
977.57,185.0
977.63,171.0
977.7,175.0
977.76,184.0
977.82,189.0
977.89,195.0
977.95,186.0
978.01,195.0
978.07,198.0
978.14,195.0
978.2,180.0
978.26,204.0
978.33,197.0
978.39,206.0
978.45,189.0
978.52,206.0
978.58,206.0
978.64,186.0
978.7,191.0
978.77,214.0
978.83,215.0
978.89,220.0
978.96,198.0
979.02,187.0
979.08,208.0
979.15,194.0
979.21,183.0
979.27,177.0
979.33,167.0
979.4,180.0
979.46,178.0
979.52,167.0
979.59,189.0
979.65,215.0
979.71,204.0
979.78,188.0
979.84,184.0
979.9,195.0
979.96,196.0
980.03,215.0
980.09,209.0
980.15,224.0
980.22,220.0
980.28,226.0
980.34,221.0
980.41,232.0
980.47,224.0
980.53,229.0
980.59,232.0
980.66,226.0
980.72,249.0
980.78,228.0
980.85,241.0
980.91,243.0
980.97,239.0
981.04,250.0
981.1,244.0
981.16,242.0
981.22,243.0
981.29,246.0
981.35,264.0
981.41,259.0
981.48,253.0
981.54,254.0
981.6,257.0
981.67,240.0
981.73,238.0
981.79,229.0
981.85,235.0
981.92,243.0
981.98,237.0
982.04,250.0
982.11,237.0
982.17,275.0
982.23,246.0
982.3,249.0
982.36,244.0
982.42,263.0
982.48,247.0
982.55,251.0
982.61,268.0
982.67,270.0
982.74,280.0
982.8,286.0
982.86,275.0
982.93,270.0
982.99,271.0
983.05,267.0
983.11,241.0
983.18,259.0
983.24,259.0
983.3,264.0
983.37,254.0
983.43,242.0
983.49,256.0
983.56,264.0
983.62,260.0
983.68,240.0
983.74,243.0
983.81,258.0
983.87,245.0
983.93,259.0
984.0,267.0
984.06,252.0
984.12,256.0
984.19,262.0
984.25,245.0
984.31,243.0
984.37,246.0
984.44,256.0
984.5,248.0
984.56,217.0
984.63,232.0
984.69,201.0
984.75,215.0
984.82,229.0
984.88,239.0
984.94,228.0
985.0,217.0
985.07,218.0
985.13,196.0
985.19,204.0
985.26,196.0
985.32,220.0
985.38,213.0
985.45,202.0
985.51,214.0
985.57,215.0
985.63,194.0
985.7,207.0
985.76,204.0
985.82,202.0
985.89,194.0
985.95,186.0
986.01,174.0
986.08,190.0
986.14,202.0
986.2,175.0
986.26,180.0
986.33,187.0
986.39,183.0
986.45,181.0
986.52,173.0
986.58,150.0
986.64,161.0
986.71,166.0
986.77,157.0
986.83,161.0
986.89,157.0
986.96,140.0
987.02,148.0
987.08,156.0
987.15,141.0
987.21,131.0
987.27,130.0
987.34,126.0
987.4,115.0
987.46,130.0
987.52,116.0
987.59,118.0
987.65,127.0
987.71,113.0
987.78,103.0
987.84,95.0
987.9,75.0
987.97,83.0
988.03,88.0
988.09,85.0
988.15,84.0
988.22,86.0
988.28,92.0
988.34,67.0
988.41,69.0
988.47,100.0
988.53,92.0
988.6,77.0
988.66,76.0
988.72,83.0
988.78,89.0
988.85,80.0
988.91,66.0
988.97,81.0
989.04,64.0
989.1,59.0
989.16,56.0
989.23,56.0
989.29,82.0
989.35,75.0
989.41,73.0
989.48,94.0
989.54,82.0
989.6,84.0
989.67,95.0
989.73,92.0
989.79,91.0
989.86,84.0
989.92,72.0
989.98,109.0
990.04,114.0
990.11,112.0
990.17,108.0
990.23,114.0
990.3,116.0
990.36,110.0
990.42,118.0
990.49,119.0
990.55,105.0
990.61,91.0
990.67,104.0
990.74,90.0
990.8,114.0
990.86,125.0
990.93,117.0
990.99,118.0
991.05,110.0
991.12,128.0
991.18,121.0
991.24,113.0
991.3,110.0
991.37,131.0
991.43,114.0
991.49,94.0
991.56,107.0
991.62,90.0
991.68,94.0
991.75,108.0
991.81,111.0
991.87,105.0
991.93,96.0
992.0,98.0
992.06,103.0
992.12,111.0
992.19,107.0
992.25,95.0
992.31,94.0
992.38,104.0
992.44,109.0
992.5,108.0
992.56,118.0
992.63,85.0
992.69,84.0
992.75,91.0
992.82,90.0
992.88,65.0
992.94,78.0
993.01,104.0
993.07,88.0
993.13,73.0
993.19,75.0
993.26,78.0
993.32,98.0
993.38,105.0
993.45,95.0
993.51,99.0
993.57,111.0
993.64,91.0
993.7,81.0
993.76,73.0
993.82,68.0
993.89,78.0
993.95,81.0
994.01,88.0
994.08,73.0
994.14,62.0
994.2,77.0
994.27,78.0
994.33,58.0
994.39,44.0
994.45,40.0
994.52,51.0
994.58,44.0
994.64,27.0
994.71,48.0
994.77,42.0
994.83,20.0
994.9,22.0
994.96,26.0
995.02,34.0
995.08,58.0
995.15,47.0
995.21,48.0
995.27,56.0
995.34,42.0
995.4,43.0
995.46,36.0
995.53,44.0
995.59,55.0
995.65,29.0
995.71,47.0
995.78,53.0
995.84,49.0
995.9,39.0
995.97,38.0
996.03,17.0
996.09,31.0
996.16,40.0
996.22,47.0
996.28,38.0
996.34,40.0
996.41,52.0
996.47,22.0
996.53,53.0
996.6,30.0
996.66,31.0
996.72,33.0
996.79,36.0
996.85,42.0
996.91,39.0
996.97,54.0
997.04,49.0
997.1,48.0
997.16,39.0
997.23,47.0
997.29,48.0
997.35,67.0
997.42,72.0
997.48,83.0
997.54,83.0
997.6,102.0
997.67,81.0
997.73,72.0
997.79,82.0
997.86,92.0
997.92,105.0
997.98,123.0
998.05,112.0
998.11,107.0
998.17,116.0
998.23,92.0
998.3,94.0
998.36,118.0
998.42,119.0
998.49,111.0
998.55,103.0
998.61,106.0
998.68,98.0
998.74,111.0
998.8,94.0
998.86,116.0
998.93,107.0
998.99,103.0
999.05,103.0
999.12,119.0
999.18,124.0
999.24,112.0
999.31,106.0
999.37,113.0
999.43,125.0
999.49,107.0
999.56,99.0
999.62,111.0
999.68,104.0
999.75,105.0
999.81,95.0
999.87,103.0
