timestamp,intensity
0,-319.0
0.06,-299.0
0.13,-309.0
0.19,-319.0
0.25,-319.0
0.32,-317.0
0.38,-299.0
0.44,-315.0
0.5,-305.0
0.57,-310.0
0.63,-302.0
0.69,-300.0
0.76,-310.0
0.82,-299.0
0.88,-289.0
0.94,-308.0
1.01,-308.0
1.07,-308.0
1.13,-321.0
1.2,-316.0
1.26,-304.0
1.32,-315.0
1.39,-305.0
1.45,-312.0
1.51,-313.0
1.57,-322.0
1.64,-302.0
1.7,-303.0
1.76,-314.0
1.83,-313.0
1.89,-321.0
1.95,-297.0
2.02,-308.0
2.08,-310.0
2.14,-305.0
2.2,-302.0
2.27,-292.0
2.33,-298.0
2.39,-290.0
2.46,-288.0
2.52,-279.0
2.58,-290.0
2.65,-289.0
2.71,-283.0
2.77,-272.0
2.84,-276.0
2.9,-263.0
2.96,-260.0
3.02,-234.0
3.09,-257.0
3.15,-261.0
3.21,-269.0
3.28,-266.0
3.34,-257.0
3.4,-249.0
3.47,-242.0
3.53,-222.0
3.59,-240.0
3.65,-232.0
3.72,-220.0
3.78,-223.0
3.84,-191.0
3.91,-192.0
3.97,-193.0
4.03,-179.0
4.1,-178.0
4.16,-180.0
4.22,-186.0
4.28,-182.0
4.35,-178.0
4.41,-191.0
4.47,-202.0
4.54,-199.0
4.6,-197.0
4.66,-187.0
4.73,-197.0
4.79,-192.0
4.85,-199.0
4.91,-199.0
4.98,-186.0
5.04,-188.0
5.1,-190.0
5.17,-191.0
5.23,-190.0
5.29,-192.0
5.35,-178.0
5.42,-165.0
5.48,-179.0
5.54,-155.0
5.61,-177.0
5.67,-175.0
5.73,-172.0
5.8,-167.0
5.86,-154.0
5.92,-162.0
5.98,-173.0
6.05,-162.0
6.11,-168.0
6.17,-190.0
6.24,-166.0
6.3,-175.0
6.36,-148.0
6.43,-177.0
6.49,-182.0
6.55,-169.0
6.61,-170.0
6.68,-152.0
6.74,-148.0
6.8,-153.0
6.87,-158.0
6.93,-118.0
6.99,-118.0
7.06,-119.0
7.12,-99.0
7.18,-109.0
7.24,-116.0
7.31,-111.0
7.37,-104.0
7.43,-116.0
7.5,-120.0
7.56,-119.0
7.62,-117.0
7.69,-98.0
7.75,-107.0
7.81,-121.0
7.87,-100.0
7.94,-99.0
8.0,-135.0
8.06,-139.0
8.13,-118.0
8.19,-128.0
8.25,-136.0
8.32,-128.0
8.38,-114.0
8.44,-117.0
8.5,-107.0
8.57,-121.0
8.63,-128.0
8.69,-124.0
8.76,-133.0
8.82,-137.0
8.88,-125.0
8.95,-131.0
9.01,-114.0
9.07,-130.0
9.13,-131.0
9.2,-134.0
9.26,-142.0
9.32,-123.0
9.39,-140.0
9.45,-133.0
9.51,-151.0
9.58,-132.0
9.64,-121.0
9.7,-143.0
9.77,-154.0
9.83,-156.0
9.89,-161.0
9.95,-149.0
10.02,-142.0
10.08,-151.0
10.14,-156.0
10.21,-182.0
10.27,-194.0
10.33,-169.0
10.4,-194.0
10.46,-202.0
10.52,-200.0
10.58,-211.0
10.65,-208.0
10.71,-212.0
10.77,-206.0
10.84,-196.0
10.9,-200.0
10.96,-210.0
11.03,-217.0
11.09,-221.0
11.15,-216.0
11.21,-211.0
11.28,-208.0
11.34,-213.0
11.4,-219.0
11.47,-201.0
11.53,-225.0
11.59,-225.0
11.66,-227.0
11.72,-242.0
11.78,-242.0
11.84,-256.0
11.91,-246.0
11.97,-251.0
12.03,-253.0
12.1,-251.0
12.16,-262.0
12.22,-256.0
12.29,-244.0
12.35,-242.0
12.41,-264.0
12.47,-262.0
12.54,-252.0
12.6,-253.0
12.66,-242.0
12.73,-238.0
12.79,-232.0
12.85,-224.0
12.92,-230.0
12.98,-245.0
13.04,-246.0
13.1,-245.0
13.17,-252.0
13.23,-263.0
13.29,-247.0
13.36,-223.0
13.42,-229.0
13.48,-242.0
13.55,-233.0
13.61,-245.0
13.67,-233.0
13.73,-265.0
13.8,-267.0
13.86,-268.0
13.92,-261.0
13.99,-256.0
14.05,-232.0
14.11,-223.0
14.18,-216.0
14.24,-236.0
14.3,-231.0
14.36,-233.0
14.43,-232.0
14.49,-216.0
14.55,-222.0
14.62,-229.0
14.68,-243.0
14.74,-246.0
14.81,-243.0
14.87,-237.0
14.93,-247.0
14.99,-227.0
15.06,-217.0
15.12,-238.0
15.18,-246.0
15.25,-243.0
15.31,-234.0
15.37,-229.0
15.44,-227.0
15.5,-220.0
15.56,-217.0
15.62,-226.0
15.69,-230.0
15.75,-226.0
15.81,-239.0
15.88,-255.0
15.94,-274.0
16.0,-251.0
16.07,-255.0
16.13,-257.0
16.19,-250.0
16.25,-253.0
16.32,-246.0
16.38,-236.0
16.44,-256.0
16.51,-252.0
16.57,-252.0
16.63,-255.0
16.7,-246.0
16.76,-256.0
16.82,-258.0
16.88,-249.0
16.95,-243.0
17.01,-236.0
17.07,-234.0
17.14,-259.0
17.2,-261.0
17.26,-259.0
17.33,-253.0
17.39,-246.0
17.45,-249.0
17.51,-259.0
17.58,-282.0
17.64,-268.0
17.7,-272.0
17.77,-255.0
17.83,-238.0
17.89,-239.0
17.96,-240.0
18.02,-257.0
18.08,-258.0
18.14,-248.0
18.21,-249.0
18.27,-246.0
18.33,-256.0
18.4,-250.0
18.46,-256.0
18.52,-270.0
18.59,-248.0
18.65,-235.0
18.71,-255.0
18.77,-252.0
18.84,-249.0
18.9,-239.0
18.96,-239.0
19.03,-228.0
19.09,-243.0
19.15,-239.0
19.22,-234.0
19.28,-250.0
19.34,-259.0
19.4,-252.0
19.47,-258.0
19.53,-254.0
19.59,-247.0
19.66,-227.0
19.72,-228.0
19.78,-246.0
19.84,-225.0
19.91,-215.0
19.97,-230.0
20.03,-231.0
20.1,-220.0
20.16,-255.0
20.22,-217.0
20.29,-226.0
20.35,-246.0
20.41,-224.0
20.47,-235.0
20.54,-222.0
20.6,-237.0
20.66,-208.0
20.73,-208.0
20.79,-225.0
20.85,-202.0
20.92,-213.0
20.98,-203.0
21.04,-198.0
21.1,-186.0
21.17,-191.0
21.23,-184.0
21.29,-176.0
21.36,-172.0
21.42,-172.0
21.48,-166.0
21.55,-180.0
21.61,-169.0
21.67,-149.0
21.73,-156.0
21.8,-155.0
21.86,-153.0
21.92,-141.0
21.99,-157.0
22.05,-173.0
22.11,-165.0
22.18,-152.0
22.24,-144.0
22.3,-143.0
22.36,-164.0
22.43,-153.0
22.49,-150.0
22.55,-158.0
22.62,-140.0
22.68,-163.0
22.74,-168.0
22.81,-154.0
22.87,-156.0
22.93,-134.0
22.99,-133.0
23.06,-160.0
23.12,-173.0
23.18,-162.0
23.25,-134.0
23.31,-156.0
23.37,-150.0
23.44,-127.0
23.5,-139.0
23.56,-120.0
23.62,-122.0
23.69,-129.0
23.75,-145.0
23.81,-132.0
23.88,-131.0
23.94,-130.0
24.0,-116.0
24.07,-112.0
24.13,-130.0
24.19,-142.0
24.25,-127.0
24.32,-137.0
24.38,-135.0
24.44,-145.0
24.51,-155.0
24.57,-154.0
24.63,-166.0
24.7,-164.0
24.76,-149.0
24.82,-140.0
24.88,-146.0
24.95,-139.0
25.01,-156.0
25.07,-163.0
25.14,-169.0
25.2,-169.0
25.26,-153.0
25.33,-163.0
25.39,-170.0
25.45,-168.0
25.51,-174.0
25.58,-161.0
25.64,-158.0
25.7,-170.0
25.77,-189.0
25.83,-161.0
25.89,-159.0
25.96,-166.0
26.02,-168.0
26.08,-172.0
26.14,-155.0
26.21,-142.0
26.27,-132.0
26.33,-152.0
26.4,-145.0
26.46,-157.0
26.52,-176.0
26.59,-155.0
26.65,-169.0
26.71,-192.0
26.77,-166.0
26.84,-168.0
26.9,-164.0
26.96,-180.0
27.03,-162.0
27.09,-167.0
27.15,-180.0
27.22,-169.0
27.28,-187.0
27.34,-191.0
27.4,-179.0
27.47,-202.0
27.53,-201.0
27.59,-195.0
27.66,-202.0
27.72,-202.0
27.78,-191.0
27.85,-211.0
27.91,-195.0
27.97,-194.0
28.03,-214.0
28.1,-188.0
28.16,-184.0
28.22,-172.0
28.29,-206.0
28.35,-173.0
28.41,-176.0
28.48,-183.0
28.54,-185.0
28.6,-191.0
28.66,-173.0
28.73,-177.0
28.79,-165.0
28.85,-170.0
28.92,-156.0
28.98,-175.0
29.04,-154.0
29.11,-171.0
29.17,-191.0
29.23,-182.0
29.29,-171.0
29.36,-164.0
29.42,-157.0
29.48,-179.0
29.55,-162.0
29.61,-158.0
29.67,-157.0
29.74,-143.0
29.8,-166.0
29.86,-151.0
29.92,-155.0
29.99,-174.0
30.05,-158.0
30.11,-158.0
30.18,-163.0
30.24,-145.0
30.3,-141.0
30.37,-148.0
30.43,-135.0
30.49,-139.0
30.55,-144.0
30.62,-111.0
30.68,-136.0
30.74,-135.0
30.81,-130.0
30.87,-143.0
30.93,-130.0
31.0,-126.0
31.06,-116.0
31.12,-99.0
31.18,-110.0
31.25,-115.0
31.31,-111.0
31.37,-123.0
31.44,-112.0
31.5,-112.0
31.56,-115.0
31.63,-112.0
31.69,-114.0
31.75,-114.0
31.81,-123.0
31.88,-133.0
31.94,-126.0
32.0,-129.0
32.07,-123.0
32.13,-126.0
32.19,-117.0
32.26,-124.0
32.32,-126.0
32.38,-137.0
32.44,-148.0
32.51,-141.0
32.57,-140.0
32.63,-149.0
32.7,-141.0
32.76,-152.0
32.82,-161.0
32.89,-169.0
32.95,-157.0
33.01,-154.0
33.07,-178.0
33.14,-178.0
33.2,-177.0
33.26,-176.0
33.33,-162.0
33.39,-151.0
33.45,-160.0
33.52,-167.0
33.58,-169.0
33.64,-164.0
33.7,-177.0
33.77,-172.0
33.83,-173.0
33.89,-184.0
33.96,-158.0
34.02,-165.0
34.08,-178.0
34.15,-175.0
34.21,-165.0
34.27,-166.0
34.33,-154.0
34.4,-136.0
34.46,-142.0
34.52,-142.0
34.59,-118.0
34.65,-117.0
34.71,-133.0
34.78,-141.0
34.84,-155.0
34.9,-142.0
34.96,-157.0
35.03,-154.0
35.09,-151.0
35.15,-161.0
35.22,-156.0
35.28,-162.0
35.34,-142.0
35.41,-137.0
35.47,-134.0
35.53,-142.0
35.59,-148.0
35.66,-148.0
35.72,-137.0
35.78,-126.0
35.85,-143.0
35.91,-145.0
35.97,-151.0
36.04,-136.0
36.1,-124.0
36.16,-109.0
36.22,-144.0
36.29,-149.0
36.35,-153.0
36.41,-159.0
36.48,-151.0
36.54,-156.0
36.6,-149.0
36.67,-110.0
36.73,-143.0
36.79,-127.0
36.85,-132.0
36.92,-129.0
36.98,-132.0
37.04,-141.0
37.11,-143.0
37.17,-129.0
37.23,-109.0
37.3,-115.0
37.36,-117.0
37.42,-100.0
37.48,-93.0
37.55,-89.0
37.61,-84.0
37.67,-78.0
37.74,-74.0
37.8,-88.0
37.86,-80.0
37.93,-83.0
37.99,-88.0
38.05,-87.0
38.12,-99.0
38.18,-98.0
38.24,-112.0
38.3,-98.0
38.37,-119.0
38.43,-107.0
38.49,-96.0
38.56,-94.0
38.62,-108.0
38.68,-102.0
38.75,-75.0
38.81,-76.0
38.87,-86.0
38.93,-90.0
39.0,-77.0
39.06,-73.0
39.12,-103.0
39.19,-71.0
39.25,-79.0
39.31,-89.0
39.38,-87.0
39.44,-95.0
39.5,-66.0
39.56,-65.0
39.63,-74.0
39.69,-74.0
39.75,-80.0
39.82,-81.0
39.88,-68.0
39.94,-78.0
40.01,-83.0
40.07,-71.0
40.13,-60.0
40.19,-49.0
40.26,-58.0
40.32,-52.0
40.38,-51.0
40.45,-61.0
40.51,-83.0
40.57,-82.0
40.64,-96.0
40.7,-97.0
40.76,-87.0
40.82,-84.0
40.89,-67.0
40.95,-60.0
41.01,-60.0
41.08,-68.0
41.14,-66.0
41.2,-84.0
41.27,-75.0
41.33,-62.0
41.39,-63.0
41.45,-89.0
41.52,-66.0
41.58,-56.0
41.64,-42.0
41.71,-39.0
41.77,-53.0
41.83,-64.0
41.9,-67.0
41.96,-61.0
42.02,-61.0
42.08,-76.0
42.15,-78.0
42.21,-74.0
42.27,-88.0
42.34,-82.0
42.4,-84.0
42.46,-85.0
42.53,-82.0
42.59,-70.0
42.65,-83.0
42.71,-99.0
42.78,-90.0
42.84,-69.0
42.9,-98.0
42.97,-92.0
43.03,-104.0
43.09,-108.0
43.16,-106.0
43.22,-100.0
43.28,-92.0
43.34,-107.0
43.41,-107.0
43.47,-108.0
43.53,-104.0
43.6,-104.0
43.66,-132.0
43.72,-131.0
43.79,-119.0
43.85,-131.0
43.91,-144.0
43.97,-128.0
44.04,-114.0
44.1,-122.0
44.16,-139.0
44.23,-159.0
44.29,-170.0
44.35,-165.0
44.42,-169.0
44.48,-174.0
44.54,-187.0
44.6,-185.0
44.67,-196.0
44.73,-165.0
44.79,-187.0
44.86,-175.0
44.92,-175.0
44.98,-189.0
45.05,-173.0
45.11,-176.0
45.17,-152.0
45.23,-178.0
45.3,-175.0
45.36,-169.0
45.42,-171.0
45.49,-170.0
45.55,-161.0
45.61,-146.0
45.68,-157.0
45.74,-165.0
45.8,-164.0
45.86,-158.0
45.93,-142.0
45.99,-149.0
46.05,-158.0
46.12,-133.0
46.18,-145.0
46.24,-133.0
46.31,-143.0
46.37,-130.0
46.43,-119.0
46.49,-117.0
46.56,-114.0
46.62,-124.0
46.68,-128.0
46.75,-125.0
46.81,-118.0
46.87,-135.0
46.94,-129.0
47.0,-112.0
47.06,-109.0
47.12,-115.0
47.19,-119.0
47.25,-118.0
47.31,-131.0
47.38,-118.0
47.44,-118.0
47.5,-136.0
47.57,-127.0
47.63,-121.0
47.69,-116.0
47.75,-115.0
47.82,-123.0
47.88,-94.0
47.94,-112.0
48.01,-116.0
48.07,-124.0
48.13,-99.0
48.2,-122.0
48.26,-124.0
48.32,-102.0
48.38,-91.0
48.45,-99.0
48.51,-105.0
48.57,-107.0
48.64,-97.0
48.7,-76.0
48.76,-81.0
48.83,-74.0
48.89,-78.0
48.95,-66.0
49.01,-77.0
49.08,-69.0
49.14,-74.0
49.2,-84.0
49.27,-78.0
49.33,-97.0
49.39,-95.0
49.46,-101.0
49.52,-94.0
49.58,-97.0
49.64,-90.0
49.71,-87.0
49.77,-89.0
49.83,-80.0
49.9,-81.0
49.96,-89.0
50.02,-95.0
50.09,-83.0
50.15,-87.0
50.21,-100.0
50.27,-104.0
50.34,-95.0
50.4,-74.0
50.46,-70.0
50.53,-59.0
50.59,-91.0
50.65,-104.0
50.72,-111.0
50.78,-88.0
50.84,-110.0
50.9,-99.0
50.97,-100.0
51.03,-92.0
51.09,-82.0
51.16,-91.0
51.22,-96.0
51.28,-114.0
51.35,-99.0
51.41,-95.0
51.47,-99.0
51.53,-115.0
51.6,-124.0
51.66,-95.0
51.72,-113.0
51.79,-106.0
51.85,-123.0
51.91,-112.0
51.98,-129.0
52.04,-126.0
52.1,-129.0
52.16,-138.0
52.23,-102.0
52.29,-92.0
52.35,-98.0
52.42,-113.0
52.48,-86.0
52.54,-81.0
52.61,-102.0
52.67,-79.0
52.73,-70.0
52.79,-68.0
52.86,-63.0
52.92,-74.0
52.98,-77.0
53.05,-74.0
53.11,-74.0
53.17,-84.0
53.24,-81.0
53.3,-88.0
53.36,-63.0
53.42,-59.0
53.49,-66.0
53.55,-60.0
53.61,-62.0
53.68,-61.0
53.74,-45.0
53.8,-57.0
53.87,-45.0
53.93,-52.0
53.99,-79.0
54.05,-69.0
54.12,-40.0
54.18,-65.0
54.24,-43.0
54.31,-22.0
54.37,-33.0
54.43,-58.0
54.5,-65.0
54.56,-59.0
54.62,-49.0
54.68,-58.0
54.75,-46.0
54.81,-20.0
54.87,-28.0
54.94,-28.0
55.0,-34.0
55.06,-15.0
55.13,-33.0
55.19,-32.0
55.25,-25.0
55.31,-26.0
55.38,-20.0
55.44,-18.0
55.5,-16.0
55.57,-19.0
55.63,4.0
55.69,-4.0
55.76,-4.0
55.82,13.0
55.88,-14.0
55.94,-15.0
56.01,7.0
56.07,-11.0
56.13,12.0
56.2,4.0
56.26,-10.0
56.32,-14.0
56.39,-2.0
56.45,-7.0
56.51,2.0
56.57,26.0
56.64,9.0
56.7,-7.0
56.76,-9.0
56.83,-2.0
56.89,8.0
56.95,-4.0
57.02,-6.0
57.08,17.0
57.14,22.0
57.2,-8.0
57.27,10.0
57.33,19.0
57.39,23.0
57.46,31.0
57.52,45.0
57.58,48.0
57.65,57.0
57.71,38.0
57.77,26.0
57.83,30.0
57.9,47.0
57.96,61.0
58.02,62.0
58.09,77.0
58.15,57.0
58.21,52.0
58.28,45.0
58.34,48.0
58.4,46.0
58.46,30.0
58.53,43.0
58.59,45.0
58.65,53.0
58.72,52.0
58.78,31.0
58.84,43.0
58.91,50.0
58.97,28.0
59.03,39.0
59.09,27.0
59.16,31.0
59.22,36.0
59.28,46.0
59.35,48.0
59.41,33.0
59.47,32.0
59.54,28.0
59.6,27.0
59.66,25.0
59.72,34.0
59.79,33.0
59.85,35.0
59.91,50.0
59.98,47.0
60.04,16.0
60.1,23.0
60.17,33.0
60.23,25.0
60.29,8.0
60.35,1.0
60.42,6.0
60.48,-9.0
60.54,-11.0
60.61,-28.0
60.67,-19.0
60.73,-16.0
60.8,-29.0
60.86,-15.0
60.92,-12.0
60.98,-20.0
61.05,-22.0
61.11,-42.0
61.17,-19.0
61.24,-28.0
61.3,-32.0
61.36,-27.0
61.43,-20.0
61.49,-23.0
61.55,2.0
61.61,-15.0
61.68,-30.0
61.74,-13.0
61.8,-13.0
61.87,-33.0
61.93,-34.0
61.99,-10.0
62.06,-8.0
62.12,-4.0
62.18,6.0
62.24,-2.0
62.31,-20.0
62.37,-13.0
62.43,-15.0
62.5,-32.0
62.56,-24.0
62.62,-16.0
62.69,-11.0
62.75,-24.0
62.81,-30.0
62.87,-21.0
62.94,-22.0
63.0,-12.0
63.06,-35.0
63.13,-23.0
63.19,-22.0
63.25,-13.0
63.32,-1.0
63.38,-14.0
63.44,-12.0
63.5,-46.0
63.57,-20.0
63.63,-17.0
63.69,-23.0
63.76,-33.0
63.82,-26.0
63.88,-17.0
63.95,-33.0
64.01,-25.0
64.07,-26.0
64.13,-29.0
64.2,-35.0
64.26,-15.0
64.32,-10.0
64.39,-10.0
64.45,9.0
64.51,4.0
64.58,-23.0
64.64,-16.0
64.7,-12.0
64.76,-11.0
64.83,-7.0
64.89,-2.0
64.95,9.0
65.02,34.0
65.08,20.0
65.14,-6.0
65.21,9.0
65.27,-7.0
65.33,11.0
65.39,9.0
65.46,-3.0
65.52,-5.0
65.58,-20.0
65.65,-4.0
65.71,-1.0
65.77,-16.0
65.84,8.0
65.9,25.0
65.96,17.0
66.02,10.0
66.09,10.0
66.15,14.0
66.21,12.0
66.28,11.0
66.34,5.0
66.4,0.0
66.47,0.0
66.53,1.0
66.59,-4.0
66.65,5.0
66.72,-10.0
66.78,-22.0
66.84,-15.0
66.91,-17.0
66.97,-16.0
67.03,-29.0
67.1,-24.0
67.16,-26.0
67.22,-37.0
67.28,-47.0
67.35,-42.0
67.41,-34.0
67.47,-35.0
67.54,-49.0
67.6,-54.0
67.66,-47.0
67.73,-32.0
67.79,-31.0
67.85,-26.0
67.91,-39.0
67.98,-43.0
68.04,-25.0
68.1,-45.0
68.17,-43.0
68.23,-23.0
68.29,-40.0
68.36,-35.0
68.42,-47.0
68.48,-57.0
68.54,-48.0
68.61,-60.0
68.67,-52.0
68.73,-57.0
68.8,-55.0
68.86,-49.0
68.92,-53.0
68.99,-52.0
69.05,-54.0
69.11,-52.0
69.17,-50.0
69.24,-75.0
69.3,-69.0
69.36,-54.0
69.43,-78.0
69.49,-78.0
69.55,-80.0
69.62,-88.0
69.68,-91.0
69.74,-68.0
69.8,-70.0
69.87,-84.0
69.93,-65.0
69.99,-75.0
70.06,-87.0
70.12,-61.0
70.18,-69.0
70.25,-55.0
70.31,-61.0
70.37,-50.0
70.43,-42.0
70.5,-29.0
70.56,-38.0
70.62,-33.0
70.69,-24.0
70.75,-25.0
70.81,-4.0
70.88,-22.0
70.94,-33.0
71.0,-10.0
71.06,-32.0
71.13,-34.0
71.19,-28.0
71.25,-6.0
71.32,-24.0
71.38,-29.0
71.44,-31.0
71.51,2.0
71.57,-11.0
71.63,-26.0
71.69,-16.0
71.76,-19.0
71.82,-7.0
71.88,-10.0
71.95,6.0
72.01,-3.0
72.07,1.0
72.14,-2.0
72.2,-5.0
72.26,-16.0
72.32,24.0
72.39,18.0
72.45,10.0
72.51,-1.0
72.58,14.0
72.64,29.0
72.7,19.0
72.77,18.0
72.83,29.0
72.89,29.0
72.95,15.0
73.02,24.0
73.08,54.0
73.14,47.0
73.21,47.0
73.27,52.0
73.33,41.0
73.4,44.0
73.46,41.0
73.52,32.0
73.58,37.0
73.65,45.0
73.71,62.0
73.77,69.0
73.84,33.0
73.9,28.0
73.96,59.0
74.03,29.0
74.09,27.0
74.15,27.0
74.21,37.0
74.28,68.0
74.34,51.0
74.4,57.0
74.47,44.0
74.53,19.0
74.59,25.0
74.66,30.0
74.72,35.0
74.78,27.0
74.84,35.0
74.91,40.0
74.97,27.0
75.03,29.0
75.1,44.0
75.16,49.0
75.22,35.0
75.29,14.0
75.35,10.0
75.41,11.0
75.47,24.0
75.54,2.0
75.6,7.0
75.66,29.0
75.73,37.0
75.79,11.0
75.85,26.0
75.92,37.0
75.98,60.0
76.04,62.0
76.1,37.0
76.17,47.0
76.23,44.0
76.29,44.0
76.36,39.0
76.42,53.0
76.48,47.0
76.55,45.0
76.61,41.0
76.67,55.0
76.73,48.0
76.8,50.0
76.86,56.0
76.92,33.0
76.99,18.0
77.05,30.0
77.11,40.0
77.18,22.0
77.24,33.0
77.3,34.0
77.36,28.0
77.43,18.0
77.49,12.0
77.55,-9.0
77.62,-6.0
77.68,-18.0
77.74,-13.0
77.81,-24.0
77.87,-11.0
77.93,-21.0
77.99,-45.0
78.06,-39.0
78.12,-37.0
78.18,-51.0
78.25,-56.0
78.31,-36.0
78.37,-50.0
78.44,-28.0
78.5,-38.0
78.56,-42.0
78.62,-32.0
78.69,-45.0
78.75,-46.0
78.81,-31.0
78.88,-30.0
78.94,-28.0
79.0,-41.0
79.07,-30.0
79.13,-28.0
79.19,-23.0
79.25,-18.0
79.32,-20.0
79.38,-2.0
79.44,-1.0
79.51,-24.0
79.57,-28.0
79.63,-26.0
79.7,-16.0
79.76,-21.0
79.82,-2.0
79.88,-8.0
79.95,-35.0
80.01,-51.0
80.07,-55.0
80.14,-49.0
80.2,-47.0
80.26,-39.0
80.33,-26.0
80.39,-38.0
80.45,-41.0
80.51,-46.0
80.58,-29.0
80.64,-32.0
80.7,-27.0
80.77,-37.0
80.83,-6.0
80.89,-25.0
80.96,-22.0
81.02,-10.0
81.08,-22.0
81.14,-20.0
81.21,-14.0
81.27,11.0
81.33,0.0
81.4,6.0
81.46,-13.0
81.52,-13.0
81.59,5.0
81.65,9.0
81.71,-13.0
81.77,7.0
81.84,11.0
81.9,-9.0
81.96,-15.0
82.03,-20.0
82.09,-8.0
82.15,11.0
82.22,-10.0
82.28,-17.0
82.34,3.0
82.4,-5.0
82.47,-13.0
82.53,-6.0
82.59,10.0
82.66,-38.0
82.72,-26.0
82.78,-5.0
82.85,-21.0
82.91,-16.0
82.97,-27.0
83.03,-17.0
83.1,-10.0
83.16,-30.0
83.22,-24.0
83.29,-26.0
83.35,-27.0
83.41,-11.0
83.48,-4.0
83.54,-20.0
83.6,-17.0
83.66,-25.0
83.73,-20.0
83.79,-17.0
83.85,-13.0
83.92,-20.0
83.98,-28.0
84.04,-45.0
84.11,-49.0
84.17,-42.0
84.23,-49.0
84.29,-38.0
84.36,-24.0
84.42,-17.0
84.48,11.0
84.55,-26.0
84.61,-17.0
84.67,-35.0
84.74,3.0
84.8,-6.0
84.86,-8.0
84.92,-12.0
84.99,-12.0
85.05,-4.0
85.11,-6.0
85.18,-38.0
85.24,-33.0
85.3,-15.0
85.37,-17.0
85.43,-27.0
85.49,-30.0
85.55,-17.0
85.62,-19.0
85.68,-12.0
85.74,-7.0
85.81,-32.0
85.87,-23.0
85.93,-7.0
86.0,-14.0
86.06,-17.0
86.12,-14.0
86.18,-7.0
86.25,-15.0
86.31,-18.0
86.37,-30.0
86.44,-23.0
86.5,-32.0
86.56,-28.0
86.63,-18.0
86.69,-41.0
86.75,-13.0
86.81,-21.0
86.88,-17.0
86.94,-17.0
87.0,-8.0
87.07,1.0
87.13,13.0
87.19,-11.0
87.26,-6.0
87.32,0.0
87.38,2.0
87.44,6.0
87.51,12.0
87.57,7.0
87.63,10.0
87.7,15.0
87.76,13.0
87.82,27.0
87.89,29.0
87.95,45.0
88.01,32.0
88.07,32.0
88.14,34.0
88.2,28.0
88.26,38.0
88.33,13.0
88.39,8.0
88.45,19.0
88.52,43.0
88.58,16.0
88.64,8.0
88.7,28.0
88.77,32.0
88.83,43.0
88.89,29.0
88.96,10.0
89.02,12.0
89.08,8.0
89.15,16.0
89.21,29.0
89.27,21.0
89.33,21.0
89.4,26.0
89.46,27.0
89.52,-6.0
89.59,12.0
89.65,37.0
89.71,29.0
89.78,4.0
89.84,10.0
89.9,46.0
89.96,37.0
90.03,55.0
90.09,26.0
90.15,19.0
90.22,38.0
90.28,21.0
90.34,20.0
90.41,-3.0
90.47,5.0
90.53,-3.0
90.59,17.0
90.66,28.0
90.72,6.0
90.78,2.0
90.85,-1.0
90.91,10.0
90.97,25.0
91.04,1.0
91.1,-2.0
91.16,14.0
91.22,9.0
91.29,-19.0
91.35,-1.0
91.41,-3.0
91.48,1.0
91.54,1.0
91.6,-6.0
91.67,14.0
91.73,21.0
91.79,22.0
91.85,23.0
91.92,44.0
91.98,42.0
92.04,43.0
92.11,32.0
92.17,28.0
92.23,62.0
92.3,68.0
92.36,62.0
92.42,70.0
92.48,64.0
92.55,48.0
92.61,62.0
92.67,67.0
92.74,52.0
92.8,62.0
92.86,64.0
92.93,68.0
92.99,75.0
93.05,76.0
93.11,62.0
93.18,53.0
93.24,45.0
93.3,51.0
93.37,40.0
93.43,68.0
93.49,51.0
93.56,42.0
93.62,46.0
93.68,35.0
93.74,31.0
93.81,22.0
93.87,33.0
93.93,34.0
94.0,24.0
94.06,-5.0
94.12,9.0
94.19,-8.0
94.25,-21.0
94.31,-30.0
94.37,-41.0
94.44,-45.0
94.5,-52.0
94.56,-33.0
94.63,-22.0
94.69,-25.0
94.75,-24.0
94.82,-27.0
94.88,-35.0
94.94,-20.0
95.0,-28.0
95.07,-31.0
95.13,-28.0
95.19,-23.0
95.26,-30.0
95.32,-39.0
95.38,-37.0
95.45,-57.0
95.51,-42.0
95.57,-42.0
95.63,-40.0
95.7,-50.0
95.76,-52.0
95.82,-25.0
95.89,-15.0
95.95,-28.0
96.01,-35.0
96.08,-40.0
96.14,-24.0
96.2,-48.0
96.26,-40.0
96.33,-24.0
96.39,-17.0
96.45,-26.0
96.52,-37.0
96.58,-29.0
96.64,-9.0
96.71,-15.0
96.77,-20.0
96.83,-9.0
96.89,12.0
96.96,-1.0
97.02,-7.0
97.08,-15.0
97.15,-12.0
97.21,-11.0
97.27,-10.0
97.34,-7.0
97.4,-11.0
97.46,7.0
97.52,-18.0
97.59,-11.0
97.65,-7.0
97.71,-7.0
97.78,4.0
97.84,2.0
97.9,1.0
97.97,14.0
98.03,34.0
98.09,24.0
98.15,17.0
98.22,44.0
98.28,53.0
98.34,30.0
98.41,51.0
98.47,53.0
98.53,54.0
98.6,43.0
98.66,39.0
98.72,15.0
98.78,35.0
98.85,29.0
98.91,27.0
98.97,27.0
99.04,26.0
99.1,22.0
99.16,26.0
99.23,15.0
99.29,24.0
99.35,25.0
99.41,15.0
99.48,20.0
99.54,41.0
99.6,28.0
99.67,27.0
99.73,37.0
99.79,31.0
99.86,7.0
99.92,14.0
99.98,29.0
100.04,32.0
100.11,24.0
100.17,20.0
100.23,9.0
100.3,27.0
100.36,24.0
100.42,28.0
100.49,22.0
100.55,9.0
100.61,7.0
100.67,-4.0
100.74,11.0
100.8,6.0
100.86,8.0
100.93,7.0
100.99,-2.0
101.05,21.0
101.12,20.0
101.18,-3.0
101.24,10.0
101.3,0.0
101.37,8.0
101.43,13.0
101.49,30.0
101.56,26.0
101.62,6.0
101.68,6.0
101.75,17.0
101.81,3.0
101.87,-7.0
101.93,14.0
102.0,30.0
102.06,16.0
102.12,20.0
102.19,26.0
102.25,31.0
102.31,18.0
102.38,13.0
102.44,-23.0
102.5,7.0
102.56,-9.0
102.63,14.0
102.69,19.0
102.75,0.0
102.82,3.0
102.88,-3.0
102.94,10.0
103.01,11.0
103.07,12.0
103.13,-14.0
103.19,-5.0
103.26,-4.0
103.32,-7.0
103.38,-18.0
103.45,-11.0
103.51,-12.0
103.57,-15.0
103.64,-21.0
103.7,-27.0
103.76,-16.0
103.82,-33.0
103.89,-16.0
103.95,-23.0
104.01,-14.0
104.08,9.0
104.14,-5.0
104.2,-6.0
104.27,-2.0
104.33,-11.0
104.39,-3.0
104.45,-3.0
104.52,4.0
104.58,23.0
104.64,23.0
104.71,22.0
104.77,16.0
104.83,34.0
104.9,41.0
104.96,39.0
105.02,27.0
105.08,45.0
105.15,47.0
105.21,58.0
105.27,53.0
105.34,38.0
105.4,45.0
105.46,47.0
105.53,50.0
105.59,49.0
105.65,23.0
105.71,44.0
105.78,27.0
105.84,23.0
105.9,42.0
105.97,48.0
106.03,61.0
106.09,60.0
106.16,50.0
106.22,69.0
106.28,82.0
106.34,60.0
106.41,58.0
106.47,70.0
106.53,71.0
106.6,80.0
106.66,86.0
106.72,79.0
106.79,91.0
106.85,86.0
106.91,94.0
106.97,102.0
107.04,81.0
107.1,101.0
107.16,109.0
107.23,115.0
107.29,119.0
107.35,113.0
107.42,121.0
107.48,101.0
107.54,122.0
107.6,101.0
107.67,113.0
107.73,115.0
107.79,119.0
107.86,122.0
107.92,116.0
107.98,122.0
108.05,130.0
108.11,114.0
108.17,106.0
108.23,99.0
108.3,126.0
108.36,133.0
108.42,133.0
108.49,127.0
108.55,132.0
108.61,130.0
108.68,107.0
108.74,106.0
108.8,119.0
108.86,113.0
108.93,120.0
108.99,130.0
109.05,138.0
109.12,146.0
109.18,130.0
109.24,155.0
109.31,137.0
109.37,111.0
109.43,138.0
109.49,150.0
109.56,139.0
109.62,134.0
109.68,119.0
109.75,119.0
109.81,131.0
109.87,113.0
109.94,122.0
110.0,122.0
110.06,125.0
110.12,138.0
110.19,138.0
110.25,134.0
110.31,139.0
110.38,122.0
110.44,127.0
110.5,113.0
110.57,121.0
110.63,124.0
110.69,113.0
110.75,132.0
110.82,117.0
110.88,118.0
110.94,108.0
111.01,110.0
111.07,85.0
111.13,84.0
111.2,82.0
111.26,86.0
111.32,106.0
111.38,83.0
111.45,80.0
111.51,71.0
111.57,73.0
111.64,66.0
111.7,64.0
111.76,94.0
111.83,63.0
111.89,41.0
111.95,45.0
112.01,49.0
112.08,50.0
112.14,38.0
112.2,5.0
112.27,34.0
112.33,54.0
112.39,48.0
112.46,61.0
112.52,46.0
112.58,52.0
112.64,49.0
112.71,60.0
112.77,69.0
112.83,43.0
112.9,49.0
112.96,71.0
113.02,75.0
113.09,52.0
113.15,80.0
113.21,78.0
113.27,71.0
113.34,71.0
113.4,70.0
113.46,67.0
113.53,82.0
113.59,55.0
113.65,57.0
113.72,69.0
113.78,66.0
113.84,45.0
113.9,31.0
113.97,54.0
114.03,52.0
114.09,43.0
114.16,58.0
114.22,71.0
114.28,64.0
114.35,60.0
114.41,63.0
114.47,63.0
114.53,56.0
114.6,64.0
114.66,68.0
114.72,74.0
114.79,66.0
114.85,65.0
114.91,69.0
114.98,95.0
115.04,87.0
115.1,56.0
115.16,58.0
115.23,49.0
115.29,60.0
115.35,56.0
115.42,58.0
115.48,79.0
115.54,67.0
115.61,71.0
115.67,77.0
115.73,77.0
115.79,65.0
115.86,70.0
115.92,82.0
115.98,84.0
116.05,69.0
116.11,89.0
116.17,104.0
116.24,85.0
116.3,82.0
116.36,67.0
116.42,57.0
116.49,63.0
116.55,92.0
116.61,80.0
116.68,82.0
116.74,84.0
116.8,75.0
116.87,88.0
116.93,63.0
116.99,69.0
117.05,71.0
117.12,71.0
117.18,55.0
117.24,58.0
117.31,74.0
117.37,73.0
117.43,72.0
117.5,86.0
117.56,78.0
117.62,78.0
117.68,85.0
117.75,82.0
117.81,59.0
117.87,68.0
117.94,76.0
118.0,66.0
118.06,78.0
118.13,83.0
118.19,75.0
118.25,88.0
118.31,87.0
118.38,95.0
118.44,108.0
118.5,113.0
118.57,94.0
118.63,97.0
118.69,93.0
118.76,111.0
118.82,89.0
118.88,96.0
118.94,101.0
119.01,86.0
119.07,77.0
119.13,70.0
119.2,80.0
119.26,73.0
119.32,56.0
119.39,72.0
119.45,64.0
119.51,60.0
119.57,56.0
119.64,39.0
119.7,53.0
119.76,52.0
119.83,62.0
119.89,55.0
119.95,35.0
120.02,36.0
120.08,33.0
120.14,24.0
120.2,42.0
120.27,46.0
120.33,47.0
120.39,61.0
120.46,47.0
120.52,53.0
120.58,41.0
120.65,34.0
120.71,20.0
120.77,37.0
120.83,19.0
120.9,35.0
120.96,42.0
121.02,22.0
121.09,52.0
121.15,63.0
121.21,48.0
121.28,42.0
121.34,32.0
121.4,16.0
121.46,41.0
121.53,44.0
121.59,50.0
121.65,50.0
121.72,61.0
121.78,45.0
121.84,29.0
121.91,40.0
121.97,48.0
122.03,48.0
122.09,63.0
122.16,68.0
122.22,76.0
122.28,44.0
122.35,49.0
122.41,54.0
122.47,61.0
122.54,55.0
122.6,69.0
122.66,85.0
122.72,94.0
122.79,88.0
122.85,86.0
122.91,85.0
122.98,99.0
123.04,79.0
123.1,75.0
123.17,90.0
123.23,102.0
123.29,90.0
123.35,92.0
123.42,95.0
123.48,100.0
123.54,86.0
123.61,83.0
123.67,118.0
123.73,99.0
123.8,96.0
123.86,107.0
123.92,89.0
123.98,133.0
124.05,112.0
124.11,109.0
124.17,102.0
124.24,112.0
124.3,116.0
124.36,101.0
124.43,118.0
124.49,132.0
124.55,131.0
124.61,145.0
124.68,137.0
124.74,147.0
124.8,140.0
124.87,155.0
124.93,137.0
124.99,139.0
125.06,144.0
125.12,136.0
125.18,154.0
125.24,143.0
125.31,129.0
125.37,113.0
125.43,113.0
125.5,113.0
125.56,126.0
125.62,120.0
125.69,113.0
125.75,124.0
125.81,130.0
125.87,135.0
125.94,146.0
126.0,148.0
126.06,137.0
126.13,134.0
126.19,130.0
126.25,145.0
126.32,170.0
126.38,148.0
126.44,138.0
126.5,124.0
126.57,129.0
126.63,131.0
126.69,135.0
126.76,116.0
126.82,118.0
126.88,149.0
126.95,136.0
127.01,155.0
127.07,165.0
127.13,142.0
127.2,123.0
127.26,124.0
127.32,133.0
127.39,125.0
127.45,130.0
127.51,136.0
127.58,137.0
127.64,148.0
127.7,141.0
127.76,112.0
127.83,93.0
127.89,92.0
127.95,93.0
128.02,122.0
128.08,116.0
128.14,121.0
128.21,108.0
128.27,111.0
128.33,96.0
128.39,104.0
128.46,93.0
128.52,101.0
128.58,96.0
128.65,86.0
128.71,91.0
128.77,83.0
128.84,87.0
128.9,68.0
128.96,55.0
129.02,37.0
129.09,50.0
129.15,83.0
129.21,54.0
129.28,64.0
129.34,44.0
129.4,33.0
129.47,32.0
129.53,30.0
129.59,35.0
129.65,39.0
129.72,38.0
129.78,18.0
129.84,27.0
129.91,14.0
129.97,35.0
130.03,17.0
130.1,14.0
130.16,21.0
130.22,16.0
130.28,28.0
130.35,25.0
130.41,13.0
130.47,29.0
130.54,3.0
130.6,2.0
130.66,15.0
130.73,19.0
130.79,35.0
130.85,22.0
130.91,31.0
130.98,12.0
131.04,26.0
131.1,20.0
131.17,23.0
131.23,41.0
131.29,41.0
131.36,35.0
131.42,32.0
131.48,36.0
131.54,24.0
131.61,16.0
131.67,20.0
131.73,29.0
131.8,12.0
131.86,-11.0
131.92,-6.0
131.99,8.0
132.05,6.0
132.11,11.0
132.17,-1.0
132.24,7.0
132.3,-6.0
132.36,-1.0
132.43,-7.0
132.49,-10.0
132.55,10.0
132.62,-1.0
132.68,7.0
132.74,15.0
132.8,13.0
132.87,15.0
132.93,10.0
132.99,0.0
133.06,-15.0
133.12,-32.0
133.18,-18.0
133.25,0.0
133.31,-18.0
133.37,-18.0
133.43,-26.0
133.5,-37.0
133.56,-7.0
133.62,-15.0
133.69,-24.0
133.75,-22.0
133.81,-3.0
133.88,-3.0
133.94,-7.0
134.0,-22.0
134.06,-14.0
134.13,-19.0
134.19,-17.0
134.25,-30.0
134.32,-29.0
134.38,-21.0
134.44,-28.0
134.51,-29.0
134.57,-25.0
134.63,-11.0
134.69,-5.0
134.76,7.0
134.82,-6.0
134.88,-9.0
134.95,-5.0
135.01,20.0
135.07,-15.0
135.14,-11.0
135.2,-7.0
135.26,-9.0
135.32,-27.0
135.39,-27.0
135.45,6.0
135.51,0.0
135.58,6.0
135.64,4.0
135.7,-12.0
135.77,1.0
135.83,14.0
135.89,-2.0
135.95,-8.0
136.02,0.0
136.08,-17.0
136.14,-10.0
136.21,-9.0
136.27,-20.0
136.33,-21.0
136.4,-17.0
136.46,-22.0
136.52,-36.0
136.58,-32.0
136.65,-39.0
136.71,-32.0
136.77,-31.0
136.84,-53.0
136.9,-60.0
136.96,-29.0
137.03,-21.0
137.09,-21.0
137.15,11.0
137.21,-27.0
137.28,-20.0
137.34,0.0
137.4,-6.0
137.47,-2.0
137.53,-4.0
137.59,-4.0
137.66,-6.0
137.72,-3.0
137.78,2.0
137.84,2.0
137.91,-8.0
137.97,-9.0
138.03,-13.0
138.1,-8.0
138.16,17.0
138.22,-1.0
138.29,4.0
138.35,12.0
138.41,-7.0
138.47,20.0
138.54,12.0
138.6,-17.0
138.66,11.0
138.73,-19.0
138.79,1.0
138.85,-3.0
138.92,-2.0
138.98,-4.0
139.04,19.0
139.1,14.0
139.17,41.0
139.23,49.0
139.29,45.0
139.36,38.0
139.42,41.0
139.48,37.0
139.55,61.0
139.61,89.0
139.67,68.0
139.73,69.0
139.8,53.0
139.86,43.0
139.92,48.0
139.99,56.0
140.05,50.0
140.11,45.0
140.18,44.0
140.24,66.0
140.3,62.0
140.36,73.0
140.43,81.0
140.49,46.0
140.55,38.0
140.62,48.0
140.68,49.0
140.74,39.0
140.81,56.0
140.87,75.0
140.93,80.0
140.99,62.0
141.06,86.0
141.12,60.0
141.18,71.0
141.25,101.0
141.31,110.0
141.37,114.0
141.44,88.0
141.5,87.0
141.56,79.0
141.62,105.0
141.69,123.0
141.75,112.0
141.81,119.0
141.88,119.0
141.94,144.0
142.0,151.0
142.07,139.0
142.13,139.0
142.19,131.0
142.25,140.0
142.32,136.0
142.38,133.0
142.44,157.0
142.51,145.0
142.57,141.0
142.63,118.0
142.7,116.0
142.76,138.0
142.82,147.0
142.88,145.0
142.95,130.0
143.01,129.0
143.07,130.0
143.14,142.0
143.2,135.0
143.26,142.0
143.33,137.0
143.39,150.0
143.45,154.0
143.51,163.0
143.58,139.0
143.64,130.0
143.7,123.0
143.77,121.0
143.83,127.0
143.89,122.0
143.96,130.0
144.02,146.0
144.08,143.0
144.14,129.0
144.21,131.0
144.27,124.0
144.33,126.0
144.4,130.0
144.46,141.0
144.52,132.0
144.59,130.0
144.65,116.0
144.71,110.0
144.77,102.0
144.84,119.0
144.9,114.0
144.96,123.0
145.03,135.0
145.09,117.0
145.15,83.0
145.22,89.0
145.28,95.0
145.34,105.0
145.4,88.0
145.47,91.0
145.53,84.0
145.59,95.0
145.66,97.0
145.72,75.0
145.78,68.0
145.85,79.0
145.91,70.0
145.97,64.0
146.03,82.0
146.1,91.0
146.16,103.0
146.22,79.0
146.29,59.0
146.35,56.0
146.41,54.0
146.47,52.0
146.54,59.0
146.6,54.0
146.66,50.0
146.73,50.0
146.79,52.0
146.85,54.0
146.92,31.0
146.98,42.0
147.04,37.0
147.1,34.0
147.17,58.0
147.23,48.0
147.29,39.0
147.36,54.0
147.42,30.0
147.48,11.0
147.55,10.0
147.61,5.0
147.67,25.0
147.73,27.0
147.8,31.0
147.86,34.0
147.92,28.0
147.99,28.0
148.05,31.0
148.11,28.0
148.18,26.0
148.24,48.0
148.3,42.0
148.36,62.0
148.43,64.0
148.49,43.0
148.55,59.0
148.62,82.0
148.68,49.0
148.74,50.0
148.81,57.0
148.87,47.0
148.93,68.0
148.99,86.0
149.06,86.0
149.12,82.0
149.18,91.0
149.25,84.0
149.31,59.0
149.37,60.0
149.44,53.0
149.5,56.0
149.56,46.0
149.62,45.0
149.69,38.0
149.75,42.0
149.81,43.0
149.88,46.0
149.94,34.0
150.0,29.0
150.07,20.0
150.13,42.0
150.19,64.0
150.25,26.0
150.32,32.0
150.38,34.0
150.44,46.0
150.51,39.0
150.57,38.0
150.63,41.0
150.7,17.0
150.76,1.0
150.82,3.0
150.88,23.0
150.95,35.0
151.01,21.0
151.07,31.0
151.14,15.0
151.2,-11.0
151.26,-3.0
151.33,10.0
151.39,-14.0
151.45,24.0
151.51,26.0
151.58,34.0
151.64,48.0
151.7,20.0
151.77,21.0
151.83,12.0
151.89,-1.0
151.96,6.0
152.02,8.0
152.08,33.0
152.14,13.0
152.21,30.0
152.27,30.0
152.33,19.0
152.4,18.0
152.46,3.0
152.52,9.0
152.59,-3.0
152.65,4.0
152.71,12.0
152.77,17.0
152.84,0.0
152.9,11.0
152.96,-1.0
153.03,6.0
153.09,-6.0
153.15,9.0
153.22,12.0
153.28,-5.0
153.34,3.0
153.4,-4.0
153.47,-12.0
153.53,-17.0
153.59,-10.0
153.66,10.0
153.72,10.0
153.78,3.0
153.85,-14.0
153.91,-34.0
153.97,-14.0
154.03,15.0
154.1,20.0
154.16,14.0
154.22,11.0
154.29,15.0
154.35,6.0
154.41,12.0
154.48,7.0
154.54,6.0
154.6,21.0
154.66,11.0
154.73,29.0
154.79,43.0
154.85,46.0
154.92,35.0
154.98,25.0
155.04,25.0
155.11,29.0
155.17,14.0
155.23,17.0
155.29,30.0
155.36,32.0
155.42,50.0
155.48,40.0
155.55,45.0
155.61,53.0
155.67,49.0
155.74,54.0
155.8,53.0
155.86,54.0
155.92,60.0
155.99,43.0
156.05,52.0
156.11,55.0
156.18,38.0
156.24,41.0
156.3,40.0
156.37,31.0
156.43,25.0
156.49,36.0
156.55,43.0
156.62,47.0
156.68,25.0
156.74,19.0
156.81,43.0
156.87,51.0
156.93,62.0
157.0,66.0
157.06,62.0
157.12,71.0
157.18,82.0
157.25,90.0
157.31,71.0
157.37,59.0
157.44,61.0
157.5,50.0
157.56,60.0
157.63,86.0
157.69,73.0
157.75,97.0
157.81,69.0
157.88,82.0
157.94,84.0
158.0,99.0
158.07,94.0
158.13,78.0
158.19,98.0
158.26,115.0
158.32,109.0
158.38,103.0
158.44,99.0
158.51,106.0
158.57,84.0
158.63,92.0
158.7,125.0
158.76,121.0
158.82,131.0
158.89,127.0
158.95,115.0
159.01,134.0
159.07,153.0
159.14,138.0
159.2,154.0
159.26,138.0
159.33,145.0
159.39,147.0
159.45,157.0
159.52,164.0
159.58,164.0
159.64,160.0
159.7,179.0
159.77,177.0
159.83,189.0
159.89,157.0
159.96,147.0
160.02,157.0
160.08,138.0
160.15,164.0
160.21,147.0
160.27,161.0
160.33,140.0
160.4,138.0
160.46,137.0
160.52,104.0
160.59,125.0
160.65,126.0
160.71,105.0
160.78,119.0
160.84,135.0
160.9,142.0
160.96,144.0
161.03,167.0
161.09,129.0
161.15,108.0
161.22,128.0
161.28,127.0
161.34,118.0
161.41,122.0
161.47,120.0
161.53,123.0
161.59,123.0
161.66,104.0
161.72,120.0
161.78,128.0
161.85,112.0
161.91,99.0
161.97,104.0
162.04,95.0
162.1,79.0
162.16,109.0
162.22,89.0
162.29,100.0
162.35,107.0
162.41,99.0
162.48,98.0
162.54,93.0
162.6,102.0
162.67,92.0
162.73,79.0
162.79,83.0
162.85,93.0
162.92,104.0
162.98,116.0
163.04,110.0
163.11,79.0
163.17,73.0
163.23,69.0
163.3,78.0
163.36,80.0
163.42,53.0
163.48,47.0
163.55,58.0
163.61,66.0
163.67,66.0
163.74,52.0
163.8,48.0
163.86,61.0
163.93,62.0
163.99,54.0
164.05,74.0
164.11,76.0
164.18,90.0
164.24,80.0
164.3,76.0
164.37,88.0
164.43,96.0
164.49,88.0
164.56,111.0
164.62,110.0
164.68,87.0
164.74,103.0
164.81,120.0
164.87,105.0
164.93,81.0
165.0,110.0
165.06,103.0
165.12,100.0
165.19,103.0
165.25,94.0
165.31,100.0
165.37,90.0
165.44,94.0
165.5,97.0
165.56,113.0
165.63,92.0
165.69,103.0
165.75,97.0
165.82,85.0
165.88,107.0
165.94,95.0
166.0,79.0
166.07,95.0
166.13,97.0
166.19,81.0
166.26,83.0
166.32,91.0
166.38,72.0
166.45,80.0
166.51,72.0
166.57,51.0
166.63,62.0
166.7,52.0
166.76,66.0
166.82,70.0
166.89,67.0
166.95,77.0
167.01,80.0
167.08,82.0
167.14,82.0
167.2,88.0
167.26,106.0
167.33,105.0
167.39,93.0
167.45,91.0
167.52,98.0
167.58,95.0
167.64,94.0
167.71,69.0
167.77,99.0
167.83,117.0
167.89,123.0
167.96,109.0
168.02,88.0
168.08,94.0
168.15,102.0
168.21,113.0
168.27,108.0
168.34,120.0
168.4,114.0
168.46,117.0
168.52,117.0
168.59,120.0
168.65,129.0
168.71,111.0
168.78,118.0
168.84,118.0
168.9,128.0
168.97,104.0
169.03,96.0
169.09,75.0
169.15,62.0
169.22,93.0
169.28,78.0
169.34,69.0
169.41,91.0
169.47,91.0
169.53,72.0
169.6,72.0
169.66,61.0
169.72,68.0
169.78,83.0
169.85,73.0
169.91,76.0
169.97,65.0
170.04,94.0
170.1,41.0
170.16,36.0
170.23,43.0
170.29,44.0
170.35,49.0
170.41,55.0
170.48,83.0
170.54,75.0
170.6,51.0
170.67,71.0
170.73,65.0
170.79,70.0
170.86,49.0
170.92,57.0
170.98,51.0
171.04,54.0
171.11,60.0
171.17,71.0
171.23,87.0
171.3,67.0
171.36,68.0
171.42,82.0
171.49,73.0
171.55,90.0
171.61,84.0
171.67,74.0
171.74,74.0
171.8,82.0
171.86,90.0
171.93,87.0
171.99,83.0
172.05,83.0
172.12,81.0
172.18,62.0
172.24,62.0
172.3,68.0
172.37,77.0
172.43,68.0
172.49,69.0
172.56,91.0
172.62,70.0
172.68,57.0
172.75,60.0
172.81,59.0
172.87,61.0
172.93,92.0
173.0,109.0
173.06,96.0
173.12,85.0
173.19,80.0
173.25,79.0
173.31,90.0
173.38,79.0
173.44,83.0
173.5,109.0
173.56,122.0
173.63,120.0
173.69,124.0
173.75,149.0
173.82,121.0
173.88,124.0
173.94,119.0
174.01,116.0
174.07,116.0
174.13,113.0
174.19,143.0
174.26,137.0
174.32,142.0
174.38,140.0
174.45,138.0
174.51,132.0
174.57,128.0
174.64,152.0
174.7,158.0
174.76,152.0
174.82,162.0
174.89,148.0
174.95,154.0
175.01,160.0
175.08,165.0
175.14,153.0
175.2,162.0
175.27,168.0
175.33,159.0
175.39,195.0
175.45,189.0
175.52,157.0
175.58,159.0
175.64,188.0
175.71,160.0
175.77,166.0
175.83,187.0
175.9,181.0
175.96,168.0
176.02,197.0
176.08,178.0
176.15,156.0
176.21,185.0
176.27,175.0
176.34,176.0
176.4,172.0
176.46,172.0
176.53,185.0
176.59,187.0
176.65,202.0
176.71,194.0
176.78,166.0
176.84,181.0
176.9,173.0
176.97,190.0
177.03,156.0
177.09,136.0
177.16,144.0
177.22,143.0
177.28,150.0
177.34,143.0
177.41,146.0
177.47,146.0
177.53,142.0
177.6,142.0
177.66,142.0
177.72,134.0
177.79,161.0
177.85,171.0
177.91,161.0
177.97,137.0
178.04,148.0
178.1,129.0
178.16,114.0
178.23,132.0
178.29,109.0
178.35,121.0
178.42,132.0
178.48,116.0
178.54,115.0
178.6,124.0
178.67,114.0
178.73,103.0
178.79,117.0
178.86,96.0
178.92,104.0
178.98,124.0
179.05,124.0
179.11,139.0
179.17,124.0
179.23,116.0
179.3,95.0
179.36,121.0
179.42,116.0
179.49,123.0
179.55,107.0
179.61,109.0
179.68,118.0
179.74,111.0
179.8,104.0
179.86,95.0
179.93,112.0
179.99,102.0
180.05,87.0
180.12,92.0
180.18,87.0
180.24,91.0
180.31,81.0
180.37,95.0
180.43,81.0
180.49,79.0
180.56,109.0
180.62,91.0
180.68,97.0
180.75,105.0
180.81,112.0
180.87,114.0
180.94,111.0
181.0,89.0
181.06,88.0
181.12,80.0
181.19,81.0
181.25,83.0
181.31,89.0
181.38,79.0
181.44,76.0
181.5,90.0
181.57,91.0
181.63,80.0
181.69,109.0
181.75,90.0
181.82,71.0
181.88,76.0
181.94,80.0
182.01,92.0
182.07,88.0
182.13,92.0
182.2,90.0
182.26,91.0
182.32,73.0
182.38,57.0
182.45,52.0
182.51,69.0
182.57,77.0
182.64,92.0
182.7,89.0
182.76,100.0
182.83,77.0
182.89,60.0
182.95,71.0
183.01,66.0
183.08,67.0
183.14,75.0
183.2,77.0
183.27,94.0
183.33,61.0
183.39,47.0
183.46,61.0
183.52,68.0
183.58,61.0
183.64,66.0
183.71,74.0
183.77,51.0
183.83,48.0
183.9,73.0
183.96,54.0
184.02,53.0
184.09,46.0
184.15,71.0
184.21,46.0
184.27,65.0
184.34,66.0
184.4,49.0
184.46,47.0
184.53,28.0
184.59,41.0
184.65,29.0
184.72,27.0
184.78,20.0
184.84,22.0
184.9,20.0
184.97,21.0
185.03,28.0
185.09,29.0
185.16,29.0
185.22,33.0
185.28,42.0
185.35,29.0
185.41,39.0
185.47,9.0
185.53,2.0
185.6,33.0
185.66,36.0
185.72,17.0
185.79,18.0
185.85,29.0
185.91,32.0
185.98,34.0
186.04,14.0
186.1,27.0
186.16,46.0
186.23,18.0
186.29,24.0
186.35,38.0
186.42,18.0
186.48,45.0
186.54,46.0
186.61,29.0
186.67,20.0
186.73,-6.0
186.79,6.0
186.86,-5.0
186.92,-6.0
186.98,14.0
187.05,17.0
187.11,9.0
187.17,17.0
187.24,4.0
187.3,0.0
187.36,8.0
187.42,10.0
187.49,1.0
187.55,-17.0
187.61,-13.0
187.68,-18.0
187.74,-5.0
187.8,-14.0
187.87,-1.0
187.93,-19.0
187.99,-20.0
188.05,-5.0
188.12,-33.0
188.18,-33.0
188.24,-6.0
188.31,8.0
188.37,0.0
188.43,-13.0
188.5,9.0
188.56,-11.0
188.62,-13.0
188.68,-3.0
188.75,8.0
188.81,13.0
188.87,24.0
188.94,15.0
189.0,7.0
189.06,16.0
189.13,40.0
189.19,20.0
189.25,25.0
189.31,16.0
189.38,28.0
189.44,36.0
189.5,31.0
189.57,8.0
189.63,17.0
189.69,23.0
189.76,21.0
189.82,32.0
189.88,19.0
189.94,19.0
190.01,44.0
190.07,23.0
190.13,9.0
190.2,16.0
190.26,33.0
190.32,33.0
190.39,23.0
190.45,41.0
190.51,38.0
190.57,46.0
190.64,49.0
190.7,61.0
190.76,70.0
190.83,62.0
190.89,51.0
190.95,70.0
191.02,68.0
191.08,59.0
191.14,58.0
191.2,70.0
191.27,61.0
191.33,59.0
191.39,80.0
191.46,61.0
191.52,67.0
191.58,56.0
191.65,63.0
191.71,74.0
191.77,70.0
191.83,94.0
191.9,106.0
191.96,95.0
192.02,96.0
192.09,68.0
192.15,111.0
192.21,106.0
192.28,73.0
192.34,97.0
192.4,89.0
192.46,87.0
192.53,122.0
192.59,101.0
192.65,116.0
192.72,121.0
192.78,119.0
192.84,115.0
192.91,126.0
192.97,129.0
193.03,138.0
193.09,148.0
193.16,141.0
193.22,133.0
193.28,130.0
193.35,119.0
193.41,132.0
193.47,147.0
193.54,136.0
193.6,132.0
193.66,144.0
193.72,140.0
193.79,130.0
193.85,120.0
193.91,128.0
193.98,128.0
194.04,149.0
194.1,156.0
194.17,137.0
194.23,181.0
194.29,174.0
194.35,160.0
194.42,150.0
194.48,149.0
194.54,149.0
194.61,139.0
194.67,147.0
194.73,141.0
194.8,148.0
194.86,145.0
194.92,139.0
194.98,144.0
195.05,134.0
195.11,136.0
195.17,151.0
195.24,126.0
195.3,150.0
195.36,155.0
195.43,135.0
195.49,140.0
195.55,151.0
195.61,142.0
195.68,136.0
195.74,146.0
195.8,145.0
195.87,128.0
195.93,114.0
195.99,107.0
196.06,118.0
196.12,134.0
196.18,125.0
196.24,146.0
196.31,147.0
196.37,120.0
196.43,108.0
196.5,119.0
196.56,135.0
196.62,139.0
196.69,128.0
196.75,116.0
196.81,123.0
196.87,122.0
196.94,123.0
197.0,124.0
197.06,125.0
197.13,130.0
197.19,112.0
197.25,125.0
197.32,119.0
197.38,133.0
197.44,134.0
197.5,136.0
197.57,135.0
197.63,129.0
197.69,129.0
197.76,140.0
197.82,133.0
197.88,138.0
197.95,141.0
198.01,150.0
198.07,159.0
198.13,136.0
198.2,131.0
198.26,109.0
198.32,111.0
198.39,100.0
198.45,126.0
198.51,129.0
198.58,106.0
198.64,129.0
198.7,130.0
198.76,122.0
198.83,124.0
198.89,96.0
198.95,115.0
199.02,104.0
199.08,111.0
199.14,115.0
199.21,103.0
199.27,102.0
199.33,100.0
199.39,104.0
199.46,111.0
199.52,97.0
199.58,102.0
199.65,98.0
199.71,106.0
199.77,112.0
199.84,100.0
199.9,93.0
199.96,86.0
200.02,84.0
200.09,98.0
200.15,73.0
200.21,56.0
200.28,64.0
200.34,71.0
200.4,70.0
200.47,44.0
200.53,40.0
200.59,47.0
200.65,48.0
200.72,38.0
200.78,45.0
200.84,61.0
200.91,44.0
200.97,52.0
201.03,48.0
201.1,35.0
201.16,42.0
201.22,29.0
201.28,53.0
201.35,62.0
201.41,79.0
201.47,109.0
201.54,75.0
201.6,71.0
201.66,60.0
201.73,54.0
201.79,50.0
201.85,64.0
201.91,82.0
201.98,79.0
202.04,74.0
202.1,82.0
202.17,78.0
202.23,53.0
202.29,41.0
202.36,35.0
202.42,51.0
202.48,43.0
202.54,42.0
202.61,38.0
202.67,37.0
202.73,45.0
202.8,38.0
202.86,8.0
202.92,-9.0
202.99,-6.0
203.05,14.0
203.11,15.0
203.17,-4.0
203.24,-16.0
203.3,17.0
203.36,9.0
203.43,-18.0
203.49,8.0
203.55,-14.0
203.62,2.0
203.68,17.0
203.74,15.0
203.8,49.0
203.87,7.0
203.93,1.0
203.99,20.0
204.06,6.0
204.12,-3.0
204.18,-3.0
204.25,26.0
204.31,11.0
204.37,11.0
204.43,18.0
204.5,25.0
204.56,12.0
204.62,15.0
204.69,7.0
204.75,8.0
204.81,17.0
204.88,-1.0
204.94,7.0
205.0,16.0
205.06,24.0
205.13,-1.0
205.19,25.0
205.25,18.0
205.32,7.0
205.38,-3.0
205.44,2.0
205.51,1.0
205.57,-13.0
205.63,0.0
205.69,12.0
205.76,21.0
205.82,30.0
205.88,30.0
205.95,15.0
206.01,1.0
206.07,17.0
206.14,19.0
206.2,18.0
206.26,11.0
206.32,33.0
206.39,29.0
206.45,30.0
206.51,17.0
206.58,37.0
206.64,29.0
206.7,34.0
206.77,33.0
206.83,16.0
206.89,13.0
206.95,39.0
207.02,31.0
207.08,26.0
207.14,33.0
207.21,25.0
207.27,33.0
207.33,63.0
207.4,37.0
207.46,37.0
207.52,56.0
207.58,44.0
207.65,35.0
207.71,49.0
207.77,50.0
207.84,61.0
207.9,49.0
207.96,70.0
208.03,79.0
208.09,74.0
208.15,65.0
208.21,54.0
208.28,78.0
208.34,55.0
208.4,73.0
208.47,62.0
208.53,41.0
208.59,92.0
208.66,100.0
208.72,105.0
208.78,112.0
208.84,91.0
208.91,103.0
208.97,86.0
209.03,96.0
209.1,98.0
209.16,125.0
209.22,106.0
209.29,87.0
209.35,99.0
209.41,124.0
209.47,125.0
209.54,109.0
209.6,114.0
209.66,119.0
209.73,112.0
209.79,115.0
209.85,111.0
209.92,125.0
209.98,136.0
210.04,134.0
210.1,162.0
210.17,147.0
210.23,154.0
210.29,129.0
210.36,120.0
210.42,133.0
210.48,138.0
210.55,143.0
210.61,129.0
210.67,136.0
210.73,141.0
210.8,149.0
210.86,144.0
210.92,150.0
210.99,145.0
211.05,131.0
211.11,136.0
211.18,150.0
211.24,133.0
211.3,147.0
211.36,122.0
211.43,114.0
211.49,125.0
211.55,112.0
211.62,122.0
211.68,104.0
211.74,111.0
211.81,120.0
211.87,106.0
211.93,116.0
211.99,91.0
212.06,111.0
212.12,107.0
212.18,109.0
212.25,87.0
212.31,107.0
212.37,89.0
212.44,105.0
212.5,93.0
212.56,71.0
212.62,81.0
212.69,93.0
212.75,84.0
212.81,72.0
212.88,72.0
212.94,76.0
213.0,54.0
213.07,57.0
213.13,61.0
213.19,47.0
213.25,68.0
213.32,81.0
213.38,61.0
213.44,77.0
213.51,70.0
213.57,82.0
213.63,68.0
213.7,57.0
213.76,81.0
213.82,89.0
213.88,84.0
213.95,65.0
214.01,85.0
214.07,94.0
214.14,66.0
214.2,81.0
214.26,117.0
214.33,118.0
214.39,106.0
214.45,96.0
214.51,112.0
214.58,104.0
214.64,79.0
214.7,91.0
214.77,93.0
214.83,94.0
214.89,100.0
214.96,106.0
215.02,104.0
215.08,121.0
215.14,99.0
215.21,123.0
215.27,106.0
215.33,98.0
215.4,126.0
215.46,121.0
215.52,139.0
215.59,122.0
215.65,126.0
215.71,113.0
215.77,115.0
215.84,117.0
215.9,124.0
215.96,140.0
216.03,128.0
216.09,105.0
216.15,131.0
216.22,123.0
216.28,106.0
216.34,109.0
216.4,128.0
216.47,140.0
216.53,128.0
216.59,130.0
216.66,136.0
216.72,120.0
216.78,99.0
216.85,114.0
216.91,131.0
216.97,108.0
217.03,109.0
217.1,100.0
217.16,116.0
217.22,122.0
217.29,122.0
217.35,123.0
217.41,120.0
217.48,130.0
217.54,126.0
217.6,121.0
217.66,101.0
217.73,99.0
217.79,115.0
217.85,100.0
217.92,100.0
217.98,86.0
218.04,95.0
218.11,90.0
218.17,88.0
218.23,99.0
218.29,100.0
218.36,101.0
218.42,77.0
218.48,87.0
218.55,129.0
218.61,91.0
218.67,88.0
218.74,92.0
218.8,107.0
218.86,118.0
218.92,117.0
218.99,122.0
219.05,103.0
219.11,110.0
219.18,121.0
219.24,104.0
219.3,105.0
219.37,95.0
219.43,138.0
219.49,125.0
219.55,115.0
219.62,131.0
219.68,117.0
219.74,137.0
219.81,125.0
219.87,109.0
219.93,133.0
220.0,121.0
220.06,115.0
220.12,122.0
220.18,115.0
220.25,117.0
220.31,101.0
220.37,114.0
220.44,126.0
220.5,121.0
220.56,119.0
220.63,121.0
220.69,126.0
220.75,150.0
220.81,150.0
220.88,151.0
220.94,154.0
221.0,153.0
221.07,144.0
221.13,168.0
221.19,164.0
221.26,176.0
221.32,172.0
221.38,129.0
221.44,144.0
221.51,155.0
221.57,145.0
221.63,159.0
221.7,165.0
221.76,163.0
221.82,150.0
221.89,142.0
221.95,155.0
222.01,160.0
222.07,168.0
222.14,159.0
222.2,135.0
222.26,147.0
222.33,138.0
222.39,107.0
222.45,133.0
222.52,114.0
222.58,107.0
222.64,129.0
222.7,133.0
222.77,122.0
222.83,119.0
222.89,123.0
222.96,114.0
223.02,127.0
223.08,114.0
223.15,88.0
223.21,83.0
223.27,87.0
223.33,98.0
223.4,92.0
223.46,85.0
223.52,82.0
223.59,82.0
223.65,74.0
223.71,120.0
223.78,110.0
223.84,109.0
223.9,94.0
223.96,93.0
224.03,130.0
224.09,94.0
224.15,134.0
224.22,137.0
224.28,133.0
224.34,167.0
224.41,166.0
224.47,133.0
224.53,134.0
224.59,137.0
224.66,169.0
224.72,154.0
224.78,155.0
224.85,125.0
224.91,128.0
224.97,155.0
225.04,146.0
225.1,146.0
225.16,142.0
225.22,132.0
225.29,125.0
225.35,123.0
225.41,125.0
225.48,124.0
225.54,128.0
225.6,134.0
225.67,136.0
225.73,134.0
225.79,138.0
225.85,129.0
225.92,113.0
225.98,111.0
226.04,115.0
226.11,123.0
226.17,121.0
226.23,131.0
226.3,131.0
226.36,126.0
226.42,143.0
226.48,134.0
226.55,134.0
226.61,129.0
226.67,128.0
226.74,147.0
226.8,163.0
226.86,164.0
226.93,154.0
226.99,166.0
227.05,162.0
227.11,155.0
227.18,163.0
227.24,168.0
227.3,172.0
227.37,188.0
227.43,158.0
227.49,160.0
227.56,147.0
227.62,144.0
227.68,146.0
227.74,130.0
227.81,138.0
227.87,119.0
227.93,131.0
228.0,125.0
228.06,132.0
228.12,126.0
228.19,103.0
228.25,121.0
228.31,128.0
228.37,116.0
228.44,120.0
228.5,106.0
228.56,125.0
228.63,128.0
228.69,121.0
228.75,112.0
228.82,96.0
228.88,115.0
228.94,115.0
229.0,119.0
229.07,106.0
229.13,99.0
229.19,85.0
229.26,110.0
229.32,107.0
229.38,96.0
229.45,84.0
229.51,76.0
229.57,72.0
229.63,75.0
229.7,53.0
229.76,71.0
229.82,70.0
229.89,67.0
229.95,71.0
230.01,62.0
230.08,80.0
230.14,77.0
230.2,74.0
230.26,73.0
230.33,60.0
230.39,65.0
230.45,78.0
230.52,77.0
230.58,74.0
230.64,49.0
230.71,70.0
230.77,59.0
230.83,77.0
230.89,74.0
230.96,89.0
231.02,81.0
231.08,65.0
231.15,65.0
231.21,59.0
231.27,58.0
231.34,83.0
231.4,71.0
231.46,60.0
231.52,67.0
231.59,77.0
231.65,91.0
231.71,62.0
231.78,63.0
231.84,70.0
231.9,49.0
231.97,56.0
232.03,44.0
232.09,54.0
232.15,48.0
232.22,53.0
232.28,46.0
232.34,27.0
232.41,21.0
232.47,37.0
232.53,34.0
232.6,55.0
232.66,51.0
232.72,48.0
232.78,46.0
232.85,43.0
232.91,27.0
232.97,52.0
233.04,47.0
233.1,45.0
233.16,31.0
233.23,34.0
233.29,33.0
233.35,52.0
233.41,35.0
233.48,48.0
233.54,43.0
233.6,37.0
233.67,51.0
233.73,57.0
233.79,54.0
233.86,55.0
233.92,37.0
233.98,38.0
234.04,42.0
234.11,51.0
234.17,42.0
234.23,27.0
234.3,29.0
234.36,51.0
234.42,60.0
234.49,43.0
234.55,30.0
234.61,29.0
234.67,30.0
234.74,54.0
234.8,45.0
234.86,34.0
234.93,26.0
234.99,33.0
235.05,37.0
235.12,27.0
235.18,34.0
235.24,44.0
235.3,40.0
235.37,26.0
235.43,37.0
235.49,23.0
235.56,2.0
235.62,-3.0
235.68,0.0
235.75,16.0
235.81,5.0
235.87,-1.0
235.93,16.0
236.0,15.0
236.06,17.0
236.12,2.0
236.19,37.0
236.25,30.0
236.31,36.0
236.38,32.0
236.44,38.0
236.5,39.0
236.56,27.0
236.63,18.0
236.69,14.0
236.75,6.0
236.82,19.0
236.88,24.0
236.94,11.0
237.01,7.0
237.07,19.0
237.13,25.0
237.19,22.0
237.26,17.0
237.32,32.0
237.38,23.0
237.45,6.0
237.51,-7.0
237.57,5.0
237.64,20.0
237.7,6.0
237.76,24.0
237.82,19.0
237.89,32.0
237.95,49.0
238.01,42.0
238.08,38.0
238.14,47.0
238.2,27.0
238.27,24.0
238.33,11.0
238.39,8.0
238.45,21.0
238.52,24.0
238.58,31.0
238.64,36.0
238.71,39.0
238.77,57.0
238.83,45.0
238.9,50.0
238.96,63.0
239.02,72.0
239.08,69.0
239.15,55.0
239.21,26.0
239.27,11.0
239.34,31.0
239.4,17.0
239.46,17.0
239.53,52.0
239.59,41.0
239.65,46.0
239.71,26.0
239.78,17.0
239.84,28.0
239.9,48.0
239.97,62.0
240.03,66.0
240.09,74.0
240.16,59.0
240.22,53.0
240.28,71.0
240.34,67.0
240.41,64.0
240.47,39.0
240.53,34.0
240.6,47.0
240.66,39.0
240.72,47.0
240.79,68.0
240.85,71.0
240.91,64.0
240.97,63.0
241.04,47.0
241.1,41.0
241.16,52.0
241.23,58.0
241.29,90.0
241.35,82.0
241.42,90.0
241.48,104.0
241.54,95.0
241.6,81.0
241.67,93.0
241.73,96.0
241.79,99.0
241.86,77.0
241.92,93.0
241.98,89.0
242.05,94.0
242.11,104.0
242.17,93.0
242.23,100.0
242.3,105.0
242.36,122.0
242.42,115.0
242.49,123.0
242.55,118.0
242.61,137.0
242.68,140.0
242.74,124.0
242.8,133.0
242.86,142.0
242.93,128.0
242.99,137.0
243.05,145.0
243.12,130.0
243.18,141.0
243.24,138.0
243.31,152.0
243.37,143.0
243.43,165.0
243.49,151.0
243.56,144.0
243.62,153.0
243.68,152.0
243.75,161.0
243.81,149.0
243.87,161.0
243.94,159.0
244.0,167.0
244.06,153.0
244.12,147.0
244.19,159.0
244.25,159.0
244.31,156.0
244.38,152.0
244.44,165.0
244.5,156.0
244.57,168.0
244.63,157.0
244.69,145.0
244.75,139.0
244.82,143.0
244.88,157.0
244.94,174.0
245.01,155.0
245.07,129.0
245.13,128.0
245.2,135.0
245.26,138.0
245.32,147.0
245.38,141.0
245.45,151.0
245.51,130.0
245.57,123.0
245.64,145.0
245.7,127.0
245.76,138.0
245.83,163.0
245.89,147.0
245.95,141.0
246.01,136.0
246.08,159.0
246.14,150.0
246.2,160.0
246.27,171.0
246.33,162.0
246.39,161.0
246.46,154.0
246.52,158.0
246.58,139.0
246.64,143.0
246.71,152.0
246.77,146.0
246.83,129.0
246.9,149.0
246.96,161.0
247.02,146.0
247.09,134.0
247.15,160.0
247.21,142.0
247.27,131.0
247.34,122.0
247.4,98.0
247.46,112.0
247.53,109.0
247.59,120.0
247.65,123.0
247.72,123.0
247.78,124.0
247.84,142.0
247.9,138.0
247.97,143.0
248.03,153.0
248.09,144.0
248.16,123.0
248.22,119.0
248.28,143.0
248.35,138.0
248.41,142.0
248.47,166.0
248.53,174.0
248.6,138.0
248.66,142.0
248.72,150.0
248.79,142.0
248.85,123.0
248.91,127.0
248.98,141.0
249.04,131.0
249.1,134.0
249.16,129.0
249.23,126.0
249.29,124.0
249.35,119.0
249.42,108.0
249.48,93.0
249.54,108.0
249.61,97.0
249.67,99.0
249.73,114.0
249.79,91.0
249.86,89.0
249.92,112.0
249.98,97.0
250.05,101.0
250.11,82.0
250.17,86.0
250.24,108.0
250.3,120.0
250.36,101.0
250.42,91.0
250.49,105.0
250.55,117.0
250.61,96.0
250.68,90.0
250.74,86.0
250.8,63.0
250.87,66.0
250.93,50.0
250.99,41.0
251.05,52.0
251.12,33.0
251.18,61.0
251.24,50.0
251.31,38.0
251.37,46.0
251.43,59.0
251.5,51.0
251.56,44.0
251.62,43.0
251.68,50.0
251.75,58.0
251.81,60.0
251.87,66.0
251.94,65.0
252.0,66.0
252.06,58.0
252.13,50.0
252.19,23.0
252.25,30.0
252.31,24.0
252.38,41.0
252.44,39.0
252.5,49.0
252.57,46.0
252.63,40.0
252.69,47.0
252.76,39.0
252.82,40.0
252.88,33.0
252.94,36.0
253.01,33.0
253.07,44.0
253.13,20.0
253.2,39.0
253.26,32.0
253.32,15.0
253.39,28.0
253.45,25.0
253.51,24.0
253.57,26.0
253.64,23.0
253.7,10.0
253.76,24.0
253.83,17.0
253.89,38.0
253.95,34.0
254.02,28.0
254.08,22.0
254.14,17.0
254.2,27.0
254.27,32.0
254.33,41.0
254.39,20.0
254.46,10.0
254.52,13.0
254.58,18.0
254.65,18.0
254.71,28.0
254.77,15.0
254.83,-1.0
254.9,14.0
254.96,16.0
255.02,20.0
255.09,1.0
255.15,-1.0
255.21,14.0
255.28,12.0
255.34,1.0
255.4,23.0
255.46,19.0
255.53,-1.0
255.59,12.0
255.65,4.0
255.72,-7.0
255.78,-4.0
255.84,6.0
255.91,-10.0
255.97,-5.0
256.03,-10.0
256.09,2.0
256.16,-12.0
256.22,12.0
256.28,18.0
256.35,6.0
256.41,8.0
256.47,18.0
256.54,4.0
256.6,5.0
256.66,16.0
256.72,16.0
256.79,5.0
256.85,18.0
256.91,33.0
256.98,20.0
257.04,22.0
257.1,21.0
257.17,16.0
257.23,24.0
257.29,47.0
257.35,55.0
257.42,50.0
257.48,44.0
257.54,43.0
257.61,25.0
257.67,24.0
257.73,15.0
257.8,26.0
257.86,35.0
257.92,36.0
257.98,29.0
258.05,38.0
258.11,44.0
258.17,26.0
258.24,40.0
258.3,49.0
258.36,46.0
258.43,36.0
258.49,62.0
258.55,58.0
258.61,64.0
258.68,73.0
258.74,69.0
258.8,96.0
258.87,79.0
258.93,91.0
258.99,69.0
259.06,62.0
259.12,71.0
259.18,69.0
259.24,86.0
259.31,98.0
259.37,79.0
259.43,108.0
259.5,114.0
259.56,100.0
259.62,91.0
259.69,95.0
259.75,113.0
259.81,105.0
259.87,116.0
259.94,118.0
260.0,136.0
260.06,106.0
260.13,119.0
260.19,102.0
260.25,128.0
260.32,110.0
260.38,116.0
260.44,130.0
260.5,120.0
260.57,111.0
260.63,132.0
260.69,135.0
260.76,123.0
260.82,135.0
260.88,107.0
260.95,90.0
261.01,96.0
261.07,121.0
261.13,116.0
261.2,117.0
261.26,114.0
261.32,128.0
261.39,137.0
261.45,137.0
261.51,150.0
261.58,147.0
261.64,147.0
261.7,138.0
261.76,134.0
261.83,139.0
261.89,145.0
261.95,145.0
262.02,145.0
262.08,139.0
262.14,140.0
262.21,140.0
262.27,135.0
262.33,143.0
262.39,143.0
262.46,139.0
262.52,137.0
262.58,142.0
262.65,115.0
262.71,130.0
262.77,147.0
262.84,128.0
262.9,126.0
262.96,128.0
263.02,115.0
263.09,121.0
263.15,116.0
263.21,128.0
263.28,122.0
263.34,125.0
263.4,115.0
263.47,127.0
263.53,136.0
263.59,139.0
263.65,125.0
263.72,141.0
263.78,154.0
263.84,152.0
263.91,154.0
263.97,136.0
264.03,130.0
264.1,137.0
264.16,123.0
264.22,109.0
264.28,112.0
264.35,141.0
264.41,133.0
264.47,130.0
264.54,118.0
264.6,117.0
264.66,112.0
264.73,110.0
264.79,106.0
264.85,101.0
264.91,106.0
264.98,100.0
265.04,82.0
265.1,89.0
265.17,87.0
265.23,102.0
265.29,104.0
265.36,82.0
265.42,73.0
265.48,105.0
265.54,114.0
265.61,112.0
265.67,95.0
265.73,95.0
265.8,91.0
265.86,83.0
265.92,113.0
265.99,101.0
266.05,91.0
266.11,100.0
266.17,91.0
266.24,85.0
266.3,92.0
266.36,80.0
266.43,99.0
266.49,106.0
266.55,81.0
266.62,80.0
266.68,106.0
266.74,95.0
266.8,70.0
266.87,71.0
266.93,91.0
266.99,84.0
267.06,80.0
267.12,90.0
267.18,76.0
267.25,90.0
267.31,71.0
267.37,82.0
267.43,93.0
267.5,89.0
267.56,71.0
267.62,81.0
267.69,94.0
267.75,77.0
267.81,96.0
267.88,88.0
267.94,77.0
268.0,71.0
268.06,63.0
268.13,79.0
268.19,55.0
268.25,76.0
268.32,68.0
268.38,51.0
268.44,82.0
268.51,85.0
268.57,74.0
268.63,63.0
268.69,60.0
268.76,65.0
268.82,62.0
268.88,49.0
268.95,43.0
269.01,47.0
269.07,69.0
269.14,57.0
269.2,41.0
269.26,33.0
269.32,37.0
269.39,48.0
269.45,26.0
269.51,32.0
269.58,54.0
269.64,45.0
269.7,37.0
269.77,50.0
269.83,29.0
269.89,52.0
269.95,59.0
270.02,33.0
270.08,34.0
270.14,30.0
270.21,39.0
270.27,26.0
270.33,41.0
270.4,37.0
270.46,51.0
270.52,37.0
270.58,54.0
270.65,47.0
270.71,63.0
270.77,48.0
270.84,36.0
270.9,60.0
270.96,45.0
271.03,47.0
271.09,40.0
271.15,40.0
271.21,46.0
271.28,58.0
271.34,50.0
271.4,56.0
271.47,78.0
271.53,60.0
271.59,68.0
271.66,64.0
271.72,65.0
271.78,88.0
271.84,68.0
271.91,64.0
271.97,57.0
272.03,53.0
272.1,68.0
272.16,62.0
272.22,62.0
272.29,58.0
272.35,55.0
272.41,48.0
272.47,68.0
272.54,64.0
272.6,47.0
272.66,49.0
272.73,30.0
272.79,37.0
272.85,51.0
272.92,66.0
272.98,54.0
273.04,60.0
273.1,79.0
273.17,58.0
273.23,59.0
273.29,63.0
273.36,53.0
273.42,60.0
273.48,61.0
273.55,61.0
273.61,56.0
273.67,46.0
273.73,58.0
273.8,57.0
273.86,77.0
273.92,60.0
273.99,76.0
274.05,69.0
274.11,77.0
274.18,92.0
274.24,105.0
274.3,119.0
274.36,110.0
274.43,109.0
274.49,113.0
274.55,102.0
274.62,99.0
274.68,86.0
274.74,110.0
274.81,106.0
274.87,126.0
274.93,91.0
274.99,79.0
275.06,79.0
275.12,88.0
275.18,93.0
275.25,98.0
275.31,123.0
275.37,124.0
275.44,127.0
275.5,121.0
275.56,111.0
275.62,104.0
275.69,114.0
275.75,145.0
275.81,125.0
275.88,127.0
275.94,100.0
276.0,113.0
276.07,119.0
276.13,126.0
276.19,126.0
276.25,134.0
276.32,153.0
276.38,148.0
276.44,144.0
276.51,143.0
276.57,161.0
276.63,157.0
276.7,159.0
276.76,150.0
276.82,143.0
276.88,132.0
276.95,120.0
277.01,134.0
277.07,136.0
277.14,164.0
277.2,164.0
277.26,141.0
277.33,139.0
277.39,148.0
277.45,147.0
277.51,138.0
277.58,145.0
277.64,168.0
277.7,176.0
277.77,160.0
277.83,167.0
277.89,162.0
277.96,178.0
278.02,187.0
278.08,174.0
278.14,166.0
278.21,156.0
278.27,163.0
278.33,161.0
278.4,162.0
278.46,168.0
278.52,169.0
278.59,188.0
278.65,176.0
278.71,158.0
278.77,160.0
278.84,153.0
278.9,169.0
278.96,169.0
279.03,159.0
279.09,143.0
279.15,145.0
279.22,143.0
279.28,157.0
279.34,172.0
279.4,148.0
279.47,172.0
279.53,171.0
279.59,175.0
279.66,165.0
279.72,172.0
279.78,165.0
279.85,153.0
279.91,150.0
279.97,146.0
280.03,159.0
280.1,141.0
280.16,140.0
280.22,164.0
280.29,137.0
280.35,158.0
280.41,158.0
280.48,128.0
280.54,132.0
280.6,139.0
280.66,132.0
280.73,128.0
280.79,130.0
280.85,144.0
280.92,144.0
280.98,133.0
281.04,118.0
281.11,123.0
281.17,130.0
281.23,137.0
281.29,137.0
281.36,112.0
281.42,97.0
281.48,112.0
281.55,116.0
281.61,121.0
281.67,122.0
281.74,140.0
281.8,138.0
281.86,120.0
281.92,99.0
281.99,92.0
282.05,114.0
282.11,114.0
282.18,117.0
282.24,103.0
282.3,134.0
282.37,124.0
282.43,96.0
282.49,104.0
282.55,88.0
282.62,101.0
282.68,111.0
282.74,112.0
282.81,106.0
282.87,97.0
282.93,121.0
283.0,104.0
283.06,96.0
283.12,110.0
283.18,92.0
283.25,97.0
283.31,89.0
283.37,90.0
283.44,91.0
283.5,77.0
283.56,91.0
283.63,87.0
283.69,59.0
283.75,68.0
283.81,73.0
283.88,56.0
283.94,60.0
284.0,40.0
284.07,26.0
284.13,26.0
284.19,29.0
284.26,24.0
284.32,22.0
284.38,33.0
284.44,51.0
284.51,35.0
284.57,21.0
284.63,22.0
284.7,18.0
284.76,38.0
284.82,28.0
284.89,37.0
284.95,47.0
285.01,57.0
285.07,63.0
285.14,51.0
285.2,25.0
285.26,32.0
285.33,52.0
285.39,42.0
285.45,48.0
285.52,33.0
285.58,24.0
285.64,24.0
285.7,31.0
285.77,24.0
285.83,37.0
285.89,26.0
285.96,33.0
286.02,43.0
286.08,29.0
286.15,34.0
286.21,44.0
286.27,46.0
286.33,42.0
286.4,52.0
286.46,66.0
286.52,69.0
286.59,53.0
286.65,62.0
286.71,45.0
286.78,46.0
286.84,38.0
286.9,33.0
286.96,49.0
287.03,53.0
287.09,60.0
287.15,63.0
287.22,47.0
287.28,60.0
287.34,55.0
287.41,60.0
287.47,43.0
287.53,71.0
287.59,77.0
287.66,45.0
287.72,50.0
287.78,38.0
287.85,59.0
287.91,68.0
287.97,79.0
288.04,51.0
288.1,35.0
288.16,64.0
288.22,62.0
288.29,63.0
288.35,69.0
288.41,44.0
288.48,43.0
288.54,48.0
288.6,51.0
288.67,40.0
288.73,40.0
288.79,44.0
288.85,37.0
288.92,29.0
288.98,18.0
289.04,18.0
289.11,26.0
289.17,44.0
289.23,25.0
289.3,15.0
289.36,42.0
289.42,34.0
289.48,51.0
289.55,49.0
289.61,60.0
289.67,51.0
289.74,58.0
289.8,40.0
289.86,31.0
289.93,34.0
289.99,18.0
290.05,37.0
290.11,3.0
290.18,-19.0
290.24,2.0
290.3,12.0
290.37,-1.0
290.43,-4.0
290.49,-19.0
290.56,31.0
290.62,15.0
290.68,6.0
290.74,12.0
290.81,30.0
290.87,13.0
290.93,12.0
291.0,4.0
291.06,19.0
291.12,29.0
291.19,15.0
291.25,14.0
291.31,15.0
291.37,25.0
291.44,15.0
291.5,15.0
291.56,28.0
291.63,26.0
291.69,25.0
291.75,34.0
291.82,43.0
291.88,30.0
291.94,26.0
292.0,42.0
292.07,52.0
292.13,42.0
292.19,44.0
292.26,41.0
292.32,43.0
292.38,49.0
292.45,60.0
292.51,53.0
292.57,58.0
292.63,71.0
292.7,83.0
292.76,80.0
292.82,60.0
292.89,68.0
292.95,75.0
293.01,91.0
293.08,97.0
293.14,97.0
293.2,118.0
293.26,132.0
293.33,115.0
293.39,111.0
293.45,115.0
293.52,96.0
293.58,104.0
293.64,99.0
293.71,110.0
293.77,122.0
293.83,128.0
293.89,110.0
293.96,118.0
294.02,120.0
294.08,127.0
294.15,118.0
294.21,112.0
294.27,117.0
294.34,118.0
294.4,113.0
294.46,126.0
294.52,114.0
294.59,122.0
294.65,123.0
294.71,124.0
294.78,140.0
294.84,131.0
294.9,120.0
294.97,149.0
295.03,153.0
295.09,151.0
295.15,154.0
295.22,150.0
295.28,140.0
295.34,151.0
295.41,157.0
295.47,140.0
295.53,144.0
295.6,148.0
295.66,144.0
295.72,177.0
295.78,154.0
295.85,145.0
295.91,148.0
295.97,143.0
296.04,156.0
296.1,157.0
296.16,147.0
296.23,135.0
296.29,149.0
296.35,149.0
296.41,155.0
296.48,168.0
296.54,157.0
296.6,152.0
296.67,146.0
296.73,142.0
296.79,147.0
296.86,146.0
296.92,148.0
296.98,154.0
297.04,166.0
297.11,181.0
297.17,158.0
297.23,159.0
297.3,152.0
297.36,149.0
297.42,174.0
297.49,170.0
297.55,159.0
297.61,146.0
297.67,162.0
297.74,174.0
297.8,154.0
297.86,181.0
297.93,168.0
297.99,167.0
298.05,163.0
298.12,148.0
298.18,169.0
298.24,167.0
298.3,149.0
298.37,144.0
298.43,149.0
298.49,146.0
298.56,146.0
298.62,145.0
298.68,126.0
298.75,112.0
298.81,108.0
298.87,114.0
298.93,100.0
299.0,112.0
299.06,102.0
299.12,112.0
299.19,140.0
299.25,137.0
299.31,141.0
299.38,129.0
299.44,125.0
299.5,125.0
299.56,126.0
299.63,165.0
299.69,143.0
299.75,131.0
299.82,139.0
299.88,131.0
299.94,130.0
300.01,123.0
300.07,113.0
300.13,104.0
300.19,111.0
300.26,113.0
300.32,107.0
300.38,88.0
300.45,81.0
300.51,86.0
300.57,77.0
300.64,103.0
300.7,99.0
300.76,83.0
300.82,76.0
300.89,64.0
300.95,66.0
301.01,50.0
301.08,64.0
301.14,88.0
301.2,75.0
301.27,76.0
301.33,82.0
301.39,79.0
301.45,63.0
301.52,56.0
301.58,71.0
301.64,84.0
301.71,93.0
301.77,92.0
301.83,91.0
301.9,79.0
301.96,96.0
302.02,88.0
302.08,94.0
302.15,96.0
302.21,111.0
302.27,106.0
302.34,87.0
302.4,86.0
302.46,94.0
302.53,107.0
302.59,92.0
302.65,80.0
302.71,92.0
302.78,94.0
302.84,90.0
302.9,94.0
302.97,98.0
303.03,80.0
303.09,76.0
303.16,72.0
303.22,81.0
303.28,83.0
303.34,67.0
303.41,81.0
303.47,89.0
303.53,66.0
303.6,66.0
303.66,75.0
303.72,70.0
303.79,52.0
303.85,56.0
303.91,43.0
303.97,50.0
304.04,54.0
304.1,67.0
304.16,59.0
304.23,39.0
304.29,76.0
304.35,52.0
304.42,53.0
304.48,49.0
304.54,74.0
304.6,90.0
304.67,61.0
304.73,63.0
304.79,66.0
304.86,69.0
304.92,59.0
304.98,62.0
305.05,57.0
305.11,59.0
305.17,44.0
305.23,37.0
305.3,35.0
305.36,26.0
305.42,37.0
305.49,19.0
305.55,20.0
305.61,23.0
305.68,35.0
305.74,37.0
305.8,26.0
305.86,43.0
305.93,26.0
305.99,34.0
306.05,36.0
306.12,25.0
306.18,36.0
306.24,34.0
306.31,24.0
306.37,38.0
306.43,25.0
306.49,33.0
306.56,27.0
306.62,2.0
306.68,31.0
306.75,3.0
306.81,15.0
306.87,22.0
306.94,16.0
307.0,12.0
307.06,2.0
307.12,8.0
307.19,0.0
307.25,-4.0
307.31,-1.0
307.38,13.0
307.44,10.0
307.5,-2.0
307.57,2.0
307.63,1.0
307.69,-1.0
307.75,13.0
307.82,26.0
307.88,20.0
307.94,29.0
308.01,21.0
308.07,19.0
308.13,17.0
308.2,20.0
308.26,42.0
308.32,39.0
308.38,34.0
308.45,36.0
308.51,29.0
308.57,37.0
308.64,40.0
308.7,24.0
308.76,20.0
308.83,18.0
308.89,38.0
308.95,33.0
309.01,26.0
309.08,12.0
309.14,32.0
309.2,34.0
309.27,35.0
309.33,49.0
309.39,52.0
309.46,45.0
309.52,48.0
309.58,60.0
309.64,59.0
309.71,57.0
309.77,79.0
309.83,68.0
309.9,58.0
309.96,77.0
310.02,86.0
310.09,68.0
310.15,81.0
310.21,92.0
310.27,89.0
310.34,90.0
310.4,72.0
310.46,88.0
310.53,105.0
310.59,100.0
310.65,86.0
310.72,89.0
310.78,102.0
310.84,93.0
310.9,100.0
310.97,94.0
311.03,86.0
311.09,90.0
311.16,86.0
311.22,90.0
311.28,105.0
311.35,98.0
311.41,92.0
311.47,72.0
311.53,83.0
311.6,103.0
311.66,97.0
311.72,90.0
311.79,88.0
311.85,118.0
311.91,115.0
311.98,103.0
312.04,117.0
312.1,94.0
312.16,115.0
312.23,108.0
312.29,120.0
312.35,124.0
312.42,112.0
312.48,115.0
312.54,134.0
312.61,113.0
312.67,111.0
312.73,108.0
312.79,104.0
312.86,114.0
312.92,145.0
312.98,134.0
313.05,143.0
313.11,132.0
313.17,111.0
313.24,131.0
313.3,127.0
313.36,142.0
313.42,109.0
313.49,113.0
313.55,148.0
313.61,133.0
313.68,120.0
313.74,141.0
313.8,158.0
313.87,152.0
313.93,156.0
313.99,162.0
314.05,138.0
314.12,118.0
314.18,115.0
314.24,131.0
314.31,137.0
314.37,140.0
314.43,122.0
314.5,119.0
314.56,133.0
314.62,126.0
314.68,134.0
314.75,127.0
314.81,109.0
314.87,112.0
314.94,113.0
315.0,141.0
315.06,134.0
315.13,134.0
315.19,156.0
315.25,158.0
315.31,149.0
315.38,159.0
315.44,165.0
315.5,162.0
315.57,174.0
315.63,168.0
315.69,182.0
315.76,171.0
315.82,143.0
315.88,163.0
315.94,143.0
316.01,152.0
316.07,162.0
316.13,164.0
316.2,167.0
316.26,177.0
316.32,162.0
316.39,154.0
316.45,160.0
316.51,165.0
316.57,154.0
316.64,172.0
316.7,154.0
316.76,132.0
316.83,149.0
316.89,149.0
316.95,136.0
317.02,159.0
317.08,172.0
317.14,148.0
317.2,143.0
317.27,152.0
317.33,149.0
317.39,146.0
317.46,158.0
317.52,128.0
317.58,136.0
317.65,124.0
317.71,100.0
317.77,105.0
317.83,115.0
317.9,112.0
317.96,104.0
318.02,115.0
318.09,108.0
318.15,105.0
318.21,91.0
318.28,82.0
318.34,100.0
318.4,93.0
318.46,97.0
318.53,102.0
318.59,108.0
318.65,127.0
318.72,133.0
318.78,119.0
318.84,98.0
318.91,114.0
318.97,100.0
319.03,101.0
319.09,121.0
319.16,111.0
319.22,106.0
319.28,109.0
319.35,113.0
319.41,115.0
319.47,102.0
319.54,90.0
319.6,123.0
319.66,104.0
319.72,75.0
319.79,83.0
319.85,85.0
319.91,80.0
319.98,93.0
320.04,81.0
320.1,86.0
320.17,101.0
320.23,103.0
320.29,95.0
320.35,108.0
320.42,121.0
320.48,124.0
320.54,120.0
320.61,116.0
320.67,107.0
320.73,122.0
320.8,102.0
320.86,99.0
320.92,97.0
320.98,91.0
321.05,105.0
321.11,105.0
321.17,107.0
321.24,84.0
321.3,89.0
321.36,91.0
321.43,92.0
321.49,76.0
321.55,76.0
321.61,69.0
321.68,54.0
321.74,77.0
321.8,87.0
321.87,64.0
321.93,64.0
321.99,58.0
322.06,66.0
322.12,55.0
322.18,49.0
322.24,64.0
322.31,58.0
322.37,56.0
322.43,56.0
322.5,67.0
322.56,61.0
322.62,50.0
322.69,64.0
322.75,33.0
322.81,49.0
322.87,50.0
322.94,43.0
323.0,40.0
323.06,29.0
323.13,42.0
323.19,40.0
323.25,33.0
323.32,52.0
323.38,32.0
323.44,48.0
323.5,56.0
323.57,39.0
323.63,45.0
323.69,42.0
323.76,56.0
323.82,57.0
323.88,62.0
323.95,57.0
324.01,70.0
324.07,64.0
324.13,52.0
324.2,67.0
324.26,59.0
324.32,51.0
324.39,67.0
324.45,62.0
324.51,59.0
324.58,64.0
324.64,69.0
324.7,53.0
324.76,55.0
324.83,68.0
324.89,80.0
324.95,91.0
325.02,70.0
325.08,62.0
325.14,65.0
325.21,69.0
325.27,87.0
325.33,74.0
325.39,60.0
325.46,82.0
325.52,75.0
325.58,79.0
325.65,65.0
325.71,56.0
325.77,71.0
325.84,86.0
325.9,72.0
325.96,60.0
326.02,75.0
326.09,72.0
326.15,72.0
326.21,61.0
326.28,65.0
326.34,79.0
326.4,86.0
326.47,101.0
326.53,113.0
326.59,88.0
326.65,72.0
326.72,84.0
326.78,101.0
326.84,114.0
326.91,98.0
326.97,105.0
327.03,108.0
327.1,108.0
327.16,112.0
327.22,112.0
327.28,108.0
327.35,110.0
327.41,117.0
327.47,94.0
327.54,123.0
327.6,119.0
327.66,116.0
327.73,112.0
327.79,106.0
327.85,105.0
327.91,117.0
327.98,109.0
328.04,108.0
328.1,108.0
328.17,112.0
328.23,127.0
328.29,132.0
328.36,136.0
328.42,114.0
328.48,138.0
328.54,121.0
328.61,118.0
328.67,127.0
328.73,126.0
328.8,139.0
328.86,144.0
328.92,141.0
328.99,136.0
329.05,147.0
329.11,149.0
329.17,120.0
329.24,137.0
329.3,149.0
329.36,114.0
329.43,112.0
329.49,123.0
329.55,111.0
329.62,135.0
329.68,120.0
329.74,131.0
329.8,139.0
329.87,136.0
329.93,130.0
329.99,119.0
330.06,133.0
330.12,129.0
330.18,139.0
330.25,155.0
330.31,150.0
330.37,151.0
330.43,158.0
330.5,137.0
330.56,140.0
330.62,158.0
330.69,160.0
330.75,158.0
330.81,150.0
330.88,141.0
330.94,126.0
331.0,128.0
331.06,141.0
331.13,135.0
331.19,159.0
331.25,143.0
331.32,143.0
331.38,156.0
331.44,155.0
331.51,149.0
331.57,123.0
331.63,150.0
331.69,138.0
331.76,134.0
331.82,150.0
331.88,147.0
331.95,139.0
332.01,133.0
332.07,141.0
332.14,122.0
332.2,129.0
332.26,130.0
332.32,103.0
332.39,116.0
332.45,126.0
332.51,141.0
332.58,144.0
332.64,127.0
332.7,143.0
332.77,140.0
332.83,161.0
332.89,153.0
332.95,155.0
333.02,137.0
333.08,115.0
333.14,102.0
333.21,125.0
333.27,124.0
333.33,106.0
333.4,117.0
333.46,136.0
333.52,130.0
333.58,116.0
333.65,116.0
333.71,114.0
333.77,115.0
333.84,101.0
333.9,93.0
333.96,87.0
334.03,75.0
334.09,77.0
334.15,81.0
334.21,90.0
334.28,106.0
334.34,94.0
334.4,88.0
334.47,108.0
334.53,94.0
334.59,77.0
334.66,94.0
334.72,106.0
334.78,82.0
334.84,93.0
334.91,79.0
334.97,106.0
335.03,100.0
335.1,78.0
335.16,72.0
335.22,77.0
335.29,53.0
335.35,70.0
335.41,92.0
335.47,62.0
335.54,60.0
335.6,88.0
335.66,80.0
335.73,73.0
335.79,53.0
335.85,44.0
335.92,60.0
335.98,61.0
336.04,64.0
336.1,68.0
336.17,67.0
336.23,45.0
336.29,62.0
336.36,75.0
336.42,87.0
336.48,84.0
336.55,100.0
336.61,64.0
336.67,55.0
336.73,64.0
336.8,50.0
336.86,57.0
336.92,54.0
336.99,64.0
337.05,54.0
337.11,52.0
337.18,53.0
337.24,68.0
337.3,50.0
337.36,50.0
337.43,45.0
337.49,32.0
337.55,45.0
337.62,42.0
337.68,35.0
337.74,49.0
337.81,38.0
337.87,52.0
337.93,51.0
337.99,60.0
338.06,42.0
338.12,48.0
338.18,54.0
338.25,28.0
338.31,57.0
338.37,45.0
338.44,42.0
338.5,37.0
338.56,52.0
338.62,56.0
338.69,44.0
338.75,61.0
338.81,61.0
338.88,62.0
338.94,64.0
339.0,54.0
339.07,39.0
339.13,45.0
339.19,52.0
339.25,44.0
339.32,48.0
339.38,49.0
339.44,31.0
339.51,38.0
339.57,29.0
339.63,40.0
339.7,20.0
339.76,32.0
339.82,44.0
339.88,36.0
339.95,24.0
340.01,37.0
340.07,24.0
340.14,38.0
340.2,24.0
340.26,15.0
340.33,6.0
340.39,17.0
340.45,32.0
340.51,-2.0
340.58,-1.0
340.64,9.0
340.7,12.0
340.77,7.0
340.83,15.0
340.89,13.0
340.96,5.0
341.02,-1.0
341.08,2.0
341.14,18.0
341.21,22.0
341.27,13.0
341.33,10.0
341.4,19.0
341.46,7.0
341.52,17.0
341.59,19.0
341.65,15.0
341.71,22.0
341.77,21.0
341.84,32.0
341.9,30.0
341.96,37.0
342.03,42.0
342.09,48.0
342.15,34.0
342.22,37.0
342.28,21.0
342.34,30.0
342.4,42.0
342.47,46.0
342.53,46.0
342.59,63.0
342.66,57.0
342.72,45.0
342.78,34.0
342.85,51.0
342.91,46.0
342.97,63.0
343.03,71.0
343.1,54.0
343.16,55.0
343.22,58.0
343.29,57.0
343.35,58.0
343.41,67.0
343.48,57.0
343.54,56.0
343.6,61.0
343.66,56.0
343.73,62.0
343.79,69.0
343.85,84.0
343.92,67.0
343.98,78.0
344.04,84.0
344.11,79.0
344.17,66.0
344.23,67.0
344.29,66.0
344.36,52.0
344.42,62.0
344.48,56.0
344.55,51.0
344.61,46.0
344.67,52.0
344.74,60.0
344.8,70.0
344.86,77.0
344.92,71.0
344.99,60.0
345.05,69.0
345.11,59.0
345.18,85.0
345.24,66.0
345.3,72.0
345.37,69.0
345.43,78.0
345.49,83.0
345.55,70.0
345.62,79.0
345.68,79.0
345.74,72.0
345.81,79.0
345.87,88.0
345.93,67.0
346.0,78.0
346.06,104.0
346.12,92.0
346.18,106.0
346.25,117.0
346.31,94.0
346.37,86.0
346.44,104.0
346.5,79.0
346.56,61.0
346.63,74.0
346.69,81.0
346.75,95.0
346.81,95.0
346.88,86.0
346.94,92.0
347.0,75.0
347.07,74.0
347.13,77.0
347.19,101.0
347.26,113.0
347.32,106.0
347.38,103.0
347.44,103.0
347.51,107.0
347.57,82.0
347.63,91.0
347.7,96.0
347.76,101.0
347.82,87.0
347.89,82.0
347.95,91.0
348.01,97.0
348.07,65.0
348.14,70.0
348.2,79.0
348.26,66.0
348.33,95.0
348.39,76.0
348.45,92.0
348.52,94.0
348.58,70.0
348.64,80.0
348.7,96.0
348.77,110.0
348.83,103.0
348.89,89.0
348.96,97.0
349.02,92.0
349.08,106.0
349.15,95.0
349.21,137.0
349.27,132.0
349.33,136.0
349.4,148.0
349.46,137.0
349.52,152.0
349.59,165.0
349.65,162.0
349.71,150.0
349.78,157.0
349.84,161.0
349.9,149.0
349.96,150.0
350.03,162.0
350.09,166.0
350.15,158.0
350.22,161.0
350.28,140.0
350.34,145.0
350.41,151.0
350.47,135.0
350.53,128.0
350.59,139.0
350.66,111.0
350.72,105.0
350.78,117.0
350.85,130.0
350.91,129.0
350.97,123.0
351.04,126.0
351.1,120.0
351.16,101.0
351.22,132.0
351.29,129.0
351.35,123.0
351.41,109.0
351.48,100.0
351.54,101.0
351.6,79.0
351.67,77.0
351.73,101.0
351.79,109.0
351.85,110.0
351.92,103.0
351.98,98.0
352.04,102.0
352.11,102.0
352.17,109.0
352.23,98.0
352.3,86.0
352.36,86.0
352.42,74.0
352.48,97.0
352.55,95.0
352.61,79.0
352.67,83.0
352.74,87.0
352.8,85.0
352.86,81.0
352.93,84.0
352.99,84.0
353.05,98.0
353.11,96.0
353.18,90.0
353.24,95.0
353.3,103.0
353.37,104.0
353.43,95.0
353.49,87.0
353.56,87.0
353.62,97.0
353.68,92.0
353.74,84.0
353.81,88.0
353.87,84.0
353.93,91.0
354.0,111.0
354.06,108.0
354.12,89.0
354.19,85.0
354.25,108.0
354.31,100.0
354.37,102.0
354.44,113.0
354.5,133.0
354.56,120.0
354.63,108.0
354.69,110.0
354.75,110.0
354.82,96.0
354.88,102.0
354.94,115.0
355.0,80.0
355.07,82.0
355.13,71.0
355.19,70.0
355.26,67.0
355.32,79.0
355.38,70.0
355.45,53.0
355.51,74.0
355.57,64.0
355.63,69.0
355.7,55.0
355.76,63.0
355.82,71.0
355.89,70.0
355.95,77.0
356.01,82.0
356.08,62.0
356.14,73.0
356.2,76.0
356.26,74.0
356.33,88.0
356.39,88.0
356.45,84.0
356.52,75.0
356.58,70.0
356.64,88.0
356.71,89.0
356.77,68.0
356.83,57.0
356.89,50.0
356.96,66.0
357.02,79.0
357.08,71.0
357.15,65.0
357.21,50.0
357.27,35.0
357.34,35.0
357.4,43.0
357.46,53.0
357.52,51.0
357.59,61.0
357.65,59.0
357.71,46.0
357.78,65.0
357.84,70.0
357.9,49.0
357.97,32.0
358.03,52.0
358.09,56.0
358.15,66.0
358.22,98.0
358.28,90.0
358.34,87.0
358.41,93.0
358.47,80.0
358.53,96.0
358.6,105.0
358.66,78.0
358.72,95.0
358.78,95.0
358.85,99.0
358.91,74.0
358.97,69.0
359.04,76.0
359.1,94.0
359.16,84.0
359.23,99.0
359.29,95.0
359.35,87.0
359.41,102.0
359.48,89.0
359.54,90.0
359.6,53.0
359.67,60.0
359.73,77.0
359.79,79.0
359.86,82.0
359.92,73.0
359.98,63.0
360.04,91.0
360.11,90.0
360.17,94.0
360.23,110.0
360.3,113.0
360.36,84.0
360.42,108.0
360.49,113.0
360.55,130.0
360.61,132.0
360.67,117.0
360.74,115.0
360.8,107.0
360.86,120.0
360.93,129.0
360.99,120.0
361.05,109.0
361.12,106.0
361.18,106.0
361.24,106.0
361.3,97.0
361.37,94.0
361.43,106.0
361.49,112.0
361.56,125.0
361.62,106.0
361.68,98.0
361.75,113.0
361.81,112.0
361.87,121.0
361.93,116.0
362.0,122.0
362.06,116.0
362.12,123.0
362.19,128.0
362.25,110.0
362.31,116.0
362.38,112.0
362.44,106.0
362.5,126.0
362.56,108.0
362.63,104.0
362.69,93.0
362.75,112.0
362.82,129.0
362.88,120.0
362.94,104.0
363.01,82.0
363.07,99.0
363.13,77.0
363.19,89.0
363.26,92.0
363.32,104.0
363.38,99.0
363.45,96.0
363.51,118.0
363.57,112.0
363.64,117.0
363.7,92.0
363.76,81.0
363.82,82.0
363.89,114.0
363.95,106.0
364.01,113.0
364.08,96.0
364.14,106.0
364.2,118.0
364.27,120.0
364.33,109.0
364.39,113.0
364.45,109.0
364.52,114.0
364.58,118.0
364.64,108.0
364.71,70.0
364.77,89.0
364.83,96.0
364.9,85.0
364.96,104.0
365.02,117.0
365.08,127.0
365.15,135.0
365.21,142.0
365.27,130.0
365.34,111.0
365.4,125.0
365.46,144.0
365.53,123.0
365.59,126.0
365.65,164.0
365.71,152.0
365.78,164.0
365.84,172.0
365.9,156.0
365.97,154.0
366.03,159.0
366.09,157.0
366.16,143.0
366.22,148.0
366.28,148.0
366.34,149.0
366.41,146.0
366.47,144.0
366.53,153.0
366.6,136.0
366.66,123.0
366.72,121.0
366.79,138.0
366.85,139.0
366.91,144.0
366.97,129.0
367.04,122.0
367.1,120.0
367.16,118.0
367.23,120.0
367.29,123.0
367.35,130.0
367.42,124.0
367.48,117.0
367.54,122.0
367.6,118.0
367.67,115.0
367.73,115.0
367.79,130.0
367.86,121.0
367.92,139.0
367.98,140.0
368.05,128.0
368.11,110.0
368.17,128.0
368.23,106.0
368.3,114.0
368.36,122.0
368.42,131.0
368.49,131.0
368.55,120.0
368.61,118.0
368.68,110.0
368.74,106.0
368.8,103.0
368.86,121.0
368.93,110.0
368.99,111.0
369.05,94.0
369.12,103.0
369.18,102.0
369.24,110.0
369.31,116.0
369.37,108.0
369.43,110.0
369.49,107.0
369.56,118.0
369.62,97.0
369.68,120.0
369.75,113.0
369.81,102.0
369.87,95.0
369.94,91.0
370.0,79.0
370.06,89.0
370.12,80.0
370.19,62.0
370.25,70.0
370.31,62.0
370.38,66.0
370.44,62.0
370.5,51.0
370.57,40.0
370.63,48.0
370.69,26.0
370.75,39.0
370.82,32.0
370.88,41.0
370.94,34.0
371.01,35.0
371.07,30.0
371.13,35.0
371.2,30.0
371.26,19.0
371.32,17.0
371.38,12.0
371.45,16.0
371.51,20.0
371.57,14.0
371.64,17.0
371.7,-2.0
371.76,-8.0
371.83,12.0
371.89,-3.0
371.95,1.0
372.01,-5.0
372.08,10.0
372.14,16.0
372.2,33.0
372.27,33.0
372.33,11.0
372.39,22.0
372.46,-7.0
372.52,-2.0
372.58,19.0
372.64,3.0
372.71,11.0
372.77,14.0
372.83,2.0
372.9,-6.0
372.96,-13.0
373.02,-14.0
373.09,-15.0
373.15,-11.0
373.21,-4.0
373.27,-12.0
373.34,-27.0
373.4,-31.0
373.46,-39.0
373.53,-28.0
373.59,-4.0
373.65,-1.0
373.72,-2.0
373.78,14.0
373.84,12.0
373.9,18.0
373.97,8.0
374.03,25.0
374.09,14.0
374.16,-2.0
374.22,9.0
374.28,38.0
374.35,22.0
374.41,50.0
374.47,34.0
374.53,11.0
374.6,15.0
374.66,5.0
374.72,21.0
374.79,16.0
374.85,23.0
374.91,30.0
374.98,12.0
375.04,31.0
375.1,27.0
375.16,52.0
375.23,59.0
375.29,63.0
375.35,45.0
375.42,44.0
375.48,74.0
375.54,69.0
375.61,76.0
375.67,71.0
375.73,70.0
375.79,65.0
375.86,82.0
375.92,79.0
375.98,75.0
376.05,92.0
376.11,80.0
376.17,77.0
376.24,81.0
376.3,78.0
376.36,80.0
376.42,67.0
376.49,80.0
376.55,79.0
376.61,90.0
376.68,93.0
376.74,105.0
376.8,110.0
376.87,85.0
376.93,112.0
376.99,112.0
377.05,103.0
377.12,106.0
377.18,110.0
377.24,118.0
377.31,123.0
377.37,118.0
377.43,120.0
377.5,110.0
377.56,119.0
377.62,114.0
377.68,109.0
377.75,88.0
377.81,76.0
377.87,92.0
377.94,113.0
378.0,119.0
378.06,105.0
378.13,143.0
378.19,151.0
378.25,147.0
378.31,140.0
378.38,162.0
378.44,137.0
378.5,146.0
378.57,150.0
378.63,162.0
378.69,159.0
378.76,136.0
378.82,139.0
378.88,131.0
378.94,139.0
379.01,146.0
379.07,153.0
379.13,154.0
379.2,148.0
379.26,150.0
379.32,159.0
379.39,138.0
379.45,137.0
379.51,142.0
379.57,165.0
379.64,194.0
379.7,170.0
379.76,183.0
379.83,181.0
379.89,169.0
379.95,175.0
380.02,195.0
380.08,183.0
380.14,200.0
380.2,193.0
380.27,173.0
380.33,154.0
380.39,157.0
380.46,163.0
380.52,167.0
380.58,155.0
380.65,152.0
380.71,155.0
380.77,145.0
380.83,150.0
380.9,162.0
380.96,143.0
381.02,142.0
381.09,154.0
381.15,169.0
381.21,166.0
381.28,162.0
381.34,161.0
381.4,164.0
381.46,162.0
381.53,163.0
381.59,180.0
381.65,180.0
381.72,191.0
381.78,199.0
381.84,192.0
381.91,204.0
381.97,196.0
382.03,219.0
382.09,215.0
382.16,200.0
382.22,208.0
382.28,205.0
382.35,217.0
382.41,241.0
382.47,226.0
382.54,228.0
382.6,226.0
382.66,208.0
382.72,202.0
382.79,207.0
382.85,193.0
382.91,180.0
382.98,191.0
383.04,187.0
383.1,187.0
383.17,189.0
383.23,204.0
383.29,190.0
383.35,195.0
383.42,184.0
383.48,165.0
383.54,173.0
383.61,173.0
383.67,159.0
383.73,184.0
383.8,158.0
383.86,161.0
383.92,151.0
383.98,149.0
384.05,149.0
384.11,155.0
384.17,159.0
384.24,142.0
384.3,136.0
384.36,136.0
384.43,127.0
384.49,129.0
384.55,130.0
384.61,158.0
384.68,163.0
384.74,153.0
384.8,132.0
384.87,131.0
384.93,140.0
384.99,148.0
385.06,139.0
385.12,137.0
385.18,147.0
385.24,120.0
385.31,123.0
385.37,153.0
385.43,140.0
385.5,146.0
385.56,169.0
385.62,157.0
385.69,153.0
385.75,153.0
385.81,155.0
385.87,144.0
385.94,147.0
386.0,162.0
386.06,169.0
386.13,161.0
386.19,156.0
386.25,169.0
386.32,162.0
386.38,166.0
386.44,159.0
386.5,155.0
386.57,151.0
386.63,152.0
386.69,154.0
386.76,155.0
386.82,139.0
386.88,138.0
386.95,125.0
387.01,122.0
387.07,98.0
387.13,98.0
387.2,117.0
387.26,105.0
387.32,96.0
387.39,89.0
387.45,96.0
387.51,98.0
387.58,95.0
387.64,112.0
387.7,119.0
387.76,132.0
387.83,104.0
387.89,98.0
387.95,105.0
388.02,105.0
388.08,101.0
388.14,96.0
388.21,86.0
388.27,82.0
388.33,75.0
388.39,72.0
388.46,65.0
388.52,67.0
388.58,52.0
388.65,72.0
388.71,75.0
388.77,61.0
388.84,74.0
388.9,78.0
388.96,55.0
389.02,52.0
389.09,45.0
389.15,59.0
389.21,86.0
389.28,88.0
389.34,43.0
389.4,38.0
389.47,46.0
389.53,42.0
389.59,6.0
389.65,8.0
389.72,1.0
389.78,2.0
389.84,4.0
389.91,16.0
389.97,19.0
390.03,29.0
390.1,38.0
390.16,13.0
390.22,24.0
390.28,21.0
390.35,41.0
390.41,32.0
390.47,19.0
390.54,23.0
390.6,41.0
390.66,38.0
390.73,29.0
390.79,23.0
390.85,22.0
390.91,36.0
390.98,17.0
391.04,32.0
391.1,20.0
391.17,29.0
391.23,32.0
391.29,30.0
391.36,20.0
391.42,22.0
391.48,22.0
391.54,20.0
391.61,27.0
391.67,45.0
391.73,46.0
391.8,16.0
391.86,29.0
391.92,18.0
391.99,12.0
392.05,28.0
392.11,31.0
392.17,35.0
392.24,15.0
392.3,26.0
392.36,30.0
392.43,37.0
392.49,35.0
392.55,8.0
392.62,20.0
392.68,20.0
392.74,17.0
392.8,1.0
392.87,12.0
392.93,0.0
392.99,5.0
393.06,7.0
393.12,14.0
393.18,17.0
393.25,27.0
393.31,5.0
393.37,0.0
393.43,7.0
393.5,19.0
393.56,21.0
393.62,-1.0
393.69,8.0
393.75,19.0
393.81,10.0
393.88,21.0
393.94,19.0
394.0,24.0
394.06,30.0
394.13,36.0
394.19,38.0
394.25,38.0
394.32,34.0
394.38,24.0
394.44,32.0
394.51,44.0
394.57,44.0
394.63,57.0
394.69,62.0
394.76,67.0
394.82,47.0
394.88,43.0
394.95,52.0
395.01,73.0
395.07,52.0
395.14,50.0
395.2,44.0
395.26,55.0
395.32,44.0
395.39,52.0
395.45,49.0
395.51,50.0
395.58,33.0
395.64,50.0
395.7,67.0
395.77,58.0
395.83,57.0
395.89,60.0
395.95,56.0
396.02,69.0
396.08,74.0
396.14,77.0
396.21,67.0
396.27,78.0
396.33,66.0
396.4,86.0
396.46,82.0
396.52,75.0
396.58,73.0
396.65,87.0
396.71,90.0
396.77,76.0
396.84,70.0
396.9,78.0
396.96,77.0
397.03,83.0
397.09,59.0
397.15,59.0
397.21,58.0
397.28,68.0
397.34,63.0
397.4,55.0
397.47,69.0
397.53,70.0
397.59,60.0
397.66,63.0
397.72,45.0
397.78,47.0
397.84,40.0
397.91,66.0
397.97,73.0
398.03,68.0
398.1,73.0
398.16,68.0
398.22,67.0
398.29,70.0
398.35,69.0
398.41,75.0
398.47,66.0
398.54,65.0
398.6,62.0
398.66,41.0
398.73,55.0
398.79,78.0
398.85,58.0
398.92,77.0
398.98,87.0
399.04,85.0
399.1,90.0
399.17,92.0
399.23,83.0
399.29,96.0
399.36,96.0
399.42,96.0
399.48,77.0
399.55,81.0
399.61,88.0
399.67,84.0
399.73,103.0
399.8,92.0
399.86,91.0
399.92,120.0
399.99,112.0
400.05,128.0
400.11,113.0
400.18,125.0
400.24,142.0
400.3,151.0
400.36,146.0
400.43,115.0
400.49,127.0
400.55,116.0
400.62,122.0
400.68,145.0
400.74,115.0
400.81,122.0
400.87,132.0
400.93,116.0
400.99,139.0
401.06,131.0
401.12,129.0
401.18,130.0
401.25,110.0
401.31,121.0
401.37,125.0
401.44,134.0
401.5,122.0
401.56,113.0
401.62,127.0
401.69,118.0
401.75,118.0
401.81,118.0
401.88,135.0
401.94,132.0
402.0,128.0
402.07,130.0
402.13,115.0
402.19,120.0
402.25,112.0
402.32,116.0
402.38,109.0
402.44,103.0
402.51,91.0
402.57,103.0
402.63,98.0
402.7,124.0
402.76,93.0
402.82,106.0
402.88,128.0
402.95,106.0
403.01,106.0
403.07,109.0
403.14,109.0
403.2,112.0
403.26,119.0
403.33,110.0
403.39,106.0
403.45,113.0
403.51,104.0
403.58,98.0
403.64,90.0
403.7,87.0
403.77,102.0
403.83,105.0
403.89,99.0
403.96,90.0
404.02,89.0
404.08,95.0
404.14,118.0
404.21,101.0
404.27,87.0
404.33,103.0
404.4,86.0
404.46,104.0
404.52,101.0
404.59,115.0
404.65,116.0
404.71,96.0
404.77,92.0
404.84,88.0
404.9,99.0
404.96,103.0
405.03,114.0
405.09,101.0
405.15,96.0
405.22,91.0
405.28,80.0
405.34,76.0
405.4,81.0
405.47,70.0
405.53,92.0
405.59,87.0
405.66,89.0
405.72,74.0
405.78,72.0
405.85,80.0
405.91,85.0
405.97,65.0
406.03,51.0
406.1,75.0
406.16,63.0
406.22,58.0
406.29,50.0
406.35,48.0
406.41,44.0
406.48,58.0
406.54,76.0
406.6,69.0
406.66,67.0
406.73,49.0
406.79,54.0
406.85,44.0
406.92,27.0
406.98,66.0
407.04,51.0
407.11,63.0
407.17,55.0
407.23,48.0
407.29,53.0
407.36,51.0
407.42,51.0
407.48,52.0
407.55,49.0
407.61,47.0
407.67,51.0
407.74,45.0
407.8,49.0
407.86,48.0
407.92,60.0
407.99,58.0
408.05,33.0
408.11,33.0
408.18,47.0
408.24,40.0
408.3,44.0
408.37,52.0
408.43,64.0
408.49,67.0
408.55,75.0
408.62,56.0
408.68,70.0
408.74,94.0
408.81,95.0
408.87,92.0
408.93,106.0
409.0,91.0
409.06,98.0
409.12,123.0
409.18,107.0
409.25,97.0
409.31,85.0
409.37,92.0
409.44,99.0
409.5,110.0
409.56,115.0
409.63,115.0
409.69,99.0
409.75,104.0
409.81,90.0
409.88,87.0
409.94,104.0
410.0,96.0
410.07,111.0
410.13,109.0
410.19,118.0
410.26,112.0
410.32,112.0
410.38,110.0
410.44,117.0
410.51,113.0
410.57,94.0
410.63,113.0
410.7,110.0
410.76,103.0
410.82,106.0
410.89,119.0
410.95,129.0
411.01,122.0
411.07,136.0
411.14,133.0
411.2,137.0
411.26,134.0
411.33,168.0
411.39,162.0
411.45,159.0
411.52,154.0
411.58,139.0
411.64,166.0
411.7,155.0
411.77,145.0
411.83,167.0
411.89,170.0
411.96,173.0
412.02,165.0
412.08,164.0
412.15,162.0
412.21,140.0
412.27,165.0
412.33,164.0
412.4,175.0
412.46,157.0
412.52,138.0
412.59,168.0
412.65,161.0
412.71,174.0
412.78,174.0
412.84,168.0
412.9,159.0
412.96,162.0
413.03,147.0
413.09,144.0
413.15,126.0
413.22,99.0
413.28,110.0
413.34,136.0
413.41,160.0
413.47,153.0
413.53,136.0
413.59,134.0
413.66,151.0
413.72,157.0
413.78,164.0
413.85,138.0
413.91,147.0
413.97,165.0
414.04,162.0
414.1,175.0
414.16,175.0
414.22,168.0
414.29,172.0
414.35,155.0
414.41,148.0
414.48,143.0
414.54,150.0
414.6,168.0
414.67,150.0
414.73,142.0
414.79,140.0
414.85,167.0
414.92,165.0
414.98,147.0
415.04,146.0
415.11,144.0
415.17,150.0
415.23,153.0
415.3,137.0
415.36,149.0
415.42,144.0
415.48,150.0
415.55,158.0
415.61,150.0
415.67,147.0
415.74,173.0
415.8,183.0
415.86,169.0
415.93,166.0
415.99,170.0
416.05,162.0
416.11,167.0
416.18,173.0
416.24,186.0
416.3,189.0
416.37,194.0
416.43,184.0
416.49,191.0
416.56,189.0
416.62,201.0
416.68,197.0
416.74,172.0
416.81,187.0
416.87,180.0
416.93,192.0
417.0,182.0
417.06,168.0
417.12,172.0
417.19,172.0
417.25,194.0
417.31,177.0
417.37,200.0
417.44,195.0
417.5,185.0
417.56,180.0
417.63,176.0
417.69,200.0
417.75,193.0
417.82,192.0
417.88,191.0
417.94,200.0
418.0,205.0
418.07,191.0
418.13,189.0
418.19,181.0
418.26,165.0
418.32,168.0
418.38,163.0
418.45,151.0
418.51,145.0
418.57,131.0
418.63,127.0
418.7,133.0
418.76,134.0
418.82,132.0
418.89,121.0
418.95,127.0
419.01,132.0
419.08,133.0
419.14,128.0
419.2,134.0
419.26,136.0
419.33,129.0
419.39,129.0
419.45,134.0
419.52,118.0
419.58,122.0
419.64,112.0
419.71,127.0
419.77,128.0
419.83,104.0
419.89,112.0
419.96,115.0
420.02,114.0
420.08,111.0
420.15,123.0
420.21,127.0
420.27,124.0
420.34,95.0
420.4,114.0
420.46,114.0
420.52,111.0
420.59,117.0
420.65,106.0
420.71,117.0
420.78,137.0
420.84,150.0
420.9,144.0
420.97,125.0
421.03,123.0
421.09,125.0
421.15,103.0
421.22,110.0
421.28,108.0
421.34,102.0
421.41,95.0
421.47,100.0
421.53,95.0
421.6,89.0
421.66,93.0
421.72,85.0
421.78,89.0
421.85,91.0
421.91,92.0
421.97,82.0
422.04,82.0
422.1,107.0
422.16,84.0
422.23,73.0
422.29,87.0
422.35,78.0
422.41,88.0
422.48,88.0
422.54,65.0
422.6,62.0
422.67,62.0
422.73,77.0
422.79,80.0
422.86,67.0
422.92,62.0
422.98,56.0
423.04,52.0
423.11,40.0
423.17,55.0
423.23,39.0
423.3,40.0
423.36,66.0
423.42,41.0
423.49,47.0
423.55,57.0
423.61,49.0
423.67,42.0
423.74,39.0
423.8,29.0
423.86,19.0
423.93,29.0
423.99,36.0
424.05,33.0
424.12,34.0
424.18,29.0
424.24,24.0
424.3,19.0
424.37,17.0
424.43,-1.0
424.49,17.0
424.56,5.0
424.62,-6.0
424.68,3.0
424.75,6.0
424.81,11.0
424.87,17.0
424.93,28.0
425.0,46.0
425.06,22.0
425.12,44.0
425.19,24.0
425.25,39.0
425.31,48.0
425.38,35.0
425.44,51.0
425.5,54.0
425.56,53.0
425.63,44.0
425.69,51.0
425.75,33.0
425.82,46.0
425.88,34.0
425.94,36.0
426.01,43.0
426.07,35.0
426.13,27.0
426.19,43.0
426.26,45.0
426.32,35.0
426.38,40.0
426.45,53.0
426.51,64.0
426.57,54.0
426.64,49.0
426.7,55.0
426.76,67.0
426.82,68.0
426.89,85.0
426.95,70.0
427.01,68.0
427.08,72.0
427.14,51.0
427.2,41.0
427.27,45.0
427.33,14.0
427.39,45.0
427.45,40.0
427.52,27.0
427.58,39.0
427.64,44.0
427.71,46.0
427.77,44.0
427.83,61.0
427.9,68.0
427.96,64.0
428.02,61.0
428.08,47.0
428.15,63.0
428.21,41.0
428.27,42.0
428.34,59.0
428.4,60.0
428.46,62.0
428.53,66.0
428.59,46.0
428.65,63.0
428.71,83.0
428.78,78.0
428.84,57.0
428.9,66.0
428.97,57.0
429.03,58.0
429.09,62.0
429.16,52.0
429.22,59.0
429.28,52.0
429.34,44.0
429.41,42.0
429.47,42.0
429.53,39.0
429.6,29.0
429.66,43.0
429.72,52.0
429.79,74.0
429.85,73.0
429.91,72.0
429.97,61.0
430.04,63.0
430.1,60.0
430.16,64.0
430.23,76.0
430.29,65.0
430.35,77.0
430.42,86.0
430.48,77.0
430.54,65.0
430.6,61.0
430.67,65.0
430.73,87.0
430.79,78.0
430.86,83.0
430.92,75.0
430.98,80.0
431.05,79.0
431.11,83.0
431.17,104.0
431.23,101.0
431.3,100.0
431.36,107.0
431.42,108.0
431.49,97.0
431.55,124.0
431.61,116.0
431.68,109.0
431.74,116.0
431.8,114.0
431.86,147.0
431.93,135.0
431.99,104.0
432.05,114.0
432.12,111.0
432.18,102.0
432.24,109.0
432.31,115.0
432.37,141.0
432.43,130.0
432.49,122.0
432.56,136.0
432.62,145.0
432.68,142.0
432.75,167.0
432.81,151.0
432.87,141.0
432.94,152.0
433.0,146.0
433.06,156.0
433.12,141.0
433.19,156.0
433.25,158.0
433.31,178.0
433.38,167.0
433.44,145.0
433.5,162.0
433.57,171.0
433.63,177.0
433.69,171.0
433.75,162.0
433.82,164.0
433.88,159.0
433.94,165.0
434.01,187.0
434.07,171.0
434.13,172.0
434.2,159.0
434.26,157.0
434.32,175.0
434.38,168.0
434.45,170.0
434.51,178.0
434.57,166.0
434.64,168.0
434.7,173.0
434.76,173.0
434.83,181.0
434.89,170.0
434.95,146.0
435.01,170.0
435.08,178.0
435.14,160.0
435.2,187.0
435.27,177.0
435.33,188.0
435.39,178.0
435.46,185.0
435.52,203.0
435.58,192.0
435.64,178.0
435.71,171.0
435.77,160.0
435.83,163.0
435.9,193.0
435.96,189.0
436.02,181.0
436.09,182.0
436.15,178.0
436.21,176.0
436.27,178.0
436.34,181.0
436.4,178.0
436.46,179.0
436.53,197.0
436.59,185.0
436.65,169.0
436.72,179.0
436.78,172.0
436.84,199.0
436.9,193.0
436.97,189.0
437.03,186.0
437.09,198.0
437.16,174.0
437.22,164.0
437.28,175.0
437.35,179.0
437.41,167.0
437.47,159.0
437.53,177.0
437.6,169.0
437.66,156.0
437.72,157.0
437.79,167.0
437.85,154.0
437.91,157.0
437.98,161.0
438.04,165.0
438.1,149.0
438.16,133.0
438.23,146.0
438.29,131.0
438.35,127.0
438.42,110.0
438.48,106.0
438.54,123.0
438.61,122.0
438.67,122.0
438.73,121.0
438.79,112.0
438.86,112.0
438.92,125.0
438.98,99.0
439.05,95.0
439.11,118.0
439.17,94.0
439.24,85.0
439.3,90.0
439.36,85.0
439.42,83.0
439.49,82.0
439.55,88.0
439.61,83.0
439.68,83.0
439.74,81.0
439.8,94.0
439.87,93.0
439.93,86.0
439.99,88.0
440.05,79.0
440.12,68.0
440.18,93.0
440.24,60.0
440.31,81.0
440.37,93.0
440.43,68.0
440.5,83.0
440.56,72.0
440.62,77.0
440.68,66.0
440.75,67.0
440.81,83.0
440.87,64.0
440.94,79.0
441.0,71.0
441.06,60.0
441.13,69.0
441.19,51.0
441.25,52.0
441.31,52.0
441.38,66.0
441.44,52.0
441.5,30.0
441.57,52.0
441.63,54.0
441.69,61.0
441.76,56.0
441.82,35.0
441.88,45.0
441.94,39.0
442.01,31.0
442.07,37.0
442.13,35.0
442.2,41.0
442.26,33.0
442.32,35.0
442.39,40.0
442.45,34.0
442.51,35.0
442.57,28.0
442.64,30.0
442.7,27.0
442.76,33.0
442.83,42.0
442.89,41.0
442.95,36.0
443.02,46.0
443.08,49.0
443.14,50.0
443.2,52.0
443.27,49.0
443.33,53.0
443.39,32.0
443.46,57.0
443.52,64.0
443.58,66.0
443.65,57.0
443.71,42.0
443.77,36.0
443.83,60.0
443.9,52.0
443.96,39.0
444.02,42.0
444.09,44.0
444.15,45.0
444.21,53.0
444.28,62.0
444.34,72.0
444.4,72.0
444.46,69.0
444.53,67.0
444.59,57.0
444.65,57.0
444.72,52.0
444.78,42.0
444.84,41.0
444.91,57.0
444.97,61.0
445.03,49.0
445.09,47.0
445.16,33.0
445.22,41.0
445.28,54.0
445.35,28.0
445.41,39.0
445.47,35.0
445.54,21.0
445.6,26.0
445.66,11.0
445.72,7.0
445.79,-3.0
445.85,27.0
445.91,22.0
445.98,19.0
446.04,37.0
446.1,35.0
446.17,30.0
446.23,13.0
446.29,35.0
446.35,33.0
446.42,-11.0
446.48,14.0
446.54,26.0
446.61,11.0
446.67,11.0
446.73,7.0
446.8,6.0
446.86,18.0
446.92,12.0
446.98,27.0
447.05,35.0
447.11,41.0
447.17,35.0
447.24,34.0
447.3,19.0
447.36,34.0
447.43,28.0
447.49,42.0
447.55,37.0
447.61,43.0
447.68,62.0
447.74,58.0
447.8,64.0
447.87,81.0
447.93,58.0
447.99,58.0
448.06,72.0
448.12,41.0
448.18,45.0
448.24,39.0
448.31,49.0
448.37,38.0
448.43,34.0
448.5,48.0
448.56,60.0
448.62,50.0
448.69,19.0
448.75,24.0
448.81,58.0
448.87,38.0
448.94,45.0
449.0,61.0
449.06,55.0
449.13,67.0
449.19,67.0
449.25,81.0
449.32,88.0
449.38,83.0
449.44,81.0
449.5,82.0
449.57,101.0
449.63,85.0
449.69,76.0
449.76,82.0
449.82,86.0
449.88,96.0
449.95,92.0
450.01,81.0
450.07,91.0
450.13,108.0
450.2,106.0
450.26,90.0
450.32,88.0
450.39,99.0
450.45,91.0
450.51,91.0
450.58,108.0
450.64,108.0
450.7,118.0
450.76,103.0
450.83,101.0
450.89,107.0
450.95,98.0
451.02,106.0
451.08,119.0
451.14,114.0
451.21,107.0
451.27,118.0
451.33,120.0
451.39,127.0
451.46,111.0
451.52,118.0
451.58,128.0
451.65,102.0
451.71,92.0
451.77,86.0
451.84,95.0
451.9,101.0
451.96,108.0
452.02,96.0
452.09,106.0
452.15,98.0
452.21,99.0
452.28,83.0
452.34,82.0
452.4,97.0
452.47,80.0
452.53,88.0
452.59,84.0
452.65,77.0
452.72,96.0
452.78,89.0
452.84,82.0
452.91,74.0
452.97,73.0
453.03,82.0
453.1,83.0
453.16,78.0
453.22,75.0
453.28,71.0
453.35,92.0
453.41,88.0
453.47,87.0
453.54,76.0
453.6,77.0
453.66,78.0
453.73,80.0
453.79,89.0
453.85,81.0
453.91,83.0
453.98,61.0
454.04,94.0
454.1,105.0
454.17,75.0
454.23,82.0
454.29,83.0
454.36,78.0
454.42,78.0
454.48,62.0
454.54,69.0
454.61,65.0
454.67,81.0
454.73,80.0
454.8,66.0
454.86,78.0
454.92,78.0
454.99,80.0
455.05,66.0
455.11,72.0
455.17,65.0
455.24,64.0
455.3,46.0
455.36,62.0
455.43,49.0
455.49,54.0
455.55,64.0
455.62,59.0
455.68,60.0
455.74,48.0
455.8,66.0
455.87,63.0
455.93,45.0
455.99,22.0
456.06,11.0
456.12,37.0
456.18,41.0
456.25,44.0
456.31,35.0
456.37,17.0
456.43,21.0
456.5,23.0
456.56,16.0
456.62,14.0
456.69,22.0
456.75,27.0
456.81,33.0
456.88,12.0
456.94,10.0
457.0,11.0
457.06,30.0
457.13,16.0
457.19,34.0
457.25,36.0
457.32,41.0
457.38,38.0
457.44,36.0
457.51,42.0
457.57,60.0
457.63,72.0
457.69,65.0
457.76,64.0
457.82,61.0
457.88,60.0
457.95,64.0
458.01,74.0
458.07,83.0
458.14,76.0
458.2,75.0
458.26,77.0
458.32,91.0
458.39,94.0
458.45,71.0
458.51,70.0
458.58,74.0
458.64,82.0
458.7,71.0
458.77,96.0
458.83,118.0
458.89,93.0
458.95,107.0
459.02,114.0
459.08,129.0
459.14,113.0
459.21,101.0
459.27,116.0
459.33,127.0
459.4,138.0
459.46,131.0
459.52,123.0
459.58,124.0
459.65,114.0
459.71,122.0
459.77,129.0
459.84,130.0
459.9,125.0
459.96,128.0
460.03,122.0
460.09,114.0
460.15,126.0
460.21,136.0
460.28,137.0
460.34,108.0
460.4,125.0
460.47,127.0
460.53,147.0
460.59,154.0
460.66,122.0
460.72,147.0
460.78,143.0
460.84,149.0
460.91,159.0
460.97,158.0
461.03,146.0
461.1,154.0
461.16,148.0
461.22,139.0
461.29,145.0
461.35,181.0
461.41,164.0
461.47,160.0
461.54,159.0
461.6,161.0
461.66,178.0
461.73,174.0
461.79,167.0
461.85,168.0
461.92,178.0
461.98,178.0
462.04,187.0
462.1,177.0
462.17,187.0
462.23,184.0
462.29,178.0
462.36,187.0
462.42,167.0
462.48,166.0
462.55,179.0
462.61,162.0
462.67,169.0
462.73,166.0
462.8,165.0
462.86,171.0
462.92,153.0
462.99,136.0
463.05,151.0
463.11,161.0
463.18,161.0
463.24,155.0
463.3,137.0
463.36,144.0
463.43,146.0
463.49,150.0
463.55,143.0
463.62,138.0
463.68,140.0
463.74,138.0
463.81,151.0
463.87,152.0
463.93,130.0
463.99,116.0
464.06,134.0
464.12,129.0
464.18,134.0
464.25,143.0
464.31,134.0
464.37,143.0
464.44,126.0
464.5,135.0
464.56,140.0
464.62,136.0
464.69,146.0
464.75,142.0
464.81,165.0
464.88,154.0
464.94,149.0
465.0,150.0
465.07,165.0
465.13,158.0
465.19,152.0
465.25,157.0
465.32,163.0
465.38,146.0
465.44,182.0
465.51,191.0
465.57,180.0
465.63,195.0
465.7,177.0
465.76,159.0
465.82,166.0
465.88,184.0
465.95,175.0
466.01,171.0
466.07,171.0
466.14,174.0
466.2,183.0
466.26,201.0
466.33,195.0
466.39,198.0
466.45,202.0
466.51,196.0
466.58,198.0
466.64,207.0
466.7,217.0
466.77,192.0
466.83,199.0
466.89,210.0
466.96,221.0
467.02,191.0
467.08,202.0
467.14,210.0
467.21,225.0
467.27,221.0
467.33,223.0
467.4,221.0
467.46,221.0
467.52,212.0
467.59,220.0
467.65,224.0
467.71,219.0
467.77,228.0
467.84,203.0
467.9,198.0
467.96,197.0
468.03,224.0
468.09,221.0
468.15,218.0
468.22,224.0
468.28,203.0
468.34,206.0
468.4,185.0
468.47,184.0
468.53,192.0
468.59,177.0
468.66,195.0
468.72,202.0
468.78,162.0
468.85,157.0
468.91,155.0
468.97,166.0
469.03,171.0
469.1,172.0
469.16,181.0
469.22,168.0
469.29,191.0
469.35,179.0
469.41,170.0
469.48,156.0
469.54,156.0
469.6,155.0
469.66,158.0
469.73,159.0
469.79,160.0
469.85,177.0
469.92,158.0
469.98,158.0
470.04,160.0
470.11,160.0
470.17,121.0
470.23,132.0
470.29,148.0
470.36,149.0
470.42,144.0
470.48,147.0
470.55,129.0
470.61,113.0
470.67,122.0
470.74,119.0
470.8,107.0
470.86,107.0
470.92,103.0
470.99,94.0
471.05,89.0
471.11,86.0
471.18,97.0
471.24,96.0
471.3,101.0
471.37,124.0
471.43,109.0
471.49,90.0
471.55,96.0
471.62,100.0
471.68,87.0
471.74,106.0
471.81,89.0
471.87,99.0
471.93,94.0
472.0,79.0
472.06,75.0
472.12,71.0
472.18,67.0
472.25,79.0
472.31,74.0
472.37,50.0
472.44,59.0
472.5,56.0
472.56,54.0
472.63,46.0
472.69,50.0
472.75,43.0
472.81,31.0
472.88,39.0
472.94,37.0
473.0,40.0
473.07,37.0
473.13,26.0
473.19,34.0
473.26,44.0
473.32,33.0
473.38,23.0
473.44,23.0
473.51,32.0
473.57,27.0
473.63,25.0
473.7,39.0
473.76,31.0
473.82,36.0
473.89,39.0
473.95,59.0
474.01,34.0
474.07,36.0
474.14,36.0
474.2,34.0
474.26,30.0
474.33,28.0
474.39,26.0
474.45,33.0
474.52,55.0
474.58,38.0
474.64,7.0
474.7,26.0
474.77,11.0
474.83,-16.0
474.89,29.0
474.96,6.0
475.02,0.0
475.08,13.0
475.15,3.0
475.21,36.0
475.27,11.0
475.33,18.0
475.4,5.0
475.46,5.0
475.52,8.0
475.59,-2.0
475.65,25.0
475.71,17.0
475.78,40.0
475.84,58.0
475.9,52.0
475.96,51.0
476.03,40.0
476.09,33.0
476.15,40.0
476.22,41.0
476.28,43.0
476.34,42.0
476.41,33.0
476.47,51.0
476.53,52.0
476.59,54.0
476.66,25.0
476.72,13.0
476.78,33.0
476.85,37.0
476.91,41.0
476.97,26.0
477.04,17.0
477.1,36.0
477.16,12.0
477.22,15.0
477.29,37.0
477.35,48.0
477.41,33.0
477.48,57.0
477.54,51.0
477.6,57.0
477.67,59.0
477.73,60.0
477.79,74.0
477.85,47.0
477.92,55.0
477.98,66.0
478.04,74.0
478.11,75.0
478.17,61.0
478.23,73.0
478.3,82.0
478.36,78.0
478.42,69.0
478.48,43.0
478.55,64.0
478.61,65.0
478.67,70.0
478.74,54.0
478.8,47.0
478.86,66.0
478.93,73.0
478.99,87.0
479.05,48.0
479.11,55.0
479.18,61.0
479.24,40.0
479.3,34.0
479.37,39.0
479.43,48.0
479.49,43.0
479.56,51.0
479.62,60.0
479.68,67.0
479.74,79.0
479.81,86.0
479.87,84.0
479.93,92.0
480.0,78.0
480.06,89.0
480.12,99.0
480.19,95.0
480.25,87.0
480.31,95.0
480.37,106.0
480.44,95.0
480.5,78.0
480.56,85.0
480.63,76.0
480.69,73.0
480.75,73.0
480.82,62.0
480.88,75.0
480.94,54.0
481.0,56.0
481.07,58.0
481.13,47.0
481.19,65.0
481.26,53.0
481.32,67.0
481.38,75.0
481.45,80.0
481.51,54.0
481.57,93.0
481.63,91.0
481.7,81.0
481.76,62.0
481.82,94.0
481.89,101.0
481.95,111.0
482.01,92.0
482.08,98.0
482.14,122.0
482.2,105.0
482.26,101.0
482.33,99.0
482.39,114.0
482.45,125.0
482.52,103.0
482.58,102.0
482.64,106.0
482.71,128.0
482.77,123.0
482.83,128.0
482.89,131.0
482.96,130.0
483.02,114.0
483.08,133.0
483.15,143.0
483.21,143.0
483.27,150.0
483.34,152.0
483.4,156.0
483.46,171.0
483.52,180.0
483.59,192.0
483.65,196.0
483.71,203.0
483.78,193.0
483.84,187.0
483.9,222.0
483.97,216.0
484.03,209.0
484.09,214.0
484.15,201.0
484.22,205.0
484.28,227.0
484.34,227.0
484.41,218.0
484.47,216.0
484.53,221.0
484.6,223.0
484.66,221.0
484.72,229.0
484.78,225.0
484.85,222.0
484.91,221.0
484.97,224.0
485.04,228.0
485.1,207.0
485.16,213.0
485.23,227.0
485.29,198.0
485.35,214.0
485.41,201.0
485.48,199.0
485.54,200.0
485.6,215.0
485.67,204.0
485.73,199.0
485.79,222.0
485.86,208.0
485.92,208.0
485.98,190.0
486.04,196.0
486.11,194.0
486.17,190.0
486.23,196.0
486.3,199.0
486.36,205.0
486.42,197.0
486.49,204.0
486.55,207.0
486.61,194.0
486.67,198.0
486.74,188.0
486.8,191.0
486.86,217.0
486.93,195.0
486.99,191.0
487.05,196.0
487.12,190.0
487.18,216.0
487.24,204.0
487.3,204.0
487.37,212.0
487.43,204.0
487.49,189.0
487.56,204.0
487.62,197.0
487.68,215.0
487.75,212.0
487.81,206.0
487.87,224.0
487.93,212.0
488.0,217.0
488.06,205.0
488.12,186.0
488.19,195.0
488.25,182.0
488.31,172.0
488.38,167.0
488.44,168.0
488.5,157.0
488.56,172.0
488.63,168.0
488.69,165.0
488.75,164.0
488.82,171.0
488.88,157.0
488.94,157.0
489.01,150.0
489.07,169.0
489.13,156.0
489.19,143.0
489.26,135.0
489.32,142.0
489.38,164.0
489.45,149.0
489.51,140.0
489.57,143.0
489.64,128.0
489.7,127.0
489.76,135.0
489.82,112.0
489.89,106.0
489.95,114.0
490.01,109.0
490.08,86.0
490.14,110.0
490.2,81.0
490.27,89.0
490.33,83.0
490.39,79.0
490.45,74.0
490.52,73.0
490.58,78.0
490.64,94.0
490.71,92.0
490.77,91.0
490.83,106.0
490.9,117.0
490.96,117.0
491.02,112.0
491.08,95.0
491.15,87.0
491.21,101.0
491.27,81.0
491.34,91.0
491.4,98.0
491.46,87.0
491.53,85.0
491.59,89.0
491.65,80.0
491.71,59.0
491.78,77.0
491.84,65.0
491.9,74.0
491.97,99.0
492.03,93.0
492.09,100.0
492.16,85.0
492.22,62.0
492.28,81.0
492.34,76.0
492.41,76.0
492.47,70.0
492.53,72.0
492.6,66.0
492.66,85.0
492.72,89.0
492.79,66.0
492.85,75.0
492.91,72.0
492.97,64.0
493.04,54.0
493.1,53.0
493.16,62.0
493.23,69.0
493.29,62.0
493.35,64.0
493.42,46.0
493.48,69.0
493.54,73.0
493.6,69.0
493.67,83.0
493.73,83.0
493.79,93.0
493.86,68.0
493.92,77.0
493.98,92.0
494.05,78.0
494.11,70.0
494.17,64.0
494.23,85.0
494.3,95.0
494.36,83.0
494.42,81.0
494.49,86.0
494.55,83.0
494.61,85.0
494.68,89.0
494.74,95.0
494.8,95.0
494.86,92.0
494.93,74.0
494.99,67.0
495.05,77.0
495.12,73.0
495.18,64.0
495.24,85.0
495.31,65.0
495.37,63.0
495.43,74.0
495.49,64.0
495.56,78.0
495.62,70.0
495.68,51.0
495.75,37.0
495.81,62.0
495.87,60.0
495.94,39.0
496.0,45.0
496.06,39.0
496.12,34.0
496.19,45.0
496.25,37.0
496.31,55.0
496.38,50.0
496.44,20.0
496.5,57.0
496.57,23.0
496.63,15.0
496.69,24.0
496.75,39.0
496.82,41.0
496.88,56.0
496.94,25.0
497.01,23.0
497.07,10.0
497.13,18.0
497.2,27.0
497.26,26.0
497.32,34.0
497.38,31.0
497.45,18.0
497.51,12.0
497.57,16.0
497.64,15.0
497.7,13.0
497.76,10.0
497.83,10.0
497.89,21.0
497.95,22.0
498.01,30.0
498.08,29.0
498.14,11.0
498.2,12.0
498.27,12.0
498.33,10.0
498.39,15.0
498.46,25.0
498.52,7.0
498.58,17.0
498.64,11.0
498.71,18.0
498.77,23.0
498.83,52.0
498.9,37.0
498.96,25.0
499.02,20.0
499.09,36.0
499.15,39.0
499.21,48.0
499.27,58.0
499.34,56.0
499.4,62.0
499.46,47.0
499.53,42.0
499.59,56.0
499.65,45.0
499.72,40.0
499.78,40.0
499.84,54.0
499.9,40.0
499.97,53.0
500.03,50.0
500.09,43.0
500.16,46.0
500.22,47.0
500.28,52.0
500.35,51.0
500.41,46.0
500.47,50.0
500.53,62.0
500.6,65.0
500.66,40.0
500.72,51.0
500.79,47.0
500.85,54.0
500.91,49.0
500.98,69.0
501.04,81.0
501.1,71.0
501.16,68.0
501.23,72.0
501.29,76.0
501.35,80.0
501.42,120.0
501.48,113.0
501.54,92.0
501.61,114.0
501.67,102.0
501.73,135.0
501.79,108.0
501.86,121.0
501.92,125.0
501.98,117.0
502.05,105.0
502.11,110.0
502.17,124.0
502.24,119.0
502.3,121.0
502.36,134.0
502.42,135.0
502.49,114.0
502.55,117.0
502.61,108.0
502.68,122.0
502.74,131.0
502.8,134.0
502.87,132.0
502.93,147.0
502.99,111.0
503.05,117.0
503.12,115.0
503.18,124.0
503.24,127.0
503.31,124.0
503.37,132.0
503.43,124.0
503.5,104.0
503.56,102.0
503.62,103.0
503.68,99.0
503.75,106.0
503.81,111.0
503.87,99.0
503.94,113.0
504.0,120.0
504.06,108.0
504.13,98.0
504.19,103.0
504.25,119.0
504.31,113.0
504.38,105.0
504.44,121.0
504.5,123.0
504.57,128.0
504.63,125.0
504.69,126.0
504.76,101.0
504.82,120.0
504.88,102.0
504.94,98.0
505.01,103.0
505.07,100.0
505.13,120.0
505.2,103.0
505.26,102.0
505.32,110.0
505.39,98.0
505.45,94.0
505.51,103.0
505.57,98.0
505.64,92.0
505.7,78.0
505.76,80.0
505.83,87.0
505.89,91.0
505.95,86.0
506.02,69.0
506.08,74.0
506.14,98.0
506.2,85.0
506.27,67.0
506.33,66.0
506.39,65.0
506.46,59.0
506.52,29.0
506.58,29.0
506.65,29.0
506.71,15.0
506.77,20.0
506.83,18.0
506.9,22.0
506.96,22.0
507.02,6.0
507.09,26.0
507.15,19.0
507.21,11.0
507.28,18.0
507.34,26.0
507.4,23.0
507.46,3.0
507.53,15.0
507.59,2.0
507.65,-13.0
507.72,3.0
507.78,18.0
507.84,34.0
507.91,10.0
507.97,15.0
508.03,-5.0
508.09,-2.0
508.16,12.0
508.22,12.0
508.28,11.0
508.35,14.0
508.41,21.0
508.47,18.0
508.54,16.0
508.6,39.0
508.66,56.0
508.72,62.0
508.79,68.0
508.85,56.0
508.91,48.0
508.98,27.0
509.04,59.0
509.1,60.0
509.17,51.0
509.23,58.0
509.29,54.0
509.35,67.0
509.42,71.0
509.48,70.0
509.54,85.0
509.61,79.0
509.67,67.0
509.73,74.0
509.8,65.0
509.86,62.0
509.92,82.0
509.98,89.0
510.05,70.0
510.11,91.0
510.17,71.0
510.24,98.0
510.3,82.0
510.36,89.0
510.43,82.0
510.49,67.0
510.55,92.0
510.61,93.0
510.68,102.0
510.74,84.0
510.8,86.0
510.87,76.0
510.93,74.0
510.99,73.0
511.06,82.0
511.12,105.0
511.18,113.0
511.24,93.0
511.31,97.0
511.37,82.0
511.43,95.0
511.5,108.0
511.56,88.0
511.62,102.0
511.69,106.0
511.75,115.0
511.81,105.0
511.87,103.0
511.94,101.0
512.0,81.0
512.06,86.0
512.13,102.0
512.19,90.0
512.25,98.0
512.32,81.0
512.38,98.0
512.44,91.0
512.5,74.0
512.57,81.0
512.63,101.0
512.69,111.0
512.76,90.0
512.82,106.0
512.88,102.0
512.95,83.0
513.01,96.0
513.07,93.0
513.13,99.0
513.2,87.0
513.26,82.0
513.32,108.0
513.39,104.0
513.45,104.0
513.51,70.0
513.58,90.0
513.64,104.0
513.7,101.0
513.76,129.0
513.83,106.0
513.89,114.0
513.95,88.0
514.02,107.0
514.08,95.0
514.14,114.0
514.21,101.0
514.27,107.0
514.33,100.0
514.39,122.0
514.46,103.0
514.52,119.0
514.58,118.0
514.65,100.0
514.71,80.0
514.77,88.0
514.84,71.0
514.9,69.0
514.96,78.0
515.02,89.0
515.09,82.0
515.15,74.0
515.21,87.0
515.28,84.0
515.34,76.0
515.4,75.0
515.47,90.0
515.53,101.0
515.59,104.0
515.65,101.0
515.72,129.0
515.78,129.0
515.84,119.0
515.91,115.0
515.97,126.0
516.03,132.0
516.1,131.0
516.16,141.0
516.22,163.0
516.28,148.0
516.35,140.0
516.41,154.0
516.47,149.0
516.54,151.0
516.6,155.0
516.66,154.0
516.73,171.0
516.79,166.0
516.85,162.0
516.91,181.0
516.98,172.0
517.04,173.0
517.1,179.0
517.17,175.0
517.23,177.0
517.29,166.0
517.36,174.0
517.42,159.0
517.48,171.0
517.54,166.0
517.61,172.0
517.67,149.0
517.73,161.0
517.8,167.0
517.86,182.0
517.92,170.0
517.99,156.0
518.05,174.0
518.11,173.0
518.17,162.0
518.24,144.0
518.3,176.0
518.36,174.0
518.43,180.0
518.49,189.0
518.55,181.0
518.62,197.0
518.68,187.0
518.74,192.0
518.8,200.0
518.87,185.0
518.93,175.0
518.99,192.0
519.06,184.0
519.12,172.0
519.18,161.0
519.25,173.0
519.31,183.0
519.37,184.0
519.43,188.0
519.5,192.0
519.56,177.0
519.62,179.0
519.69,186.0
519.75,190.0
519.81,191.0
519.88,178.0
519.94,175.0
520.0,208.0
520.06,206.0
520.13,204.0
520.19,176.0
520.25,188.0
520.32,194.0
520.38,190.0
520.44,181.0
520.51,207.0
520.57,221.0
520.63,195.0
520.69,178.0
520.76,171.0
520.82,186.0
520.88,194.0
520.95,186.0
521.01,169.0
521.07,184.0
521.14,176.0
521.2,175.0
521.26,155.0
521.32,152.0
521.39,159.0
521.45,151.0
521.51,164.0
521.58,157.0
521.64,169.0
521.7,170.0
521.77,171.0
521.83,152.0
521.89,168.0
521.95,166.0
522.02,172.0
522.08,173.0
522.14,174.0
522.21,179.0
522.27,164.0
522.33,166.0
522.4,159.0
522.46,131.0
522.52,143.0
522.58,150.0
522.65,132.0
522.71,136.0
522.77,122.0
522.84,115.0
522.9,119.0
522.96,116.0
523.03,104.0
523.09,106.0
523.15,103.0
523.21,95.0
523.28,90.0
523.34,77.0
523.4,73.0
523.47,80.0
523.53,75.0
523.59,73.0
523.66,66.0
523.72,69.0
523.78,73.0
523.84,57.0
523.91,65.0
523.97,49.0
524.03,64.0
524.1,62.0
524.16,67.0
524.22,67.0
524.29,53.0
524.35,24.0
524.41,28.0
524.47,30.0
524.54,26.0
524.6,36.0
524.66,34.0
524.73,38.0
524.79,40.0
524.85,42.0
524.92,15.0
524.98,26.0
525.04,45.0
525.1,43.0
525.17,42.0
525.23,37.0
525.29,33.0
525.36,43.0
525.42,41.0
525.48,42.0
525.55,51.0
525.61,55.0
525.67,63.0
525.73,50.0
525.8,56.0
525.86,40.0
525.92,45.0
525.99,39.0
526.05,54.0
526.11,51.0
526.18,26.0
526.24,28.0
526.3,49.0
526.36,53.0
526.43,42.0
526.49,39.0
526.55,68.0
526.62,70.0
526.68,48.0
526.74,43.0
526.81,54.0
526.87,56.0
526.93,82.0
526.99,71.0
527.06,50.0
527.12,69.0
527.18,68.0
527.25,63.0
527.31,71.0
527.37,61.0
527.44,65.0
527.5,59.0
527.56,64.0
527.62,76.0
527.69,54.0
527.75,72.0
527.81,75.0
527.88,65.0
527.94,74.0
528.0,73.0
528.07,64.0
528.13,78.0
528.19,73.0
528.25,56.0
528.32,41.0
528.38,64.0
528.44,80.0
528.51,62.0
528.57,67.0
528.63,68.0
528.7,52.0
528.76,69.0
528.82,67.0
528.88,57.0
528.95,71.0
529.01,67.0
529.07,93.0
529.14,57.0
529.2,56.0
529.26,75.0
529.33,51.0
529.39,65.0
529.45,77.0
529.51,100.0
529.58,87.0
529.64,95.0
529.7,99.0
529.77,99.0
529.83,92.0
529.89,74.0
529.96,78.0
530.02,60.0
530.08,60.0
530.14,40.0
530.21,35.0
530.27,52.0
530.33,28.0
530.4,25.0
530.46,32.0
530.52,27.0
530.59,41.0
530.65,49.0
530.71,46.0
530.77,43.0
530.84,45.0
530.9,37.0
530.96,67.0
531.03,61.0
531.09,60.0
531.15,41.0
531.22,76.0
531.28,49.0
531.34,43.0
531.4,44.0
531.47,37.0
531.53,35.0
531.59,50.0
531.66,50.0
531.72,49.0
531.78,47.0
531.85,48.0
531.91,62.0
531.97,60.0
532.03,66.0
532.1,51.0
532.16,39.0
532.22,41.0
532.29,52.0
532.35,74.0
532.41,87.0
532.48,74.0
532.54,67.0
532.6,87.0
532.66,71.0
532.73,76.0
532.79,75.0
532.85,82.0
532.92,72.0
532.98,90.0
533.04,85.0
533.11,93.0
533.17,100.0
533.23,98.0
533.29,115.0
533.36,124.0
533.42,111.0
533.48,92.0
533.55,85.0
533.61,107.0
533.67,89.0
533.74,84.0
533.8,101.0
533.86,92.0
533.92,111.0
533.99,104.0
534.05,95.0
534.11,87.0
534.18,86.0
534.24,106.0
534.3,122.0
534.37,106.0
534.43,104.0
534.49,115.0
534.55,136.0
534.62,126.0
534.68,159.0
534.74,138.0
534.81,137.0
534.87,161.0
534.93,173.0
535.0,176.0
535.06,153.0
535.12,155.0
535.18,159.0
535.25,169.0
535.31,164.0
535.37,180.0
535.44,162.0
535.5,170.0
535.56,187.0
535.63,171.0
535.69,158.0
535.75,179.0
535.81,205.0
535.88,209.0
535.94,212.0
536.0,215.0
536.07,199.0
536.13,210.0
536.19,211.0
536.26,203.0
536.32,205.0
536.38,214.0
536.44,202.0
536.51,203.0
536.57,202.0
536.63,221.0
536.7,234.0
536.76,223.0
536.82,244.0
536.89,226.0
536.95,243.0
537.01,231.0
537.07,221.0
537.14,226.0
537.2,229.0
537.26,222.0
537.33,243.0
537.39,227.0
537.45,225.0
537.52,242.0
537.58,223.0
537.64,228.0
537.7,223.0
537.77,227.0
537.83,218.0
537.89,215.0
537.96,209.0
538.02,211.0
538.08,207.0
538.15,218.0
538.21,203.0
538.27,191.0
538.33,199.0
538.4,178.0
538.46,193.0
538.52,215.0
538.59,213.0
538.65,202.0
538.71,199.0
538.78,210.0
538.84,196.0
538.9,203.0
538.96,221.0
539.03,188.0
539.09,203.0
539.15,186.0
539.22,191.0
539.28,188.0
539.34,170.0
539.41,173.0
539.47,183.0
539.53,186.0
539.59,183.0
539.66,185.0
539.72,185.0
539.78,165.0
539.85,162.0
539.91,169.0
539.97,167.0
540.04,179.0
540.1,167.0
540.16,157.0
540.22,159.0
540.29,177.0
540.35,154.0
540.41,166.0
540.48,159.0
540.54,137.0
540.6,142.0
540.67,150.0
540.73,166.0
540.79,155.0
540.85,144.0
540.92,120.0
540.98,138.0
541.04,149.0
541.11,144.0
541.17,155.0
541.23,145.0
541.3,133.0
541.36,139.0
541.42,133.0
541.48,136.0
541.55,117.0
541.61,115.0
541.67,116.0
541.74,122.0
541.8,135.0
541.86,100.0
541.93,95.0
541.99,108.0
542.05,109.0
542.11,93.0
542.18,105.0
542.24,92.0
542.3,100.0
542.37,86.0
542.43,65.0
542.49,92.0
542.56,89.0
542.62,89.0
542.68,81.0
542.74,57.0
542.81,71.0
542.87,74.0
542.93,93.0
543.0,76.0
543.06,78.0
543.12,71.0
543.19,86.0
543.25,73.0
543.31,81.0
543.37,83.0
543.44,85.0
543.5,89.0
543.56,90.0
543.63,88.0
543.69,82.0
543.75,72.0
543.82,81.0
543.88,95.0
543.94,102.0
544.0,75.0
544.07,81.0
544.13,78.0
544.19,75.0
544.26,84.0
544.32,94.0
544.38,91.0
544.45,95.0
544.51,111.0
544.57,90.0
544.63,104.0
544.7,101.0
544.76,98.0
544.82,100.0
544.89,93.0
544.95,103.0
545.01,90.0
545.08,96.0
545.14,88.0
545.2,82.0
545.26,96.0
545.33,93.0
545.39,79.0
545.45,93.0
545.52,79.0
545.58,97.0
545.64,85.0
545.71,108.0
545.77,105.0
545.83,85.0
545.89,83.0
545.96,62.0
546.02,81.0
546.08,85.0
546.15,89.0
546.21,74.0
546.27,72.0
546.34,67.0
546.4,70.0
546.46,51.0
546.52,61.0
546.59,61.0
546.65,43.0
546.71,35.0
546.78,44.0
546.84,51.0
546.9,46.0
546.97,39.0
547.03,51.0
547.09,75.0
547.15,59.0
547.22,36.0
547.28,54.0
547.34,51.0
547.41,34.0
547.47,38.0
547.53,42.0
547.6,41.0
547.66,44.0
547.72,46.0
547.78,35.0
547.85,38.0
547.91,44.0
547.97,20.0
548.04,24.0
548.1,16.0
548.16,23.0
548.23,9.0
548.29,26.0
548.35,18.0
548.41,29.0
548.48,32.0
548.54,18.0
548.6,30.0
548.67,52.0
548.73,34.0
548.79,45.0
548.86,31.0
548.92,31.0
548.98,47.0
549.04,23.0
549.11,23.0
549.17,19.0
549.23,25.0
549.3,15.0
549.36,22.0
549.42,31.0
549.49,19.0
549.55,23.0
549.61,33.0
549.67,42.0
549.74,28.0
549.8,28.0
549.86,46.0
549.93,34.0
549.99,58.0
550.05,42.0
550.12,45.0
550.18,34.0
550.24,39.0
550.3,79.0
550.37,72.0
550.43,49.0
550.49,62.0
550.56,76.0
550.62,63.0
550.68,64.0
550.75,64.0
550.81,68.0
550.87,85.0
550.93,93.0
551.0,107.0
551.06,92.0
551.12,101.0
551.19,104.0
551.25,100.0
551.31,110.0
551.38,111.0
551.44,115.0
551.5,105.0
551.56,111.0
551.63,118.0
551.69,111.0
551.75,126.0
551.82,122.0
551.88,118.0
551.94,120.0
552.01,130.0
552.07,134.0
552.13,130.0
552.19,118.0
552.26,117.0
552.32,114.0
552.38,117.0
552.45,114.0
552.51,123.0
552.57,131.0
552.64,115.0
552.7,103.0
552.76,109.0
552.82,102.0
552.89,100.0
552.95,101.0
553.01,98.0
553.08,113.0
553.14,114.0
553.2,119.0
553.27,117.0
553.33,140.0
553.39,133.0
553.45,126.0
553.52,139.0
553.58,129.0
553.64,130.0
553.71,136.0
553.77,136.0
553.83,148.0
553.9,146.0
553.96,151.0
554.02,145.0
554.08,145.0
554.15,137.0
554.21,133.0
554.27,139.0
554.34,147.0
554.4,118.0
554.46,130.0
554.53,119.0
554.59,110.0
554.65,128.0
554.71,123.0
554.78,121.0
554.84,120.0
554.9,115.0
554.97,126.0
555.03,132.0
555.09,133.0
555.16,143.0
555.22,148.0
555.28,148.0
555.34,147.0
555.41,123.0
555.47,122.0
555.53,129.0
555.6,130.0
555.66,143.0
555.72,125.0
555.79,121.0
555.85,121.0
555.91,133.0
555.97,115.0
556.04,120.0
556.1,126.0
556.16,125.0
556.23,108.0
556.29,102.0
556.35,126.0
556.42,123.0
556.48,105.0
556.54,115.0
556.6,108.0
556.67,84.0
556.73,63.0
556.79,42.0
556.86,63.0
556.92,60.0
556.98,56.0
557.05,58.0
557.11,60.0
557.17,53.0
557.23,52.0
557.3,46.0
557.36,41.0
557.42,42.0
557.49,19.0
557.55,32.0
557.61,43.0
557.68,24.0
557.74,23.0
557.8,34.0
557.86,41.0
557.93,42.0
557.99,37.0
558.05,37.0
558.12,45.0
558.18,49.0
558.24,20.0
558.31,16.0
558.37,38.0
558.43,32.0
558.49,20.0
558.56,27.0
558.62,36.0
558.68,40.0
558.75,26.0
558.81,36.0
558.87,33.0
558.94,34.0
559.0,38.0
559.06,35.0
559.12,40.0
559.19,62.0
559.25,47.0
559.31,44.0
559.38,49.0
559.44,46.0
559.5,71.0
559.57,53.0
559.63,49.0
559.69,58.0
559.75,47.0
559.82,56.0
559.88,67.0
559.94,66.0
560.01,60.0
560.07,58.0
560.13,40.0
560.2,59.0
560.26,75.0
560.32,78.0
560.38,86.0
560.45,78.0
560.51,81.0
560.57,84.0
560.64,86.0
560.7,84.0
560.76,73.0
560.83,90.0
560.89,95.0
560.95,75.0
561.01,72.0
561.08,92.0
561.14,87.0
561.2,92.0
561.27,75.0
561.33,111.0
561.39,84.0
561.46,72.0
561.52,102.0
561.58,114.0
561.64,117.0
561.71,121.0
561.77,106.0
561.83,118.0
561.9,111.0
561.96,106.0
562.02,117.0
562.09,114.0
562.15,97.0
562.21,101.0
562.27,109.0
562.34,115.0
562.4,93.0
562.46,101.0
562.53,92.0
562.59,89.0
562.65,89.0
562.72,68.0
562.78,82.0
562.84,75.0
562.9,72.0
562.97,90.0
563.03,87.0
563.09,82.0
563.16,83.0
563.22,89.0
563.28,79.0
563.35,71.0
563.41,71.0
563.47,49.0
563.53,71.0
563.6,60.0
563.66,55.0
563.72,50.0
563.79,33.0
563.85,26.0
563.91,42.0
563.98,37.0
564.04,38.0
564.1,38.0
564.16,48.0
564.23,37.0
564.29,19.0
564.35,18.0
564.42,36.0
564.48,45.0
564.54,27.0
564.61,7.0
564.67,11.0
564.73,29.0
564.79,41.0
564.86,34.0
564.92,51.0
564.98,39.0
565.05,31.0
565.11,48.0
565.17,38.0
565.24,49.0
565.3,38.0
565.36,48.0
565.42,60.0
565.49,56.0
565.55,62.0
565.61,48.0
565.68,79.0
565.74,67.0
565.8,73.0
565.87,74.0
565.93,81.0
565.99,89.0
566.05,82.0
566.12,79.0
566.18,87.0
566.24,93.0
566.31,73.0
566.37,85.0
566.43,85.0
566.5,75.0
566.56,109.0
566.62,98.0
566.68,81.0
566.75,100.0
566.81,103.0
566.87,97.0
566.94,99.0
567.0,100.0
567.06,103.0
567.13,100.0
567.19,89.0
567.25,135.0
567.31,126.0
567.38,101.0
567.44,115.0
567.5,100.0
567.57,119.0
567.63,120.0
567.69,118.0
567.76,116.0
567.82,103.0
567.88,100.0
567.94,102.0
568.01,122.0
568.07,116.0
568.13,111.0
568.2,116.0
568.26,126.0
568.32,91.0
568.39,92.0
568.45,104.0
568.51,125.0
568.57,105.0
568.64,109.0
568.7,115.0
568.76,127.0
568.83,134.0
568.89,131.0
568.95,129.0
569.02,136.0
569.08,137.0
569.14,137.0
569.2,128.0
569.27,128.0
569.33,130.0
569.39,135.0
569.46,123.0
569.52,156.0
569.58,156.0
569.65,158.0
569.71,159.0
569.77,144.0
569.83,166.0
569.9,148.0
569.96,161.0
570.02,137.0
570.09,159.0
570.15,177.0
570.21,178.0
570.28,177.0
570.34,165.0
570.4,172.0
570.46,174.0
570.53,160.0
570.59,164.0
570.65,173.0
570.72,163.0
570.78,167.0
570.84,171.0
570.91,150.0
570.97,137.0
571.03,125.0
571.09,141.0
571.16,148.0
571.22,152.0
571.28,141.0
571.35,136.0
571.41,151.0
571.47,170.0
571.54,175.0
571.6,166.0
571.66,172.0
571.72,169.0
571.79,159.0
571.85,156.0
571.91,145.0
571.98,148.0
572.04,170.0
572.1,157.0
572.17,153.0
572.23,160.0
572.29,168.0
572.35,151.0
572.42,160.0
572.48,154.0
572.54,144.0
572.61,182.0
572.67,186.0
572.73,169.0
572.8,161.0
572.86,149.0
572.92,135.0
572.98,144.0
573.05,157.0
573.11,131.0
573.17,122.0
573.24,115.0
573.3,120.0
573.36,114.0
573.43,122.0
573.49,134.0
573.55,123.0
573.61,130.0
573.68,109.0
573.74,108.0
573.8,112.0
573.87,103.0
573.93,126.0
573.99,131.0
574.06,120.0
574.12,111.0
574.18,104.0
574.24,80.0
574.31,101.0
574.37,98.0
574.43,98.0
574.5,117.0
574.56,117.0
574.62,94.0
574.69,106.0
574.75,97.0
574.81,105.0
574.87,88.0
574.94,81.0
575.0,90.0
575.06,75.0
575.13,100.0
575.19,96.0
575.25,93.0
575.32,93.0
575.38,100.0
575.44,95.0
575.5,92.0
575.57,81.0
575.63,85.0
575.69,89.0
575.76,76.0
575.82,81.0
575.88,93.0
575.95,93.0
576.01,97.0
576.07,89.0
576.13,84.0
576.2,82.0
576.26,73.0
576.32,69.0
576.39,84.0
576.45,70.0
576.51,85.0
576.58,74.0
576.64,62.0
576.7,72.0
576.76,81.0
576.83,64.0
576.89,76.0
576.95,64.0
577.02,60.0
577.08,74.0
577.14,92.0
577.21,95.0
577.27,75.0
577.33,71.0
577.39,78.0
577.46,77.0
577.52,81.0
577.58,79.0
577.65,74.0
577.71,78.0
577.77,67.0
577.84,77.0
577.9,82.0
577.96,86.0
578.02,86.0
578.09,97.0
578.15,95.0
578.21,99.0
578.28,76.0
578.34,79.0
578.4,65.0
578.47,69.0
578.53,75.0
578.59,76.0
578.65,95.0
578.72,87.0
578.78,72.0
578.84,81.0
578.91,84.0
578.97,113.0
579.03,98.0
579.1,85.0
579.16,105.0
579.22,100.0
579.28,93.0
579.35,87.0
579.41,107.0
579.47,98.0
579.54,87.0
579.6,87.0
579.66,80.0
579.73,97.0
579.79,86.0
579.85,70.0
579.91,68.0
579.98,72.0
580.04,47.0
580.1,38.0
580.17,56.0
580.23,59.0
580.29,45.0
580.36,55.0
580.42,52.0
580.48,49.0
580.54,55.0
580.61,38.0
580.67,45.0
580.73,58.0
580.8,75.0
580.86,62.0
580.92,55.0
580.99,33.0
581.05,37.0
581.11,33.0
581.17,56.0
581.24,43.0
581.3,33.0
581.36,44.0
581.43,40.0
581.49,48.0
581.55,52.0
581.62,49.0
581.68,59.0
581.74,58.0
581.8,48.0
581.87,42.0
581.93,33.0
581.99,14.0
582.06,46.0
582.12,56.0
582.18,51.0
582.25,60.0
582.31,57.0
582.37,63.0
582.43,43.0
582.5,45.0
582.56,35.0
582.62,42.0
582.69,54.0
582.75,57.0
582.81,52.0
582.88,34.0
582.94,44.0
583.0,38.0
583.06,55.0
583.13,63.0
583.19,55.0
583.25,66.0
583.32,49.0
583.38,61.0
583.44,69.0
583.51,65.0
583.57,91.0
583.63,47.0
583.69,59.0
583.76,98.0
583.82,64.0
583.88,74.0
583.95,71.0
584.01,78.0
584.07,82.0
584.14,67.0
584.2,70.0
584.26,80.0
584.32,95.0
584.39,104.0
584.45,97.0
584.51,121.0
584.58,112.0
584.64,117.0
584.7,106.0
584.77,109.0
584.83,116.0
584.89,119.0
584.95,122.0
585.02,106.0
585.08,105.0
585.14,112.0
585.21,93.0
585.27,97.0
585.33,102.0
585.4,117.0
585.46,134.0
585.52,119.0
585.58,125.0
585.65,127.0
585.71,111.0
585.77,97.0
585.84,92.0
585.9,115.0
585.96,119.0
586.03,122.0
586.09,126.0
586.15,122.0
586.21,122.0
586.28,107.0
586.34,129.0
586.4,116.0
586.47,116.0
586.53,129.0
586.59,128.0
586.66,133.0
586.72,151.0
586.78,145.0
586.84,139.0
586.91,145.0
586.97,134.0
587.03,133.0
587.1,156.0
587.16,155.0
587.22,137.0
587.29,163.0
587.35,148.0
587.41,144.0
587.47,151.0
587.54,155.0
587.6,169.0
587.66,169.0
587.73,159.0
587.79,155.0
587.85,143.0
587.92,147.0
587.98,147.0
588.04,130.0
588.1,140.0
588.17,133.0
588.23,143.0
588.29,129.0
588.36,136.0
588.42,148.0
588.48,162.0
588.55,163.0
588.61,169.0
588.67,172.0
588.73,156.0
588.8,167.0
588.86,162.0
588.92,135.0
588.99,131.0
589.05,145.0
589.11,157.0
589.18,110.0
589.24,140.0
589.3,142.0
589.36,149.0
589.43,146.0
589.49,140.0
589.55,115.0
589.62,118.0
589.68,108.0
589.74,91.0
589.81,119.0
589.87,89.0
589.93,95.0
589.99,79.0
590.06,95.0
590.12,81.0
590.18,80.0
590.25,67.0
590.31,60.0
590.37,71.0
590.44,83.0
590.5,79.0
590.56,86.0
590.62,96.0
590.69,90.0
590.75,88.0
590.81,84.0
590.88,71.0
590.94,54.0
591.0,68.0
591.07,76.0
591.13,68.0
591.19,68.0
591.25,61.0
591.32,79.0
591.38,67.0
591.44,69.0
591.51,64.0
591.57,58.0
591.63,69.0
591.7,65.0
591.76,69.0
591.82,84.0
591.88,72.0
591.95,60.0
592.01,62.0
592.07,59.0
592.14,58.0
592.2,52.0
592.26,64.0
592.33,59.0
592.39,55.0
592.45,73.0
592.51,67.0
592.58,67.0
592.64,50.0
592.7,47.0
592.77,39.0
592.83,42.0
592.89,53.0
592.96,52.0
593.02,42.0
593.08,38.0
593.14,48.0
593.21,49.0
593.27,60.0
593.33,81.0
593.4,76.0
593.46,67.0
593.52,43.0
593.59,66.0
593.65,80.0
593.71,71.0
593.77,53.0
593.84,55.0
593.9,77.0
593.96,71.0
594.03,69.0
594.09,64.0
594.15,66.0
594.22,69.0
594.28,75.0
594.34,65.0
594.4,60.0
594.47,82.0
594.53,89.0
594.59,68.0
594.66,82.0
594.72,73.0
594.78,81.0
594.85,86.0
594.91,79.0
594.97,84.0
595.03,82.0
595.1,85.0
595.16,74.0
595.22,75.0
595.29,78.0
595.35,79.0
595.41,95.0
595.48,103.0
595.54,90.0
595.6,92.0
595.66,100.0
595.73,88.0
595.79,95.0
595.85,89.0
595.92,90.0
595.98,75.0
596.04,89.0
596.11,78.0
596.17,68.0
596.23,68.0
596.29,68.0
596.36,63.0
596.42,45.0
596.48,65.0
596.55,64.0
596.61,65.0
596.67,67.0
596.74,78.0
596.8,73.0
596.86,71.0
596.92,75.0
596.99,97.0
597.05,72.0
597.11,67.0
597.18,78.0
597.24,64.0
597.3,62.0
597.37,60.0
597.43,66.0
597.49,57.0
597.55,63.0
597.62,73.0
597.68,67.0
597.74,67.0
597.81,67.0
597.87,48.0
597.93,41.0
598.0,54.0
598.06,75.0
598.12,62.0
598.18,65.0
598.25,60.0
598.31,63.0
598.37,86.0
598.44,73.0
598.5,61.0
598.56,73.0
598.63,70.0
598.69,85.0
598.75,61.0
598.81,92.0
598.88,92.0
598.94,88.0
599.0,96.0
599.07,86.0
599.13,101.0
599.19,90.0
599.26,85.0
599.32,67.0
599.38,63.0
599.44,69.0
599.51,67.0
599.57,65.0
599.63,89.0
599.7,82.0
599.76,87.0
599.82,66.0
599.89,84.0
599.95,109.0
600.01,90.0
600.07,90.0
600.14,95.0
600.2,105.0
600.26,96.0
600.33,93.0
600.39,107.0
600.45,111.0
600.52,115.0
600.58,107.0
600.64,115.0
600.7,115.0
600.77,113.0
600.83,118.0
600.89,127.0
600.96,130.0
601.02,128.0
601.08,140.0
601.15,136.0
601.21,112.0
601.27,141.0
601.33,126.0
601.4,134.0
601.46,129.0
601.52,121.0
601.59,131.0
601.65,126.0
601.71,116.0
601.78,121.0
601.84,128.0
601.9,139.0
601.96,148.0
602.03,143.0
602.09,146.0
602.15,150.0
602.22,155.0
602.28,158.0
602.34,178.0
602.41,177.0
602.47,170.0
602.53,170.0
602.59,159.0
602.66,177.0
602.72,176.0
602.78,184.0
602.85,191.0
602.91,172.0
602.97,169.0
603.04,172.0
603.1,174.0
603.16,185.0
603.22,176.0
603.29,188.0
603.35,194.0
603.41,191.0
603.48,183.0
603.54,180.0
603.6,195.0
603.67,214.0
603.73,195.0
603.79,199.0
603.85,206.0
603.92,199.0
603.98,191.0
604.04,181.0
604.11,203.0
604.17,217.0
604.23,201.0
604.3,201.0
604.36,204.0
604.42,202.0
604.48,188.0
604.55,183.0
604.61,180.0
604.67,169.0
604.74,175.0
604.8,192.0
604.86,185.0
604.93,162.0
604.99,176.0
605.05,177.0
605.11,159.0
605.18,185.0
605.24,203.0
605.3,181.0
605.37,189.0
605.43,200.0
605.49,184.0
605.56,185.0
605.62,182.0
605.68,199.0
605.74,177.0
605.81,155.0
605.87,152.0
605.93,144.0
606.0,163.0
606.06,156.0
606.12,139.0
606.19,150.0
606.25,148.0
606.31,128.0
606.37,128.0
606.44,130.0
606.5,129.0
606.56,102.0
606.63,101.0
606.69,120.0
606.75,127.0
606.82,109.0
606.88,88.0
606.94,81.0
607.0,96.0
607.07,85.0
607.13,86.0
607.19,89.0
607.26,76.0
607.32,79.0
607.38,98.0
607.45,92.0
607.51,82.0
607.57,61.0
607.63,65.0
607.7,74.0
607.76,80.0
607.82,76.0
607.89,76.0
607.95,57.0
608.01,60.0
608.08,55.0
608.14,58.0
608.2,54.0
608.26,52.0
608.33,74.0
608.39,69.0
608.45,75.0
608.52,66.0
608.58,81.0
608.64,87.0
608.71,104.0
608.77,86.0
608.83,67.0
608.89,61.0
608.96,59.0
609.02,64.0
609.08,49.0
609.15,70.0
609.21,55.0
609.27,42.0
609.34,49.0
609.4,61.0
609.46,61.0
609.52,75.0
609.59,56.0
609.65,40.0
609.71,70.0
609.78,57.0
609.84,75.0
609.9,83.0
609.97,65.0
610.03,69.0
610.09,45.0
610.15,54.0
610.22,51.0
610.28,57.0
610.34,59.0
610.41,51.0
610.47,62.0
610.53,48.0
610.6,34.0
610.66,65.0
610.72,58.0
610.78,65.0
610.85,59.0
610.91,59.0
610.97,61.0
611.04,54.0
611.1,60.0
611.16,67.0
611.23,80.0
611.29,97.0
611.35,64.0
611.41,72.0
611.48,87.0
611.54,76.0
611.6,92.0
611.67,78.0
611.73,88.0
611.79,107.0
611.86,83.0
611.92,74.0
611.98,93.0
612.04,76.0
612.11,64.0
612.17,84.0
612.23,82.0
612.3,60.0
612.36,73.0
612.42,79.0
612.49,89.0
612.55,86.0
612.61,92.0
612.67,87.0
612.74,53.0
612.8,60.0
612.86,56.0
612.93,74.0
612.99,87.0
613.05,90.0
613.12,87.0
613.18,80.0
613.24,82.0
613.3,87.0
613.37,78.0
613.43,51.0
613.49,50.0
613.56,58.0
613.62,38.0
613.68,25.0
613.75,38.0
613.81,45.0
613.87,44.0
613.93,54.0
614.0,80.0
614.06,57.0
614.12,38.0
614.19,33.0
614.25,39.0
614.31,41.0
614.38,52.0
614.44,62.0
614.5,74.0
614.56,83.0
614.63,65.0
614.69,50.0
614.75,63.0
614.82,58.0
614.88,60.0
614.94,45.0
615.01,52.0
615.07,42.0
615.13,34.0
615.19,46.0
615.26,30.0
615.32,44.0
615.38,45.0
615.45,24.0
615.51,29.0
615.57,35.0
615.64,38.0
615.7,41.0
615.76,38.0
615.82,24.0
615.89,19.0
615.95,30.0
616.01,18.0
616.08,-1.0
616.14,14.0
616.2,1.0
616.27,15.0
616.33,40.0
616.39,16.0
616.45,22.0
616.52,24.0
616.58,23.0
616.64,29.0
616.71,37.0
616.77,50.0
616.83,64.0
616.9,63.0
616.96,65.0
617.02,58.0
617.08,56.0
617.15,45.0
617.21,34.0
617.27,52.0
617.34,51.0
617.4,61.0
617.46,53.0
617.53,58.0
617.59,62.0
617.65,76.0
617.71,79.0
617.78,74.0
617.84,84.0
617.9,72.0
617.97,83.0
618.03,80.0
618.09,74.0
618.16,94.0
618.22,65.0
618.28,69.0
618.34,70.0
618.41,69.0
618.47,73.0
618.53,54.0
618.6,75.0
618.66,83.0
618.72,82.0
618.79,78.0
618.85,89.0
618.91,79.0
618.97,83.0
619.04,90.0
619.1,84.0
619.16,76.0
619.23,114.0
619.29,96.0
619.35,96.0
619.42,121.0
619.48,103.0
619.54,103.0
619.6,107.0
619.67,103.0
619.73,96.0
619.79,102.0
619.86,120.0
619.92,127.0
619.98,114.0
620.05,122.0
620.11,131.0
620.17,134.0
620.23,137.0
620.3,122.0
620.36,129.0
620.42,128.0
620.49,107.0
620.55,117.0
620.61,112.0
620.68,129.0
620.74,136.0
620.8,131.0
620.86,136.0
620.93,137.0
620.99,123.0
621.05,133.0
621.12,128.0
621.18,122.0
621.24,147.0
621.31,146.0
621.37,166.0
621.43,158.0
621.49,166.0
621.56,178.0
621.62,171.0
621.68,172.0
621.75,175.0
621.81,166.0
621.87,165.0
621.94,191.0
622.0,195.0
622.06,193.0
622.12,188.0
622.19,199.0
622.25,201.0
622.31,191.0
622.38,195.0
622.44,173.0
622.5,169.0
622.57,179.0
622.63,169.0
622.69,161.0
622.75,170.0
622.82,163.0
622.88,158.0
622.94,152.0
623.01,160.0
623.07,154.0
623.13,152.0
623.2,159.0
623.26,159.0
623.32,150.0
623.38,165.0
623.45,156.0
623.51,145.0
623.57,147.0
623.64,141.0
623.7,149.0
623.76,131.0
623.83,112.0
623.89,115.0
623.95,113.0
624.01,91.0
624.08,106.0
624.14,110.0
624.2,112.0
624.27,121.0
624.33,116.0
624.39,128.0
624.46,116.0
624.52,135.0
624.58,138.0
624.64,146.0
624.71,118.0
624.77,116.0
624.83,134.0
624.9,131.0
624.96,103.0
625.02,92.0
625.09,132.0
625.15,101.0
625.21,96.0
625.27,110.0
625.34,133.0
625.4,126.0
625.46,118.0
625.53,115.0
625.59,118.0
625.65,111.0
625.72,107.0
625.78,96.0
625.84,100.0
625.9,95.0
625.97,113.0
626.03,123.0
626.09,96.0
626.16,103.0
626.22,102.0
626.28,101.0
626.35,122.0
626.41,104.0
626.47,112.0
626.53,118.0
626.6,112.0
626.66,103.0
626.72,89.0
626.79,87.0
626.85,85.0
626.91,82.0
626.98,87.0
627.04,66.0
627.1,60.0
627.16,60.0
627.23,51.0
627.29,43.0
627.35,70.0
627.42,84.0
627.48,69.0
627.54,88.0
627.61,96.0
627.67,83.0
627.73,90.0
627.79,92.0
627.86,99.0
627.92,98.0
627.98,83.0
628.05,84.0
628.11,88.0
628.17,101.0
628.24,88.0
628.3,93.0
628.36,88.0
628.42,103.0
628.49,97.0
628.55,99.0
628.61,107.0
628.68,118.0
628.74,115.0
628.8,97.0
628.87,103.0
628.93,94.0
628.99,79.0
629.05,100.0
629.12,78.0
629.18,85.0
629.24,78.0
629.31,74.0
629.37,99.0
629.43,85.0
629.5,92.0
629.56,99.0
629.62,81.0
629.68,70.0
629.75,81.0
629.81,76.0
629.87,73.0
629.94,70.0
630.0,72.0
630.06,70.0
630.13,74.0
630.19,79.0
630.25,56.0
630.31,61.0
630.38,65.0
630.44,59.0
630.5,49.0
630.57,34.0
630.63,47.0
630.69,76.0
630.76,64.0
630.82,59.0
630.88,61.0
630.94,63.0
631.01,77.0
631.07,67.0
631.13,86.0
631.2,59.0
631.26,67.0
631.32,66.0
631.39,59.0
631.45,43.0
631.51,48.0
631.57,58.0
631.64,50.0
631.7,36.0
631.76,33.0
631.83,37.0
631.89,21.0
631.95,15.0
632.02,18.0
632.08,19.0
632.14,21.0
632.2,25.0
632.27,17.0
632.33,19.0
632.39,21.0
632.46,35.0
632.52,19.0
632.58,23.0
632.65,21.0
632.71,43.0
632.77,37.0
632.83,32.0
632.9,44.0
632.96,43.0
633.02,43.0
633.09,43.0
633.15,52.0
633.21,56.0
633.28,58.0
633.34,76.0
633.4,52.0
633.46,71.0
633.53,69.0
633.59,65.0
633.65,61.0
633.72,78.0
633.78,81.0
633.84,73.0
633.91,66.0
633.97,65.0
634.03,90.0
634.09,90.0
634.16,95.0
634.22,84.0
634.28,83.0
634.35,83.0
634.41,90.0
634.47,70.0
634.54,72.0
634.6,76.0
634.66,61.0
634.72,71.0
634.79,73.0
634.85,66.0
634.91,65.0
634.98,72.0
635.04,87.0
635.1,92.0
635.17,90.0
635.23,91.0
635.29,87.0
635.35,105.0
635.42,113.0
635.48,104.0
635.54,100.0
635.61,91.0
635.67,96.0
635.73,94.0
635.8,115.0
635.86,117.0
635.92,115.0
635.98,101.0
636.05,98.0
636.11,132.0
636.17,123.0
636.24,125.0
636.3,120.0
636.36,122.0
636.43,137.0
636.49,113.0
636.55,134.0
636.61,134.0
636.68,129.0
636.74,147.0
636.8,139.0
636.87,151.0
636.93,173.0
636.99,169.0
637.06,163.0
637.12,169.0
637.18,152.0
637.24,137.0
637.31,153.0
637.37,170.0
637.43,175.0
637.5,173.0
637.56,161.0
637.62,148.0
637.69,158.0
637.75,142.0
637.81,156.0
637.87,156.0
637.94,167.0
638.0,160.0
638.06,150.0
638.13,154.0
638.19,141.0
638.25,139.0
638.32,138.0
638.38,147.0
638.44,148.0
638.5,136.0
638.57,139.0
638.63,151.0
638.69,164.0
638.76,173.0
638.82,166.0
638.88,165.0
638.95,165.0
639.01,169.0
639.07,162.0
639.13,167.0
639.2,165.0
639.26,163.0
639.32,156.0
639.39,157.0
639.45,177.0
639.51,161.0
639.58,181.0
639.64,192.0
639.7,181.0
639.76,171.0
639.83,167.0
639.89,173.0
639.95,166.0
640.02,158.0
640.08,167.0
640.14,153.0
640.21,130.0
640.27,147.0
640.33,153.0
640.39,149.0
640.46,125.0
640.52,124.0
640.58,132.0
640.65,133.0
640.71,128.0
640.77,103.0
640.84,105.0
640.9,111.0
640.96,100.0
641.02,90.0
641.09,100.0
641.15,81.0
641.21,90.0
641.28,89.0
641.34,104.0
641.4,96.0
641.47,78.0
641.53,87.0
641.59,96.0
641.65,82.0
641.72,88.0
641.78,93.0
641.84,96.0
641.91,92.0
641.97,99.0
642.03,93.0
642.1,98.0
642.16,75.0
642.22,78.0
642.28,66.0
642.35,68.0
642.41,45.0
642.47,42.0
642.54,48.0
642.6,68.0
642.66,68.0
642.73,63.0
642.79,59.0
642.85,85.0
642.91,77.0
642.98,62.0
643.04,68.0
643.1,75.0
643.17,95.0
643.23,106.0
643.29,95.0
643.36,89.0
643.42,86.0
643.48,100.0
643.54,84.0
643.61,76.0
643.67,73.0
643.73,97.0
643.8,94.0
643.86,70.0
643.92,88.0
643.99,101.0
644.05,90.0
644.11,87.0
644.17,81.0
644.24,80.0
644.3,90.0
644.36,88.0
644.43,87.0
644.49,107.0
644.55,104.0
644.62,96.0
644.68,91.0
644.74,87.0
644.8,86.0
644.87,70.0
644.93,85.0
644.99,96.0
645.06,116.0
645.12,92.0
645.18,86.0
645.25,90.0
645.31,103.0
645.37,92.0
645.43,74.0
645.5,94.0
645.56,88.0
645.62,110.0
645.69,84.0
645.75,100.0
645.81,78.0
645.88,75.0
645.94,100.0
646.0,106.0
646.06,93.0
646.13,98.0
646.19,68.0
646.25,67.0
646.32,59.0
646.38,56.0
646.44,55.0
646.51,64.0
646.57,70.0
646.63,78.0
646.69,86.0
646.76,90.0
646.82,77.0
646.88,87.0
646.95,111.0
647.01,107.0
647.07,94.0
647.14,106.0
647.2,96.0
647.26,93.0
647.32,85.0
647.39,95.0
647.45,95.0
647.51,87.0
647.58,85.0
647.64,103.0
647.7,91.0
647.77,99.0
647.83,102.0
647.89,96.0
647.95,97.0
648.02,88.0
648.08,94.0
648.14,113.0
648.21,117.0
648.27,74.0
648.33,84.0
648.4,100.0
648.46,98.0
648.52,91.0
648.58,98.0
648.65,93.0
648.71,89.0
648.77,92.0
648.84,101.0
648.9,107.0
648.96,107.0
649.03,112.0
649.09,94.0
649.15,85.0
649.21,83.0
649.28,85.0
649.34,89.0
649.4,87.0
649.47,73.0
649.53,81.0
649.59,91.0
649.66,72.0
649.72,45.0
649.78,59.0
649.84,57.0
649.91,62.0
649.97,74.0
650.03,65.0
650.1,79.0
650.16,79.0
650.22,72.0
650.29,97.0
650.35,98.0
650.41,108.0
650.47,107.0
650.54,101.0
650.6,107.0
650.66,108.0
650.73,95.0
650.79,103.0
650.85,101.0
650.92,114.0
650.98,104.0
651.04,128.0
651.1,115.0
651.17,105.0
651.23,100.0
651.29,96.0
651.36,118.0
651.42,111.0
651.48,113.0
651.55,115.0
651.61,130.0
651.67,118.0
651.73,128.0
651.8,137.0
651.86,111.0
651.92,122.0
651.99,125.0
652.05,131.0
652.11,136.0
652.18,115.0
652.24,120.0
652.3,123.0
652.36,123.0
652.43,125.0
652.49,126.0
652.55,102.0
652.62,138.0
652.68,129.0
652.74,142.0
652.81,133.0
652.87,134.0
652.93,146.0
652.99,122.0
653.06,136.0
653.12,155.0
653.18,153.0
653.25,141.0
653.31,153.0
653.37,147.0
653.44,133.0
653.5,155.0
653.56,147.0
653.62,161.0
653.69,172.0
653.75,180.0
653.81,176.0
653.88,167.0
653.94,185.0
654.0,200.0
654.07,209.0
654.13,195.0
654.19,195.0
654.25,208.0
654.32,202.0
654.38,183.0
654.44,199.0
654.51,210.0
654.57,211.0
654.63,208.0
654.7,221.0
654.76,213.0
654.82,225.0
654.88,225.0
654.95,228.0
655.01,225.0
655.07,228.0
655.14,226.0
655.2,207.0
655.26,224.0
655.33,239.0
655.39,218.0
655.45,225.0
655.51,239.0
655.58,244.0
655.64,228.0
655.7,228.0
655.77,222.0
655.83,222.0
655.89,222.0
655.96,206.0
656.02,212.0
656.08,206.0
656.14,222.0
656.21,222.0
656.27,210.0
656.33,198.0
656.4,211.0
656.46,230.0
656.52,218.0
656.59,222.0
656.65,224.0
656.71,215.0
656.77,179.0
656.84,187.0
656.9,199.0
656.96,207.0
657.03,212.0
657.09,208.0
657.15,187.0
657.22,161.0
657.28,179.0
657.34,186.0
657.4,180.0
657.47,166.0
657.53,160.0
657.59,150.0
657.66,163.0
657.72,139.0
657.78,154.0
657.85,154.0
657.91,148.0
657.97,138.0
658.03,144.0
658.1,129.0
658.16,121.0
658.22,116.0
658.29,95.0
658.35,101.0
658.41,95.0
658.48,106.0
658.54,120.0
658.6,105.0
658.66,95.0
658.73,90.0
658.79,109.0
658.85,95.0
658.92,106.0
658.98,112.0
659.04,87.0
659.11,84.0
659.17,90.0
659.23,92.0
659.29,89.0
659.36,76.0
659.42,76.0
659.48,79.0
659.55,77.0
659.61,66.0
659.67,65.0
659.74,74.0
659.8,56.0
659.86,57.0
659.92,69.0
659.99,64.0
660.05,54.0
660.11,45.0
660.18,42.0
660.24,51.0
660.3,63.0
660.37,63.0
660.43,58.0
660.49,68.0
660.55,62.0
660.62,55.0
660.68,59.0
660.74,58.0
660.81,40.0
660.87,52.0
660.93,56.0
661.0,69.0
661.06,67.0
661.12,60.0
661.18,66.0
661.25,55.0
661.31,71.0
661.37,81.0
661.44,66.0
661.5,73.0
661.56,78.0
661.63,59.0
661.69,52.0
661.75,58.0
661.81,41.0
661.88,64.0
661.94,54.0
662.0,45.0
662.07,49.0
662.13,59.0
662.19,55.0
662.26,39.0
662.32,48.0
662.38,38.0
662.44,40.0
662.51,47.0
662.57,32.0
662.63,50.0
662.7,28.0
662.76,48.0
662.82,38.0
662.89,35.0
662.95,60.0
663.01,28.0
663.07,47.0
663.14,57.0
663.2,45.0
663.26,48.0
663.33,62.0
663.39,36.0
663.45,36.0
663.52,47.0
663.58,63.0
663.64,47.0
663.7,26.0
663.77,40.0
663.83,29.0
663.89,33.0
663.96,40.0
664.02,44.0
664.08,47.0
664.15,72.0
664.21,45.0
664.27,47.0
664.33,37.0
664.4,33.0
664.46,48.0
664.52,37.0
664.59,37.0
664.65,21.0
664.71,19.0
664.78,24.0
664.84,21.0
664.9,30.0
664.96,48.0
665.03,49.0
665.09,44.0
665.15,32.0
665.22,27.0
665.28,52.0
665.34,47.0
665.41,48.0
665.47,28.0
665.53,32.0
665.59,30.0
665.66,16.0
665.72,16.0
665.78,7.0
665.85,19.0
665.91,11.0
665.97,11.0
666.04,8.0
666.1,18.0
666.16,18.0
666.22,-6.0
666.29,25.0
666.35,20.0
666.41,16.0
666.48,11.0
666.54,15.0
666.6,3.0
666.67,18.0
666.73,24.0
666.79,15.0
666.85,37.0
666.92,49.0
666.98,46.0
667.04,38.0
667.11,44.0
667.17,22.0
667.23,8.0
667.3,19.0
667.36,36.0
667.42,36.0
667.48,44.0
667.55,27.0
667.61,32.0
667.67,41.0
667.74,22.0
667.8,40.0
667.86,58.0
667.93,41.0
667.99,55.0
668.05,48.0
668.11,40.0
668.18,66.0
668.24,33.0
668.3,29.0
668.37,48.0
668.43,48.0
668.49,68.0
668.56,49.0
668.62,39.0
668.68,58.0
668.74,45.0
668.81,50.0
668.87,65.0
668.93,57.0
669.0,46.0
669.06,54.0
669.12,48.0
669.19,47.0
669.25,66.0
669.31,66.0
669.37,56.0
669.44,58.0
669.5,62.0
669.56,70.0
669.63,86.0
669.69,73.0
669.75,81.0
669.82,96.0
669.88,77.0
669.94,76.0
670.0,84.0
670.07,97.0
670.13,112.0
670.19,107.0
670.26,114.0
670.32,103.0
670.38,104.0
670.45,117.0
670.51,116.0
670.57,99.0
670.63,115.0
670.7,120.0
670.76,102.0
670.82,109.0
670.89,101.0
670.95,93.0
671.01,91.0
671.08,90.0
671.14,102.0
671.2,111.0
671.26,105.0
671.33,100.0
671.39,110.0
671.45,105.0
671.52,110.0
671.58,120.0
671.64,111.0
671.71,116.0
671.77,102.0
671.83,114.0
671.89,122.0
671.96,117.0
672.02,115.0
672.08,126.0
672.15,157.0
672.21,168.0
672.27,155.0
672.34,156.0
672.4,164.0
672.46,164.0
672.52,162.0
672.59,180.0
672.65,174.0
672.71,189.0
672.78,176.0
672.84,183.0
672.9,178.0
672.97,187.0
673.03,189.0
673.09,170.0
673.15,183.0
673.22,172.0
673.28,181.0
673.34,202.0
673.41,197.0
673.47,182.0
673.53,170.0
673.6,167.0
673.66,169.0
673.72,155.0
673.78,172.0
673.85,175.0
673.91,172.0
673.97,179.0
674.04,178.0
674.1,160.0
674.16,163.0
674.23,166.0
674.29,158.0
674.35,164.0
674.41,161.0
674.48,163.0
674.54,146.0
674.6,149.0
674.67,139.0
674.73,154.0
674.79,158.0
674.86,164.0
674.92,165.0
674.98,175.0
675.04,156.0
675.11,150.0
675.17,144.0
675.23,124.0
675.3,128.0
675.36,131.0
675.42,131.0
675.49,132.0
675.55,132.0
675.61,127.0
675.67,120.0
675.74,122.0
675.8,139.0
675.86,123.0
675.93,144.0
675.99,130.0
676.05,137.0
676.12,128.0
676.18,125.0
676.24,143.0
676.3,136.0
676.37,139.0
676.43,136.0
676.49,141.0
676.56,134.0
676.62,125.0
676.68,126.0
676.75,139.0
676.81,114.0
676.87,101.0
676.93,121.0
677.0,126.0
677.06,109.0
677.12,132.0
677.19,131.0
677.25,120.0
677.31,107.0
677.38,137.0
677.44,134.0
677.5,114.0
677.56,120.0
677.63,128.0
677.69,136.0
677.75,124.0
677.82,110.0
677.88,119.0
677.94,104.0
678.01,129.0
678.07,125.0
678.13,123.0
678.19,126.0
678.26,126.0
678.32,136.0
678.38,128.0
678.45,116.0
678.51,127.0
678.57,143.0
678.64,152.0
678.7,153.0
678.76,137.0
678.82,119.0
678.89,119.0
678.95,132.0
679.01,122.0
679.08,134.0
679.14,121.0
679.2,123.0
679.27,126.0
679.33,104.0
679.39,111.0
679.45,107.0
679.52,95.0
679.58,98.0
679.64,116.0
679.71,88.0
679.77,107.0
679.83,115.0
679.9,99.0
679.96,95.0
680.02,86.0
680.08,100.0
680.15,77.0
680.21,94.0
680.27,105.0
680.34,94.0
680.4,100.0
680.46,114.0
680.53,120.0
680.59,99.0
680.65,120.0
680.71,111.0
680.78,142.0
680.84,131.0
680.9,115.0
680.97,121.0
681.03,108.0
681.09,141.0
681.16,146.0
681.22,162.0
681.28,139.0
681.34,139.0
681.41,130.0
681.47,136.0
681.53,135.0
681.6,115.0
681.66,131.0
681.72,121.0
681.79,112.0
681.85,111.0
681.91,118.0
681.97,94.0
682.04,85.0
682.1,73.0
682.16,74.0
682.23,98.0
682.29,92.0
682.35,87.0
682.42,81.0
682.48,66.0
682.54,79.0
682.6,59.0
682.67,61.0
682.73,54.0
682.79,62.0
682.86,48.0
682.92,41.0
682.98,59.0
683.05,54.0
683.11,65.0
683.17,67.0
683.23,59.0
683.3,63.0
683.36,69.0
683.42,50.0
683.49,77.0
683.55,77.0
683.61,53.0
683.68,60.0
683.74,70.0
683.8,64.0
683.86,71.0
683.93,94.0
683.99,77.0
684.05,96.0
684.12,91.0
684.18,85.0
684.24,70.0
684.31,80.0
684.37,79.0
684.43,84.0
684.49,100.0
684.56,62.0
684.62,85.0
684.68,78.0
684.75,73.0
684.81,64.0
684.87,90.0
684.94,93.0
685.0,69.0
685.06,88.0
685.12,72.0
685.19,73.0
685.25,70.0
685.31,74.0
685.38,95.0
685.44,72.0
685.5,79.0
685.57,104.0
685.63,83.0
685.69,85.0
685.75,84.0
685.82,47.0
685.88,48.0
685.94,56.0
686.01,73.0
686.07,85.0
686.13,81.0
686.2,72.0
686.26,73.0
686.32,85.0
686.38,86.0
686.45,62.0
686.51,85.0
686.57,83.0
686.64,62.0
686.7,78.0
686.76,73.0
686.83,60.0
686.89,41.0
686.95,66.0
687.01,70.0
687.08,67.0
687.14,61.0
687.2,71.0
687.27,76.0
687.33,64.0
687.39,54.0
687.46,62.0
687.52,60.0
687.58,54.0
687.64,46.0
687.71,54.0
687.77,55.0
687.83,66.0
687.9,79.0
687.96,55.0
688.02,69.0
688.09,75.0
688.15,93.0
688.21,90.0
688.27,99.0
688.34,96.0
688.4,104.0
688.46,107.0
688.53,88.0
688.59,92.0
688.65,77.0
688.72,98.0
688.78,113.0
688.84,95.0
688.9,90.0
688.97,92.0
689.03,91.0
689.09,91.0
689.16,118.0
689.22,128.0
689.28,115.0
689.35,133.0
689.41,142.0
689.47,143.0
689.53,127.0
689.6,120.0
689.66,135.0
689.72,143.0
689.79,135.0
689.85,132.0
689.91,113.0
689.98,131.0
690.04,140.0
690.1,146.0
690.16,140.0
690.23,134.0
690.29,142.0
690.35,113.0
690.42,131.0
690.48,125.0
690.54,114.0
690.61,101.0
690.67,98.0
690.73,114.0
690.79,110.0
690.86,101.0
690.92,88.0
690.98,76.0
691.05,71.0
691.11,84.0
691.17,94.0
691.24,101.0
691.3,88.0
691.36,91.0
691.42,106.0
691.49,115.0
691.55,109.0
691.61,108.0
691.68,85.0
691.74,69.0
691.8,89.0
691.87,52.0
691.93,63.0
691.99,63.0
692.05,66.0
692.12,59.0
692.18,64.0
692.24,73.0
692.31,78.0
692.37,76.0
692.43,81.0
692.5,77.0
692.56,70.0
692.62,88.0
692.68,92.0
692.75,86.0
692.81,74.0
692.87,79.0
692.94,68.0
693.0,59.0
693.06,58.0
693.13,70.0
693.19,70.0
693.25,79.0
693.31,76.0
693.38,84.0
693.44,104.0
693.5,66.0
693.57,68.0
693.63,47.0
693.69,71.0
693.76,59.0
693.82,46.0
693.88,47.0
693.94,58.0
694.01,84.0
694.07,63.0
694.13,52.0
694.2,68.0
694.26,74.0
694.32,54.0
694.39,65.0
694.45,51.0
694.51,59.0
694.57,63.0
694.64,44.0
694.7,41.0
694.76,77.0
694.83,77.0
694.89,68.0
694.95,79.0
695.02,81.0
695.08,82.0
695.14,82.0
695.2,68.0
695.27,63.0
695.33,70.0
695.39,64.0
695.46,69.0
695.52,70.0
695.58,82.0
695.65,77.0
695.71,71.0
695.77,65.0
695.83,65.0
695.9,78.0
695.96,74.0
696.02,55.0
696.09,55.0
696.15,73.0
696.21,54.0
696.28,57.0
696.34,43.0
696.4,60.0
696.46,63.0
696.53,57.0
696.59,62.0
696.65,67.0
696.72,41.0
696.78,42.0
696.84,55.0
696.91,40.0
696.97,49.0
697.03,45.0
697.09,49.0
697.16,61.0
697.22,51.0
697.28,47.0
697.35,42.0
697.41,50.0
697.47,48.0
697.54,45.0
697.6,58.0
697.66,43.0
697.72,54.0
697.79,49.0
697.85,51.0
697.91,70.0
697.98,65.0
698.04,71.0
698.1,86.0
698.17,106.0
698.23,112.0
698.29,98.0
698.35,104.0
698.42,102.0
698.48,66.0
698.54,81.0
698.61,80.0
698.67,41.0
698.73,69.0
698.8,64.0
698.86,62.0
698.92,62.0
698.98,57.0
699.05,76.0
699.11,55.0
699.17,66.0
699.24,57.0
699.3,47.0
699.36,58.0
699.43,60.0
699.49,62.0
699.55,57.0
699.61,44.0
699.68,50.0
699.74,63.0
699.8,48.0
699.87,62.0
699.93,63.0
699.99,60.0
700.06,74.0
700.12,55.0
700.18,70.0
700.24,66.0
700.31,82.0
700.37,91.0
700.43,84.0
700.5,73.0
700.56,89.0
700.62,106.0
700.69,106.0
700.75,107.0
700.81,87.0
700.87,105.0
700.94,109.0
701.0,97.0
701.06,81.0
701.13,88.0
701.19,89.0
701.25,88.0
701.32,110.0
701.38,113.0
701.44,104.0
701.5,95.0
701.57,112.0
701.63,93.0
701.69,94.0
701.76,89.0
701.82,100.0
701.88,98.0
701.95,88.0
702.01,95.0
702.07,101.0
702.13,110.0
702.2,102.0
702.26,119.0
702.32,113.0
702.39,112.0
702.45,135.0
702.51,132.0
702.58,121.0
702.64,118.0
702.7,137.0
702.76,129.0
702.83,130.0
702.89,129.0
702.95,109.0
703.02,120.0
703.08,143.0
703.14,144.0
703.21,118.0
703.27,125.0
703.33,148.0
703.39,140.0
703.46,144.0
703.52,147.0
703.58,137.0
703.65,142.0
703.71,141.0
703.77,129.0
703.84,135.0
703.9,146.0
703.96,150.0
704.02,152.0
704.09,143.0
704.15,148.0
704.21,141.0
704.28,144.0
704.34,172.0
704.4,152.0
704.47,165.0
704.53,175.0
704.59,181.0
704.65,161.0
704.72,175.0
704.78,172.0
704.84,171.0
704.91,189.0
704.97,181.0
705.03,189.0
705.1,191.0
705.16,203.0
705.22,200.0
705.28,219.0
705.35,215.0
705.41,222.0
705.47,229.0
705.54,230.0
705.6,227.0
705.66,216.0
705.73,209.0
705.79,188.0
705.85,198.0
705.91,209.0
705.98,206.0
706.04,206.0
706.1,220.0
706.17,209.0
706.23,225.0
706.29,218.0
706.36,206.0
706.42,217.0
706.48,211.0
706.54,196.0
706.61,198.0
706.67,193.0
706.73,198.0
706.8,186.0
706.86,194.0
706.92,190.0
706.99,197.0
707.05,180.0
707.11,171.0
707.17,177.0
707.24,184.0
707.3,162.0
707.36,170.0
707.43,172.0
707.49,180.0
707.55,156.0
707.62,137.0
707.68,163.0
707.74,161.0
707.8,159.0
707.87,138.0
707.93,150.0
707.99,173.0
708.06,161.0
708.12,158.0
708.18,153.0
708.25,151.0
708.31,155.0
708.37,158.0
708.43,139.0
708.5,137.0
708.56,139.0
708.62,142.0
708.69,137.0
708.75,146.0
708.81,149.0
708.88,150.0
708.94,136.0
709.0,134.0
709.06,147.0
709.13,152.0
709.19,131.0
709.25,110.0
709.32,125.0
709.38,121.0
709.44,129.0
709.51,106.0
709.57,124.0
709.63,114.0
709.69,109.0
709.76,105.0
709.82,110.0
709.88,112.0
709.95,135.0
710.01,104.0
710.07,107.0
710.14,132.0
710.2,121.0
710.26,137.0
710.32,115.0
710.39,113.0
710.45,125.0
710.51,115.0
710.58,104.0
710.64,110.0
710.7,123.0
710.77,123.0
710.83,113.0
710.89,106.0
710.95,99.0
711.02,78.0
711.08,64.0
711.14,66.0
711.21,70.0
711.27,53.0
711.33,62.0
711.4,59.0
711.46,86.0
711.52,75.0
711.58,60.0
711.65,59.0
711.71,83.0
711.77,61.0
711.84,64.0
711.9,37.0
711.96,35.0
712.03,53.0
712.09,52.0
712.15,70.0
712.21,57.0
712.28,43.0
712.34,53.0
712.4,55.0
712.47,47.0
712.53,45.0
712.59,23.0
712.66,34.0
712.72,49.0
712.78,35.0
712.84,9.0
712.91,11.0
712.97,35.0
713.03,48.0
713.1,27.0
713.16,50.0
713.22,41.0
713.29,37.0
713.35,22.0
713.41,31.0
713.47,36.0
713.54,35.0
713.6,30.0
713.66,21.0
713.73,28.0
713.79,-7.0
713.85,7.0
713.92,28.0
713.98,27.0
714.04,27.0
714.1,16.0
714.17,2.0
714.23,6.0
714.29,38.0
714.36,44.0
714.42,7.0
714.48,17.0
714.55,12.0
714.61,11.0
714.67,23.0
714.73,22.0
714.8,21.0
714.86,25.0
714.92,18.0
714.99,29.0
715.05,27.0
715.11,3.0
715.18,14.0
715.24,0.0
715.3,10.0
715.36,-8.0
715.43,-4.0
715.49,-6.0
715.55,2.0
715.62,3.0
715.68,19.0
715.74,-9.0
715.81,-16.0
715.87,15.0
715.93,-7.0
715.99,-13.0
716.06,-27.0
716.12,-13.0
716.18,-20.0
716.25,-12.0
716.31,17.0
716.37,2.0
716.44,20.0
716.5,20.0
716.56,10.0
716.62,8.0
716.69,7.0
716.75,14.0
716.81,6.0
716.88,36.0
716.94,11.0
717.0,18.0
717.07,38.0
717.13,49.0
717.19,47.0
717.25,50.0
717.32,61.0
717.38,52.0
717.44,47.0
717.51,69.0
717.57,77.0
717.63,61.0
717.7,44.0
717.76,47.0
717.82,51.0
717.88,54.0
717.95,41.0
718.01,47.0
718.07,58.0
718.14,65.0
718.2,58.0
718.26,52.0
718.33,31.0
718.39,49.0
718.45,62.0
718.51,39.0
718.58,51.0
718.64,42.0
718.7,18.0
718.77,36.0
718.83,51.0
718.89,46.0
718.96,62.0
719.02,42.0
719.08,50.0
719.14,59.0
719.21,43.0
719.27,68.0
719.33,51.0
719.4,44.0
719.46,44.0
719.52,68.0
719.59,62.0
719.65,57.0
719.71,59.0
719.77,56.0
719.84,62.0
719.9,80.0
719.96,95.0
720.03,89.0
720.09,79.0
720.15,83.0
720.22,100.0
720.28,102.0
720.34,102.0
720.4,110.0
720.47,129.0
720.53,114.0
720.59,88.0
720.66,104.0
720.72,107.0
720.78,125.0
720.85,117.0
720.91,115.0
720.97,129.0
721.03,135.0
721.1,148.0
721.16,140.0
721.22,153.0
721.29,160.0
721.35,152.0
721.41,121.0
721.48,145.0
721.54,141.0
721.6,148.0
721.66,159.0
721.73,145.0
721.79,157.0
721.85,149.0
721.92,162.0
721.98,173.0
722.04,186.0
722.11,171.0
722.17,151.0
722.23,164.0
722.29,159.0
722.36,149.0
722.42,147.0
722.48,168.0
722.55,164.0
722.61,164.0
722.67,165.0
722.74,141.0
722.8,149.0
722.86,147.0
722.92,165.0
722.99,174.0
723.05,179.0
723.11,197.0
723.18,182.0
723.24,190.0
723.3,181.0
723.37,201.0
723.43,190.0
723.49,170.0
723.55,158.0
723.62,157.0
723.68,194.0
723.74,192.0
723.81,206.0
723.87,183.0
723.93,189.0
724.0,184.0
724.06,173.0
724.12,181.0
724.18,179.0
724.25,180.0
724.31,164.0
724.37,171.0
724.44,159.0
724.5,156.0
724.56,150.0
724.63,164.0
724.69,142.0
724.75,146.0
724.81,157.0
724.88,151.0
724.94,135.0
725.0,140.0
725.07,141.0
725.13,153.0
725.19,168.0
725.26,153.0
725.32,151.0
725.38,157.0
725.44,151.0
725.51,151.0
725.57,152.0
725.63,172.0
725.7,162.0
725.76,162.0
725.82,181.0
725.89,185.0
725.95,186.0
726.01,179.0
726.07,179.0
726.14,179.0
726.2,173.0
726.26,189.0
726.33,186.0
726.39,178.0
726.45,178.0
726.52,186.0
726.58,184.0
726.64,171.0
726.7,182.0
726.77,170.0
726.83,163.0
726.89,173.0
726.96,148.0
727.02,173.0
727.08,138.0
727.15,142.0
727.21,159.0
727.27,160.0
727.33,162.0
727.4,153.0
727.46,148.0
727.52,167.0
727.59,157.0
727.65,162.0
727.71,151.0
727.78,151.0
727.84,147.0
727.9,153.0
727.96,142.0
728.03,157.0
728.09,141.0
728.15,146.0
728.22,143.0
728.28,159.0
728.34,146.0
728.41,163.0
728.47,160.0
728.53,146.0
728.59,157.0
728.66,142.0
728.72,127.0
728.78,133.0
728.85,139.0
728.91,133.0
728.97,126.0
729.04,125.0
729.1,154.0
729.16,146.0
729.22,136.0
729.29,132.0
729.35,148.0
729.41,129.0
729.48,112.0
729.54,112.0
729.6,99.0
729.67,128.0
729.73,113.0
729.79,92.0
729.85,100.0
729.92,80.0
729.98,83.0
730.04,76.0
730.11,76.0
730.17,87.0
730.23,87.0
730.3,106.0
730.36,86.0
730.42,104.0
730.48,98.0
730.55,95.0
730.61,114.0
730.67,102.0
730.74,98.0
730.8,101.0
730.86,103.0
730.93,91.0
730.99,95.0
731.05,91.0
731.11,109.0
731.18,106.0
731.24,88.0
731.3,96.0
731.37,99.0
731.43,98.0
731.49,104.0
731.56,108.0
731.62,111.0
731.68,101.0
731.74,106.0
731.81,106.0
731.87,102.0
731.93,119.0
732.0,108.0
732.06,95.0
732.12,94.0
732.19,128.0
732.25,113.0
732.31,102.0
732.37,99.0
732.44,91.0
732.5,98.0
732.56,88.0
732.63,84.0
732.69,76.0
732.75,69.0
732.82,85.0
732.88,73.0
732.94,65.0
733.0,71.0
733.07,76.0
733.13,72.0
733.19,74.0
733.26,79.0
733.32,83.0
733.38,80.0
733.45,80.0
733.51,65.0
733.57,87.0
733.63,91.0
733.7,79.0
733.76,59.0
733.82,63.0
733.89,65.0
733.95,72.0
734.01,82.0
734.08,61.0
734.14,54.0
734.2,89.0
734.26,68.0
734.33,64.0
734.39,63.0
734.45,63.0
734.52,78.0
734.58,68.0
734.64,71.0
734.71,68.0
734.77,79.0
734.83,73.0
734.89,59.0
734.96,47.0
735.02,58.0
735.08,52.0
735.15,72.0
735.21,80.0
735.27,56.0
735.34,58.0
735.4,57.0
735.46,73.0
735.52,93.0
735.59,70.0
735.65,79.0
735.71,94.0
735.78,82.0
735.84,91.0
735.9,94.0
735.97,102.0
736.03,119.0
736.09,99.0
736.15,126.0
736.22,119.0
736.28,80.0
736.34,85.0
736.41,89.0
736.47,74.0
736.53,84.0
736.6,72.0
736.66,89.0
736.72,71.0
736.78,70.0
736.85,61.0
736.91,88.0
736.97,87.0
737.04,73.0
737.1,82.0
737.16,63.0
737.23,74.0
737.29,70.0
737.35,79.0
737.41,79.0
737.48,77.0
737.54,71.0
737.6,79.0
737.67,93.0
737.73,92.0
737.79,104.0
737.86,92.0
737.92,96.0
737.98,79.0
738.04,91.0
738.11,93.0
738.17,91.0
738.23,98.0
738.3,82.0
738.36,120.0
738.42,125.0
738.49,100.0
738.55,102.0
738.61,96.0
738.67,102.0
738.74,115.0
738.8,91.0
738.86,95.0
738.93,115.0
738.99,89.0
739.05,106.0
739.12,102.0
739.18,108.0
739.24,104.0
739.3,128.0
739.37,110.0
739.43,121.0
739.49,143.0
739.56,129.0
739.62,122.0
739.68,123.0
739.75,139.0
739.81,141.0
739.87,131.0
739.93,115.0
740.0,134.0
740.06,146.0
740.12,129.0
740.19,121.0
740.25,132.0
740.31,122.0
740.38,119.0
740.44,130.0
740.5,147.0
740.56,131.0
740.63,142.0
740.69,118.0
740.75,128.0
740.82,112.0
740.88,123.0
740.94,112.0
741.01,106.0
741.07,121.0
741.13,125.0
741.19,139.0
741.26,114.0
741.32,102.0
741.38,113.0
741.45,117.0
741.51,114.0
741.57,106.0
741.64,110.0
741.7,98.0
741.76,107.0
741.82,124.0
741.89,125.0
741.95,115.0
742.01,110.0
742.08,118.0
742.14,109.0
742.2,106.0
742.27,112.0
742.33,127.0
742.39,125.0
742.45,129.0
742.52,117.0
742.58,109.0
742.64,121.0
742.71,149.0
742.77,134.0
742.83,126.0
742.9,110.0
742.96,131.0
743.02,146.0
743.08,131.0
743.15,120.0
743.21,130.0
743.27,132.0
743.34,124.0
743.4,110.0
743.46,92.0
743.53,102.0
743.59,98.0
743.65,119.0
743.71,108.0
743.78,75.0
743.84,73.0
743.9,80.0
743.97,93.0
744.03,98.0
744.09,81.0
744.16,91.0
744.22,97.0
744.28,95.0
744.34,93.0
744.41,100.0
744.47,107.0
744.53,80.0
744.6,86.0
744.66,84.0
744.72,101.0
744.79,121.0
744.85,110.0
744.91,115.0
744.97,107.0
745.04,113.0
745.1,109.0
745.16,109.0
745.23,109.0
745.29,98.0
745.35,106.0
745.42,109.0
745.48,106.0
745.54,98.0
745.6,84.0
745.67,96.0
745.73,96.0
745.79,90.0
745.86,82.0
745.92,82.0
745.98,80.0
746.05,99.0
746.11,104.0
746.17,105.0
746.23,99.0
746.3,102.0
746.36,92.0
746.42,79.0
746.49,70.0
746.55,81.0
746.61,71.0
746.68,63.0
746.74,58.0
746.8,74.0
746.86,88.0
746.93,68.0
746.99,58.0
747.05,60.0
747.12,63.0
747.18,71.0
747.24,58.0
747.31,73.0
747.37,86.0
747.43,50.0
747.49,67.0
747.56,55.0
747.62,41.0
747.68,34.0
747.75,47.0
747.81,54.0
747.87,52.0
747.94,68.0
748.0,53.0
748.06,62.0
748.12,65.0
748.19,57.0
748.25,69.0
748.31,58.0
748.38,60.0
748.44,54.0
748.5,58.0
748.57,44.0
748.63,31.0
748.69,33.0
748.75,37.0
748.82,21.0
748.88,31.0
748.94,25.0
749.01,36.0
749.07,60.0
749.13,69.0
749.2,57.0
749.26,33.0
749.32,55.0
749.38,52.0
749.45,74.0
749.51,65.0
749.57,38.0
749.64,49.0
749.7,36.0
749.76,65.0
749.83,63.0
749.89,53.0
749.95,69.0
750.01,46.0
750.08,47.0
750.14,50.0
750.2,54.0
750.27,41.0
750.33,33.0
750.39,47.0
750.46,40.0
750.52,42.0
750.58,58.0
750.64,82.0
750.71,81.0
750.77,84.0
750.83,67.0
750.9,80.0
750.96,78.0
751.02,83.0
751.09,73.0
751.15,42.0
751.21,46.0
751.27,50.0
751.34,51.0
751.4,33.0
751.46,54.0
751.53,61.0
751.59,52.0
751.65,73.0
751.72,63.0
751.78,73.0
751.84,61.0
751.9,68.0
751.97,84.0
752.03,80.0
752.09,82.0
752.16,85.0
752.22,83.0
752.28,74.0
752.35,81.0
752.41,101.0
752.47,105.0
752.53,82.0
752.6,84.0
752.66,89.0
752.72,83.0
752.79,80.0
752.85,86.0
752.91,91.0
752.98,81.0
753.04,97.0
753.1,102.0
753.16,124.0
753.23,118.0
753.29,115.0
753.35,105.0
753.42,114.0
753.48,120.0
753.54,124.0
753.61,142.0
753.67,124.0
753.73,123.0
753.79,125.0
753.86,112.0
753.92,120.0
753.98,122.0
754.05,99.0
754.11,118.0
754.17,115.0
754.24,116.0
754.3,117.0
754.36,120.0
754.42,127.0
754.49,137.0
754.55,123.0
754.61,129.0
754.68,137.0
754.74,146.0
754.8,155.0
754.87,151.0
754.93,149.0
754.99,142.0
755.05,171.0
755.12,169.0
755.18,162.0
755.24,155.0
755.31,172.0
755.37,176.0
755.43,162.0
755.5,154.0
755.56,179.0
755.62,171.0
755.68,171.0
755.75,180.0
755.81,192.0
755.87,186.0
755.94,172.0
756.0,197.0
756.06,192.0
756.13,201.0
756.19,202.0
756.25,207.0
756.31,212.0
756.38,204.0
756.44,208.0
756.5,192.0
756.57,197.0
756.63,222.0
756.69,210.0
756.76,214.0
756.82,215.0
756.88,201.0
756.94,180.0
757.01,185.0
757.07,194.0
757.13,191.0
757.2,189.0
757.26,186.0
757.32,208.0
757.39,198.0
757.45,191.0
757.51,195.0
757.57,191.0
757.64,170.0
757.7,176.0
757.76,188.0
757.83,201.0
757.89,195.0
757.95,172.0
758.02,169.0
758.08,149.0
758.14,150.0
758.2,185.0
758.27,187.0
758.33,187.0
758.39,179.0
758.46,181.0
758.52,191.0
758.58,177.0
758.65,172.0
758.71,182.0
758.77,168.0
758.83,172.0
758.9,169.0
758.96,168.0
759.02,175.0
759.09,173.0
759.15,180.0
759.21,161.0
759.28,170.0
759.34,170.0
759.4,172.0
759.46,174.0
759.53,171.0
759.59,175.0
759.65,168.0
759.72,149.0
759.78,164.0
759.84,148.0
759.91,136.0
759.97,166.0
760.03,160.0
760.09,181.0
760.16,188.0
760.22,171.0
760.28,146.0
760.35,151.0
760.41,166.0
760.47,160.0
760.54,164.0
760.6,152.0
760.66,166.0
760.72,184.0
760.79,175.0
760.85,172.0
760.91,171.0
760.98,183.0
761.04,167.0
761.1,157.0
761.17,168.0
761.23,159.0
761.29,158.0
761.35,151.0
761.42,149.0
761.48,145.0
761.54,140.0
761.61,142.0
761.67,127.0
761.73,138.0
761.8,170.0
761.86,165.0
761.92,128.0
761.98,140.0
762.05,151.0
762.11,160.0
762.17,138.0
762.24,140.0
762.3,132.0
762.36,142.0
762.43,146.0
762.49,138.0
762.55,158.0
762.61,152.0
762.68,164.0
762.74,175.0
762.8,178.0
762.87,165.0
762.93,170.0
762.99,166.0
763.06,156.0
763.12,168.0
763.18,175.0
763.24,160.0
763.31,149.0
763.37,160.0
763.43,146.0
763.5,140.0
763.56,126.0
763.62,120.0
763.69,115.0
763.75,103.0
763.81,108.0
763.87,127.0
763.94,140.0
764.0,129.0
764.06,125.0
764.13,124.0
764.19,115.0
764.25,114.0
764.32,112.0
764.38,89.0
764.44,100.0
764.5,95.0
764.57,78.0
764.63,114.0
764.69,135.0
764.76,119.0
764.82,106.0
764.88,107.0
764.95,104.0
765.01,85.0
765.07,64.0
765.13,73.0
765.2,67.0
765.26,50.0
765.32,54.0
765.39,54.0
765.45,69.0
765.51,58.0
765.58,59.0
765.64,58.0
765.7,52.0
765.76,40.0
765.83,50.0
765.89,57.0
765.95,69.0
766.02,63.0
766.08,27.0
766.14,49.0
766.21,51.0
766.27,36.0
766.33,47.0
766.39,51.0
766.46,46.0
766.52,48.0
766.58,57.0
766.65,66.0
766.71,84.0
766.77,51.0
766.84,35.0
766.9,46.0
766.96,39.0
767.02,26.0
767.09,39.0
767.15,28.0
767.21,35.0
767.28,27.0
767.34,-3.0
767.4,-6.0
767.47,-25.0
767.53,8.0
767.59,-9.0
767.65,1.0
767.72,-5.0
767.78,2.0
767.84,2.0
767.91,-18.0
767.97,1.0
768.03,-8.0
768.1,9.0
768.16,1.0
768.22,-8.0
768.28,-21.0
768.35,1.0
768.41,0.0
768.47,-10.0
768.54,-6.0
768.6,-26.0
768.66,-10.0
768.73,11.0
768.79,9.0
768.85,-11.0
768.91,15.0
768.98,26.0
769.04,30.0
769.1,25.0
769.17,16.0
769.23,-5.0
769.29,-2.0
769.36,3.0
769.42,-1.0
769.48,-8.0
769.54,2.0
769.61,4.0
769.67,1.0
769.73,9.0
769.8,-17.0
769.86,-9.0
769.92,12.0
769.99,23.0
770.05,23.0
770.11,22.0
770.17,26.0
770.24,18.0
770.3,15.0
770.36,15.0
770.43,33.0
770.49,25.0
770.55,15.0
770.62,14.0
770.68,13.0
770.74,18.0
770.8,43.0
770.87,28.0
770.93,41.0
770.99,46.0
771.06,40.0
771.12,53.0
771.18,40.0
771.25,49.0
771.31,56.0
771.37,37.0
771.43,46.0
771.5,55.0
771.56,97.0
771.62,67.0
771.69,57.0
771.75,67.0
771.81,52.0
771.88,76.0
771.94,58.0
772.0,67.0
772.06,81.0
772.13,97.0
772.19,103.0
772.25,90.0
772.32,99.0
772.38,92.0
772.44,101.0
772.51,115.0
772.57,92.0
772.63,85.0
772.69,100.0
772.76,114.0
772.82,124.0
772.88,134.0
772.95,122.0
773.01,123.0
773.07,118.0
773.14,109.0
773.2,125.0
773.26,125.0
773.32,126.0
773.39,154.0
773.45,141.0
773.51,146.0
773.58,138.0
773.64,117.0
773.7,120.0
773.77,107.0
773.83,121.0
773.89,128.0
773.95,136.0
774.02,162.0
774.08,138.0
774.14,126.0
774.21,126.0
774.27,127.0
774.33,126.0
774.4,109.0
774.46,110.0
774.52,108.0
774.58,112.0
774.65,126.0
774.71,115.0
774.77,102.0
774.84,111.0
774.9,120.0
774.96,105.0
775.03,106.0
775.09,112.0
775.15,126.0
775.21,132.0
775.28,139.0
775.34,145.0
775.4,128.0
775.47,128.0
775.53,139.0
775.59,147.0
775.66,140.0
775.72,129.0
775.78,129.0
775.84,144.0
775.91,127.0
775.97,124.0
776.03,108.0
776.1,104.0
776.16,102.0
776.22,115.0
776.29,120.0
776.35,100.0
776.41,118.0
776.47,111.0
776.54,88.0
776.6,85.0
776.66,100.0
776.73,112.0
776.79,110.0
776.85,108.0
776.92,118.0
776.98,129.0
777.04,138.0
777.1,123.0
777.17,136.0
777.23,140.0
777.29,128.0
777.36,140.0
777.42,149.0
777.48,150.0
777.55,134.0
777.61,130.0
777.67,155.0
777.73,158.0
777.8,170.0
777.86,175.0
777.92,167.0
777.99,173.0
778.05,170.0
778.11,188.0
778.18,179.0
778.24,184.0
778.3,190.0
778.36,193.0
778.43,194.0
778.49,178.0
778.55,192.0
778.62,196.0
778.68,186.0
778.74,191.0
778.81,203.0
778.87,199.0
778.93,198.0
778.99,197.0
779.06,181.0
779.12,186.0
779.18,180.0
779.25,166.0
779.31,166.0
779.37,170.0
779.44,164.0
779.5,153.0
779.56,167.0
779.62,173.0
779.69,191.0
779.75,177.0
779.81,157.0
779.88,144.0
779.94,149.0
780.0,168.0
780.07,155.0
780.13,151.0
780.19,148.0
780.25,148.0
780.32,151.0
780.38,149.0
780.44,146.0
780.51,141.0
780.57,149.0
780.63,139.0
780.7,131.0
780.76,129.0
780.82,131.0
780.88,123.0
780.95,118.0
781.01,113.0
781.07,107.0
781.14,103.0
781.2,103.0
781.26,109.0
781.33,112.0
781.39,105.0
781.45,128.0
781.51,113.0
781.58,100.0
781.64,90.0
781.7,106.0
781.77,96.0
781.83,84.0
781.89,92.0
781.96,87.0
782.02,85.0
782.08,78.0
782.14,82.0
782.21,103.0
782.27,83.0
782.33,86.0
782.4,90.0
782.46,111.0
782.52,110.0
782.59,115.0
782.65,118.0
782.71,90.0
782.77,93.0
782.84,89.0
782.9,96.0
782.96,95.0
783.03,88.0
783.09,98.0
783.15,91.0
783.22,69.0
783.28,64.0
783.34,62.0
783.4,73.0
783.47,74.0
783.53,46.0
783.59,44.0
783.66,48.0
783.72,38.0
783.78,59.0
783.85,65.0
783.91,67.0
783.97,44.0
784.03,60.0
784.1,69.0
784.16,80.0
784.22,52.0
784.29,79.0
784.35,66.0
784.41,76.0
784.48,76.0
784.54,62.0
784.6,69.0
784.66,66.0
784.73,65.0
784.79,71.0
784.85,71.0
784.92,71.0
784.98,82.0
785.04,70.0
785.11,76.0
785.17,52.0
785.23,35.0
785.29,41.0
785.36,46.0
785.42,46.0
785.48,52.0
785.55,63.0
785.61,38.0
785.67,38.0
785.74,41.0
785.8,57.0
785.86,41.0
785.92,53.0
785.99,59.0
786.05,57.0
786.11,62.0
786.18,70.0
786.24,66.0
786.3,46.0
786.37,74.0
786.43,44.0
786.49,54.0
786.55,64.0
786.62,75.0
786.68,84.0
786.74,75.0
786.81,63.0
786.87,63.0
786.93,59.0
787.0,82.0
787.06,83.0
787.12,74.0
787.18,58.0
787.25,63.0
787.31,81.0
787.37,82.0
787.44,77.0
787.5,77.0
787.56,68.0
787.63,79.0
787.69,62.0
787.75,74.0
787.81,98.0
787.88,82.0
787.94,90.0
788.0,98.0
788.07,107.0
788.13,99.0
788.19,111.0
788.26,114.0
788.32,93.0
788.38,103.0
788.44,112.0
788.51,124.0
788.57,107.0
788.63,107.0
788.7,133.0
788.76,144.0
788.82,122.0
788.89,136.0
788.95,129.0
789.01,125.0
789.07,118.0
789.14,106.0
789.2,93.0
789.26,117.0
789.33,106.0
789.39,105.0
789.45,106.0
789.52,100.0
789.58,110.0
789.64,114.0
789.7,110.0
789.77,103.0
789.83,114.0
789.89,125.0
789.96,132.0
790.02,145.0
790.08,131.0
790.15,133.0
790.21,128.0
790.27,139.0
790.33,140.0
790.4,114.0
790.46,139.0
790.52,123.0
790.59,131.0
790.65,147.0
790.71,136.0
790.78,113.0
790.84,120.0
790.9,121.0
790.96,129.0
791.03,130.0
791.09,122.0
791.15,131.0
791.22,133.0
791.28,135.0
791.34,126.0
791.41,116.0
791.47,115.0
791.53,111.0
791.59,120.0
791.66,112.0
791.72,123.0
791.78,118.0
791.85,129.0
791.91,132.0
791.97,143.0
792.04,136.0
792.1,122.0
792.16,139.0
792.22,153.0
792.29,149.0
792.35,129.0
792.41,130.0
792.48,149.0
792.54,159.0
792.6,158.0
792.67,131.0
792.73,147.0
792.79,167.0
792.85,155.0
792.92,169.0
792.98,161.0
793.04,127.0
793.11,140.0
793.17,147.0
793.23,141.0
793.3,146.0
793.36,143.0
793.42,146.0
793.48,150.0
793.55,114.0
793.61,143.0
793.67,129.0
793.74,125.0
793.8,140.0
793.86,113.0
793.93,115.0
793.99,118.0
794.05,112.0
794.11,120.0
794.18,107.0
794.24,118.0
794.3,115.0
794.37,117.0
794.43,117.0
794.49,114.0
794.56,110.0
794.62,115.0
794.68,124.0
794.74,140.0
794.81,134.0
794.87,118.0
794.93,127.0
795.0,122.0
795.06,131.0
795.12,156.0
795.19,134.0
795.25,139.0
795.31,138.0
795.37,132.0
795.44,144.0
795.5,126.0
795.56,143.0
795.63,153.0
795.69,145.0
795.75,153.0
795.82,155.0
795.88,152.0
795.94,148.0
796.0,142.0
796.07,126.0
796.13,131.0
796.19,139.0
796.26,144.0
796.32,149.0
796.38,136.0
796.45,155.0
796.51,141.0
796.57,130.0
796.63,128.0
796.7,120.0
796.76,120.0
796.82,100.0
796.89,109.0
796.95,114.0
797.01,133.0
797.08,111.0
797.14,122.0
797.2,114.0
797.26,104.0
797.33,99.0
797.39,107.0
797.45,98.0
797.52,101.0
797.58,108.0
797.64,96.0
797.71,93.0
797.77,114.0
797.83,116.0
797.89,96.0
797.96,117.0
798.02,112.0
798.08,114.0
798.15,115.0
798.21,130.0
798.27,131.0
798.34,114.0
798.4,136.0
798.46,131.0
798.52,129.0
798.59,131.0
798.65,126.0
798.71,130.0
798.78,125.0
798.84,127.0
798.9,109.0
798.97,98.0
799.03,106.0
799.09,108.0
799.15,103.0
799.22,92.0
799.28,102.0
799.34,107.0
799.41,114.0
799.47,104.0
799.53,112.0
799.6,110.0
799.66,111.0
799.72,112.0
799.78,102.0
799.85,121.0
799.91,100.0
799.97,107.0
800.04,85.0
800.1,86.0
800.16,81.0
800.23,83.0
800.29,86.0
800.35,94.0
800.41,100.0
800.48,82.0
800.54,92.0
800.6,96.0
800.67,109.0
800.73,100.0
800.79,96.0
800.86,76.0
800.92,101.0
800.98,105.0
801.04,104.0
801.11,95.0
801.17,89.0
801.23,88.0
801.3,101.0
801.36,110.0
801.42,102.0
801.49,96.0
801.55,95.0
801.61,104.0
801.67,103.0
801.74,89.0
801.8,106.0
801.86,108.0
801.93,100.0
801.99,78.0
802.05,89.0
802.12,106.0
802.18,111.0
802.24,96.0
802.3,88.0
802.37,95.0
802.43,78.0
802.49,73.0
802.56,84.0
802.62,93.0
802.68,76.0
802.75,82.0
802.81,85.0
802.87,104.0
802.93,107.0
803.0,96.0
803.06,114.0
803.12,98.0
803.19,91.0
803.25,107.0
803.31,109.0
803.38,117.0
803.44,122.0
803.5,109.0
803.56,117.0
803.63,126.0
803.69,125.0
803.75,121.0
803.82,126.0
803.88,127.0
803.94,123.0
804.01,103.0
804.07,103.0
804.13,119.0
804.19,108.0
804.26,97.0
804.32,92.0
804.38,91.0
804.45,88.0
804.51,102.0
804.57,93.0
804.64,89.0
804.7,88.0
804.76,115.0
804.82,106.0
804.89,102.0
804.95,107.0
805.01,108.0
805.08,118.0
805.14,93.0
805.2,89.0
805.27,84.0
805.33,101.0
805.39,111.0
805.45,105.0
805.52,125.0
805.58,119.0
805.64,112.0
805.71,118.0
805.77,133.0
805.83,120.0
805.9,137.0
805.96,135.0
806.02,125.0
806.08,125.0
806.15,131.0
806.21,142.0
806.27,114.0
806.34,120.0
806.4,130.0
806.46,140.0
806.53,123.0
806.59,144.0
806.65,125.0
806.71,134.0
806.78,133.0
806.84,136.0
806.9,125.0
806.97,127.0
807.03,134.0
807.09,140.0
807.16,139.0
807.22,150.0
807.28,155.0
807.34,149.0
807.41,154.0
807.47,137.0
807.53,123.0
807.6,137.0
807.66,143.0
807.72,145.0
807.79,154.0
807.85,134.0
807.91,132.0
807.97,133.0
808.04,128.0
808.1,139.0
808.16,112.0
808.23,133.0
808.29,122.0
808.35,132.0
808.42,123.0
808.48,117.0
808.54,127.0
808.6,113.0
808.67,121.0
808.73,106.0
808.79,106.0
808.86,120.0
808.92,115.0
808.98,121.0
809.05,121.0
809.11,118.0
809.17,126.0
809.23,132.0
809.3,129.0
809.36,134.0
809.42,145.0
809.49,143.0
809.55,131.0
809.61,151.0
809.68,134.0
809.74,158.0
809.8,138.0
809.86,123.0
809.93,151.0
809.99,145.0
810.05,146.0
810.12,131.0
810.18,136.0
810.24,156.0
810.31,147.0
810.37,151.0
810.43,151.0
810.49,157.0
810.56,141.0
810.62,130.0
810.68,150.0
810.75,148.0
810.81,167.0
810.87,152.0
810.94,148.0
811.0,131.0
811.06,141.0
811.12,144.0
811.19,158.0
811.25,147.0
811.31,138.0
811.38,153.0
811.44,147.0
811.5,155.0
811.57,162.0
811.63,163.0
811.69,168.0
811.75,160.0
811.82,154.0
811.88,152.0
811.94,164.0
812.01,181.0
812.07,166.0
812.13,154.0
812.2,184.0
812.26,167.0
812.32,167.0
812.38,157.0
812.45,192.0
812.51,176.0
812.57,164.0
812.64,176.0
812.7,177.0
812.76,190.0
812.83,204.0
812.89,196.0
812.95,194.0
813.01,186.0
813.08,196.0
813.14,200.0
813.2,176.0
813.27,178.0
813.33,181.0
813.39,192.0
813.46,179.0
813.52,169.0
813.58,203.0
813.64,189.0
813.71,188.0
813.77,188.0
813.83,190.0
813.9,214.0
813.96,198.0
814.02,189.0
814.09,185.0
814.15,202.0
814.21,200.0
814.27,189.0
814.34,180.0
814.4,182.0
814.46,163.0
814.53,160.0
814.59,151.0
814.65,126.0
814.72,158.0
814.78,151.0
814.84,162.0
814.9,165.0
814.97,158.0
815.03,154.0
815.09,167.0
815.16,177.0
815.22,173.0
815.28,173.0
815.35,168.0
815.41,174.0
815.47,183.0
815.53,173.0
815.6,161.0
815.66,176.0
815.72,159.0
815.79,158.0
815.85,158.0
815.91,142.0
815.98,139.0
816.04,136.0
816.1,139.0
816.16,125.0
816.23,123.0
816.29,122.0
816.35,115.0
816.42,121.0
816.48,102.0
816.54,109.0
816.61,110.0
816.67,114.0
816.73,121.0
816.79,114.0
816.86,113.0
816.92,114.0
816.98,108.0
817.05,111.0
817.11,116.0
817.17,122.0
817.24,114.0
817.3,102.0
817.36,102.0
817.42,121.0
817.49,123.0
817.55,116.0
817.61,112.0
817.68,126.0
817.74,114.0
817.8,118.0
817.87,100.0
817.93,95.0
817.99,95.0
818.05,91.0
818.12,105.0
818.18,107.0
818.24,90.0
818.31,72.0
818.37,74.0
818.43,83.0
818.5,74.0
818.56,62.0
818.62,69.0
818.68,70.0
818.75,76.0
818.81,77.0
818.87,85.0
818.94,73.0
819.0,66.0
819.06,59.0
819.13,67.0
819.19,68.0
819.25,65.0
819.31,60.0
819.38,84.0
819.44,81.0
819.5,63.0
819.57,76.0
819.63,63.0
819.69,71.0
819.76,71.0
819.82,75.0
819.88,80.0
819.94,89.0
820.01,89.0
820.07,88.0
820.13,68.0
820.2,67.0
820.26,65.0
820.32,69.0
820.39,88.0
820.45,83.0
820.51,74.0
820.57,66.0
820.64,60.0
820.7,51.0
820.76,54.0
820.83,54.0
820.89,59.0
820.95,52.0
821.02,97.0
821.08,88.0
821.14,80.0
821.2,69.0
821.27,72.0
821.33,76.0
821.39,49.0
821.46,72.0
821.52,88.0
821.58,71.0
821.65,79.0
821.71,87.0
821.77,89.0
821.83,73.0
821.9,61.0
821.96,68.0
822.02,74.0
822.09,71.0
822.15,95.0
822.21,89.0
822.28,99.0
822.34,116.0
822.4,115.0
822.46,107.0
822.53,94.0
822.59,92.0
822.65,98.0
822.72,107.0
822.78,113.0
822.84,118.0
822.91,111.0
822.97,111.0
823.03,116.0
823.09,113.0
823.16,114.0
823.22,107.0
823.28,128.0
823.35,111.0
823.41,100.0
823.47,111.0
823.54,109.0
823.6,117.0
823.66,151.0
823.72,147.0
823.79,128.0
823.85,119.0
823.91,132.0
823.98,141.0
824.04,131.0
824.1,152.0
824.17,159.0
824.23,164.0
824.29,149.0
824.35,141.0
824.42,117.0
824.48,140.0
824.54,126.0
824.61,138.0
824.67,131.0
824.73,121.0
824.8,111.0
824.86,92.0
824.92,112.0
824.98,116.0
825.05,103.0
825.11,110.0
825.17,110.0
825.24,118.0
825.3,114.0
825.36,112.0
825.43,103.0
825.49,108.0
825.55,106.0
825.61,110.0
825.68,87.0
825.74,82.0
825.8,103.0
825.87,101.0
825.93,105.0
825.99,103.0
826.06,114.0
826.12,82.0
826.18,104.0
826.24,96.0
826.31,112.0
826.37,107.0
826.43,103.0
826.5,109.0
826.56,120.0
826.62,106.0
826.69,119.0
826.75,103.0
826.81,105.0
826.87,97.0
826.94,118.0
827.0,115.0
827.06,119.0
827.13,114.0
827.19,114.0
827.25,119.0
827.32,109.0
827.38,133.0
827.44,135.0
827.5,125.0
827.57,129.0
827.63,135.0
827.69,128.0
827.76,136.0
827.82,118.0
827.88,127.0
827.95,139.0
828.01,143.0
828.07,135.0
828.13,125.0
828.2,137.0
828.26,147.0
828.32,139.0
828.39,143.0
828.45,154.0
828.51,157.0
828.58,130.0
828.64,135.0
828.7,147.0
828.76,149.0
828.83,161.0
828.89,154.0
828.95,145.0
829.02,160.0
829.08,150.0
829.14,135.0
829.21,134.0
829.27,133.0
829.33,137.0
829.39,136.0
829.46,131.0
829.52,132.0
829.58,128.0
829.65,132.0
829.71,130.0
829.77,122.0
829.84,109.0
829.9,131.0
829.96,129.0
830.02,108.0
830.09,125.0
830.15,118.0
830.21,118.0
830.28,101.0
830.34,103.0
830.4,106.0
830.47,101.0
830.53,92.0
830.59,84.0
830.65,70.0
830.72,70.0
830.78,84.0
830.84,79.0
830.91,70.0
830.97,68.0
831.03,71.0
831.1,81.0
831.16,76.0
831.22,76.0
831.28,74.0
831.35,79.0
831.41,82.0
831.47,67.0
831.54,92.0
831.6,91.0
831.66,67.0
831.73,58.0
831.79,70.0
831.85,77.0
831.91,57.0
831.98,68.0
832.04,84.0
832.1,95.0
832.17,67.0
832.23,82.0
832.29,81.0
832.36,66.0
832.42,53.0
832.48,81.0
832.54,93.0
832.61,77.0
832.67,75.0
832.73,58.0
832.8,53.0
832.86,67.0
832.92,64.0
832.99,74.0
833.05,54.0
833.11,49.0
833.17,47.0
833.24,55.0
833.3,73.0
833.36,54.0
833.43,69.0
833.49,52.0
833.55,60.0
833.62,52.0
833.68,50.0
833.74,25.0
833.8,33.0
833.87,30.0
833.93,19.0
833.99,18.0
834.06,17.0
834.12,11.0
834.18,5.0
834.25,24.0
834.31,15.0
834.37,25.0
834.43,38.0
834.5,15.0
834.56,11.0
834.62,42.0
834.69,49.0
834.75,32.0
834.81,41.0
834.88,29.0
834.94,16.0
835.0,41.0
835.06,35.0
835.13,30.0
835.19,44.0
835.25,37.0
835.32,34.0
835.38,17.0
835.44,32.0
835.51,4.0
835.57,34.0
835.63,41.0
835.69,36.0
835.76,27.0
835.82,42.0
835.88,45.0
835.95,30.0
836.01,43.0
836.07,32.0
836.14,43.0
836.2,65.0
836.26,60.0
836.32,36.0
836.39,39.0
836.45,23.0
836.51,37.0
836.58,29.0
836.64,43.0
836.7,67.0
836.77,63.0
836.83,67.0
836.89,52.0
836.95,60.0
837.02,46.0
837.08,55.0
837.14,85.0
837.21,69.0
837.27,88.0
837.33,78.0
837.4,81.0
837.46,64.0
837.52,79.0
837.58,68.0
837.65,51.0
837.71,65.0
837.77,71.0
837.84,67.0
837.9,58.0
837.96,63.0
838.03,73.0
838.09,91.0
838.15,90.0
838.21,67.0
838.28,67.0
838.34,65.0
838.4,47.0
838.47,70.0
838.53,80.0
838.59,74.0
838.66,81.0
838.72,88.0
838.78,91.0
838.84,88.0
838.91,104.0
838.97,112.0
839.03,120.0
839.1,119.0
839.16,100.0
839.22,103.0
839.29,125.0
839.35,112.0
839.41,118.0
839.47,131.0
839.54,122.0
839.6,126.0
839.66,126.0
839.73,126.0
839.79,114.0
839.85,115.0
839.92,123.0
839.98,108.0
840.04,92.0
840.1,132.0
840.17,131.0
840.23,132.0
840.29,149.0
840.36,118.0
840.42,124.0
840.48,144.0
840.55,128.0
840.61,141.0
840.67,122.0
840.73,133.0
840.8,163.0
840.86,152.0
840.92,145.0
840.99,140.0
841.05,146.0
841.11,147.0
841.18,162.0
841.24,152.0
841.3,153.0
841.36,152.0
841.43,148.0
841.49,156.0
841.55,150.0
841.62,150.0
841.68,158.0
841.74,159.0
841.81,145.0
841.87,139.0
841.93,146.0
841.99,134.0
842.06,155.0
842.12,153.0
842.18,144.0
842.25,142.0
842.31,143.0
842.37,133.0
842.44,127.0
842.5,136.0
842.56,115.0
842.62,118.0
842.69,126.0
842.75,138.0
842.81,150.0
842.88,158.0
842.94,140.0
843.0,137.0
843.07,155.0
843.13,154.0
843.19,147.0
843.25,139.0
843.32,151.0
843.38,164.0
843.44,185.0
843.51,176.0
843.57,157.0
843.63,155.0
843.7,155.0
843.76,144.0
843.82,167.0
843.88,146.0
843.95,140.0
844.01,172.0
844.07,164.0
844.14,159.0
844.2,151.0
844.26,141.0
844.33,145.0
844.39,153.0
844.45,161.0
844.51,170.0
844.58,184.0
844.64,201.0
844.7,199.0
844.77,195.0
844.83,200.0
844.89,189.0
844.96,160.0
845.02,147.0
845.08,147.0
845.14,165.0
845.21,166.0
845.27,183.0
845.33,175.0
845.4,186.0
845.46,189.0
845.52,206.0
845.59,202.0
845.65,191.0
845.71,189.0
845.77,191.0
845.84,194.0
845.9,185.0
845.96,181.0
846.03,193.0
846.09,182.0
846.15,166.0
846.22,167.0
846.28,171.0
846.34,174.0
846.4,166.0
846.47,168.0
846.53,141.0
846.59,134.0
846.66,139.0
846.72,148.0
846.78,155.0
846.85,132.0
846.91,129.0
846.97,116.0
847.03,125.0
847.1,130.0
847.16,141.0
847.22,146.0
847.29,140.0
847.35,147.0
847.41,141.0
847.48,129.0
847.54,106.0
847.6,121.0
847.66,139.0
847.73,132.0
847.79,125.0
847.85,130.0
847.92,125.0
847.98,127.0
848.04,120.0
848.11,96.0
848.17,114.0
848.23,121.0
848.29,103.0
848.36,125.0
848.42,120.0
848.48,114.0
848.55,107.0
848.61,111.0
848.67,101.0
848.74,84.0
848.8,87.0
848.86,75.0
848.92,77.0
848.99,79.0
849.05,72.0
849.11,91.0
849.18,88.0
849.24,87.0
849.3,88.0
849.37,92.0
849.43,97.0
849.49,102.0
849.55,111.0
849.62,92.0
849.68,81.0
849.74,87.0
849.81,88.0
849.87,106.0
849.93,80.0
850.0,89.0
850.06,86.0
850.12,96.0
850.18,88.0
850.25,74.0
850.31,96.0
850.37,78.0
850.44,72.0
850.5,72.0
850.56,62.0
850.63,69.0
850.69,71.0
850.75,42.0
850.81,60.0
850.88,62.0
850.94,63.0
851.0,49.0
851.07,55.0
851.13,44.0
851.19,35.0
851.26,33.0
851.32,26.0
851.38,34.0
851.44,29.0
851.51,36.0
851.57,44.0
851.63,54.0
851.7,60.0
851.76,51.0
851.82,49.0
851.89,35.0
851.95,37.0
852.01,59.0
852.07,47.0
852.14,52.0
852.2,48.0
852.26,27.0
852.33,24.0
852.39,37.0
852.45,48.0
852.52,59.0
852.58,57.0
852.64,32.0
852.7,38.0
852.77,46.0
852.83,51.0
852.89,54.0
852.96,42.0
853.02,56.0
853.08,58.0
853.15,41.0
853.21,48.0
853.27,53.0
853.33,45.0
853.4,46.0
853.46,50.0
853.52,35.0
853.59,62.0
853.65,55.0
853.71,59.0
853.78,46.0
853.84,48.0
853.9,49.0
853.96,32.0
854.03,37.0
854.09,37.0
854.15,44.0
854.22,46.0
854.28,35.0
854.34,33.0
854.41,48.0
854.47,41.0
854.53,52.0
854.59,52.0
854.66,45.0
854.72,40.0
854.78,43.0
854.85,63.0
854.91,54.0
854.97,48.0
855.04,55.0
855.1,65.0
855.16,70.0
855.22,70.0
855.29,73.0
855.35,79.0
855.41,63.0
855.48,67.0
855.54,70.0
855.6,95.0
855.67,68.0
855.73,64.0
855.79,65.0
855.85,56.0
855.92,63.0
855.98,43.0
856.04,57.0
856.11,67.0
856.17,48.0
856.23,58.0
856.3,82.0
856.36,70.0
856.42,53.0
856.48,61.0
856.55,49.0
856.61,86.0
856.67,81.0
856.74,67.0
856.8,74.0
856.86,81.0
856.93,85.0
856.99,66.0
857.05,71.0
857.11,64.0
857.18,78.0
857.24,96.0
857.3,86.0
857.37,85.0
857.43,82.0
857.49,74.0
857.56,63.0
857.62,85.0
857.68,68.0
857.74,78.0
857.81,90.0
857.87,85.0
857.93,80.0
858.0,85.0
858.06,78.0
858.12,88.0
858.19,109.0
858.25,82.0
858.31,91.0
858.37,87.0
858.44,63.0
858.5,91.0
858.56,88.0
858.63,100.0
858.69,78.0
858.75,72.0
858.82,75.0
858.88,78.0
858.94,87.0
859.0,96.0
859.07,91.0
859.13,73.0
859.19,88.0
859.26,90.0
859.32,107.0
859.38,76.0
859.45,85.0
859.51,99.0
859.57,112.0
859.63,117.0
859.7,102.0
859.76,110.0
859.82,131.0
859.89,127.0
859.95,123.0
860.01,122.0
860.08,119.0
860.14,135.0
860.2,129.0
860.26,132.0
860.33,132.0
860.39,142.0
860.45,125.0
860.52,143.0
860.58,137.0
860.64,129.0
860.71,127.0
860.77,144.0
860.83,125.0
860.89,136.0
860.96,126.0
861.02,147.0
861.08,151.0
861.15,120.0
861.21,121.0
861.27,135.0
861.34,151.0
861.4,159.0
861.46,156.0
861.52,162.0
861.59,169.0
861.65,177.0
861.71,180.0
861.78,170.0
861.84,156.0
861.9,176.0
861.97,184.0
862.03,168.0
862.09,166.0
862.15,176.0
862.22,162.0
862.28,182.0
862.34,184.0
862.41,178.0
862.47,172.0
862.53,168.0
862.6,173.0
862.66,156.0
862.72,176.0
862.78,171.0
862.85,180.0
862.91,190.0
862.97,193.0
863.04,198.0
863.1,202.0
863.16,195.0
863.23,185.0
863.29,184.0
863.35,169.0
863.41,179.0
863.48,190.0
863.54,175.0
863.6,172.0
863.67,155.0
863.73,166.0
863.79,170.0
863.86,171.0
863.92,161.0
863.98,189.0
864.04,177.0
864.11,173.0
864.17,182.0
864.23,194.0
864.3,185.0
864.36,189.0
864.42,159.0
864.49,158.0
864.55,152.0
864.61,170.0
864.67,169.0
864.74,160.0
864.8,170.0
864.86,170.0
864.93,165.0
864.99,151.0
865.05,170.0
865.12,177.0
865.18,184.0
865.24,161.0
865.3,167.0
865.37,161.0
865.43,159.0
865.49,167.0
865.56,160.0
865.62,179.0
865.68,185.0
865.75,179.0
865.81,196.0
865.87,181.0
865.93,177.0
866.0,186.0
866.06,161.0
866.12,179.0
866.19,154.0
866.25,151.0
866.31,166.0
866.38,150.0
866.44,164.0
866.5,167.0
866.56,149.0
866.63,137.0
866.69,150.0
866.75,158.0
866.82,132.0
866.88,114.0
866.94,125.0
867.01,147.0
867.07,161.0
867.13,150.0
867.19,156.0
867.26,143.0
867.32,160.0
867.38,139.0
867.45,141.0
867.51,147.0
867.57,147.0
867.64,158.0
867.7,144.0
867.76,142.0
867.82,139.0
867.89,147.0
867.95,132.0
868.01,140.0
868.08,104.0
868.14,93.0
868.2,114.0
868.27,133.0
868.33,139.0
868.39,127.0
868.45,125.0
868.52,136.0
868.58,115.0
868.64,107.0
868.71,93.0
868.77,99.0
868.83,99.0
868.9,102.0
868.96,100.0
869.02,116.0
869.08,89.0
869.15,79.0
869.21,102.0
869.27,93.0
869.34,60.0
869.4,71.0
869.46,85.0
869.53,100.0
869.59,96.0
869.65,91.0
869.71,102.0
869.78,73.0
869.84,82.0
869.9,76.0
869.97,95.0
870.03,103.0
870.09,73.0
870.16,81.0
870.22,82.0
870.28,82.0
870.34,82.0
870.41,81.0
870.47,78.0
870.53,54.0
870.6,70.0
870.66,73.0
870.72,74.0
870.79,72.0
870.85,70.0
870.91,81.0
870.97,73.0
871.04,79.0
871.1,77.0
871.16,65.0
871.23,62.0
871.29,55.0
871.35,51.0
871.42,51.0
871.48,40.0
871.54,43.0
871.6,66.0
871.67,70.0
871.73,74.0
871.79,86.0
871.86,84.0
871.92,83.0
871.98,88.0
872.05,89.0
872.11,85.0
872.17,100.0
872.23,92.0
872.3,78.0
872.36,88.0
872.42,75.0
872.49,99.0
872.55,94.0
872.61,115.0
872.68,96.0
872.74,110.0
872.8,107.0
872.86,104.0
872.93,89.0
872.99,85.0
873.05,93.0
873.12,87.0
873.18,105.0
873.24,101.0
873.31,111.0
873.37,108.0
873.43,92.0
873.49,107.0
873.56,100.0
873.62,99.0
873.68,94.0
873.75,81.0
873.81,84.0
873.87,104.0
873.94,102.0
874.0,86.0
874.06,86.0
874.12,104.0
874.19,93.0
874.25,97.0
874.31,85.0
874.38,88.0
874.44,94.0
874.5,101.0
874.57,90.0
874.63,80.0
874.69,74.0
874.75,69.0
874.82,75.0
874.88,75.0
874.94,65.0
875.01,66.0
875.07,70.0
875.13,63.0
875.2,65.0
875.26,65.0
875.32,75.0
875.38,63.0
875.45,61.0
875.51,46.0
875.57,46.0
875.64,45.0
875.7,16.0
875.76,35.0
875.83,39.0
875.89,52.0
875.95,38.0
876.01,59.0
876.08,56.0
876.14,57.0
876.2,53.0
876.27,46.0
876.33,49.0
876.39,49.0
876.46,53.0
876.52,47.0
876.58,59.0
876.64,51.0
876.71,52.0
876.77,54.0
876.83,46.0
876.9,56.0
876.96,46.0
877.02,33.0
877.09,42.0
877.15,52.0
877.21,38.0
877.27,46.0
877.34,55.0
877.4,45.0
877.46,54.0
877.53,44.0
877.59,43.0
877.65,51.0
877.72,48.0
877.78,61.0
877.84,64.0
877.9,59.0
877.97,61.0
878.03,69.0
878.09,71.0
878.16,93.0
878.22,96.0
878.28,95.0
878.35,113.0
878.41,89.0
878.47,68.0
878.53,70.0
878.6,83.0
878.66,81.0
878.72,87.0
878.79,103.0
878.85,98.0
878.91,111.0
878.98,112.0
879.04,100.0
879.1,110.0
879.16,131.0
879.23,111.0
879.29,121.0
879.35,111.0
879.42,99.0
879.48,104.0
879.54,103.0
879.61,92.0
879.67,101.0
879.73,89.0
879.79,88.0
879.86,83.0
879.92,100.0
879.98,107.0
880.05,125.0
880.11,126.0
880.17,120.0
880.24,105.0
880.3,133.0
880.36,142.0
880.42,103.0
880.49,100.0
880.55,103.0
880.61,112.0
880.68,95.0
880.74,92.0
880.8,112.0
880.87,103.0
880.93,100.0
880.99,91.0
881.05,100.0
881.12,74.0
881.18,60.0
881.24,80.0
881.31,77.0
881.37,64.0
881.43,74.0
881.5,62.0
881.56,75.0
881.62,93.0
881.68,82.0
881.75,87.0
881.81,78.0
881.87,58.0
881.94,50.0
882.0,44.0
882.06,49.0
882.13,48.0
882.19,56.0
882.25,72.0
882.31,63.0
882.38,82.0
882.44,84.0
882.5,68.0
882.57,37.0
882.63,59.0
882.69,57.0
882.76,81.0
882.82,60.0
882.88,48.0
882.94,57.0
883.01,45.0
883.07,65.0
883.13,43.0
883.2,43.0
883.26,51.0
883.32,51.0
883.39,42.0
883.45,55.0
883.51,52.0
883.57,58.0
883.64,62.0
883.7,62.0
883.76,59.0
883.83,65.0
883.89,58.0
883.95,42.0
884.02,71.0
884.08,63.0
884.14,50.0
884.2,59.0
884.27,55.0
884.33,59.0
884.39,79.0
884.46,74.0
884.52,66.0
884.58,41.0
884.65,35.0
884.71,51.0
884.77,42.0
884.83,41.0
884.9,41.0
884.96,43.0
885.02,29.0
885.09,32.0
885.15,26.0
885.21,29.0
885.28,30.0
885.34,20.0
885.4,16.0
885.46,22.0
885.53,23.0
885.59,27.0
885.65,16.0
885.72,21.0
885.78,28.0
885.84,25.0
885.91,20.0
885.97,26.0
886.03,52.0
886.09,35.0
886.16,27.0
886.22,39.0
886.28,32.0
886.35,29.0
886.41,15.0
886.47,23.0
886.54,14.0
886.6,26.0
886.66,28.0
886.72,31.0
886.79,37.0
886.85,36.0
886.91,56.0
886.98,47.0
887.04,38.0
887.1,45.0
887.17,31.0
887.23,39.0
887.29,33.0
887.35,35.0
887.42,57.0
887.48,52.0
887.54,57.0
887.61,46.0
887.67,39.0
887.73,61.0
887.8,65.0
887.86,63.0
887.92,54.0
887.98,69.0
888.05,62.0
888.11,50.0
888.17,75.0
888.24,83.0
888.3,87.0
888.36,81.0
888.43,84.0
888.49,91.0
888.55,101.0
888.61,98.0
888.68,102.0
888.74,101.0
888.8,92.0
888.87,92.0
888.93,83.0
888.99,75.0
889.06,73.0
889.12,93.0
889.18,101.0
889.24,90.0
889.31,95.0
889.37,90.0
889.43,99.0
889.5,104.0
889.56,103.0
889.62,120.0
889.69,104.0
889.75,92.0
889.81,101.0
889.87,100.0
889.94,100.0
890.0,111.0
890.06,117.0
890.13,113.0
890.19,106.0
890.25,109.0
890.32,76.0
890.38,85.0
890.44,98.0
890.5,94.0
890.57,105.0
890.63,103.0
890.69,101.0
890.76,114.0
890.82,115.0
890.88,110.0
890.95,103.0
891.01,106.0
891.07,130.0
891.13,118.0
891.2,136.0
891.26,109.0
891.32,121.0
891.39,117.0
891.45,112.0
891.51,128.0
891.58,110.0
891.64,140.0
891.7,122.0
891.76,119.0
891.83,140.0
891.89,118.0
891.95,114.0
892.02,118.0
892.08,127.0
892.14,126.0
892.21,127.0
892.27,147.0
892.33,157.0
892.39,158.0
892.46,145.0
892.52,134.0
892.58,150.0
892.65,151.0
892.71,136.0
892.77,120.0
892.84,120.0
892.9,138.0
892.96,146.0
893.02,170.0
893.09,171.0
893.15,196.0
893.21,176.0
893.28,151.0
893.34,156.0
893.4,173.0
893.47,177.0
893.53,164.0
893.59,158.0
893.65,180.0
893.72,176.0
893.78,179.0
893.84,178.0
893.91,181.0
893.97,178.0
894.03,183.0
894.1,194.0
894.16,185.0
894.22,204.0
894.28,213.0
894.35,221.0
894.41,189.0
894.47,202.0
894.54,180.0
894.6,201.0
894.66,200.0
894.73,191.0
894.79,199.0
894.85,196.0
894.91,189.0
894.98,180.0
895.04,192.0
895.1,182.0
895.17,189.0
895.23,202.0
895.29,186.0
895.36,186.0
895.42,191.0
895.48,208.0
895.54,211.0
895.61,203.0
895.67,200.0
895.73,206.0
895.8,205.0
895.86,216.0
895.92,199.0
895.99,208.0
896.05,213.0
896.11,226.0
896.17,224.0
896.24,213.0
896.3,214.0
896.36,220.0
896.43,219.0
896.49,224.0
896.55,223.0
896.62,241.0
896.68,236.0
896.74,231.0
896.8,228.0
896.87,216.0
896.93,222.0
896.99,225.0
897.06,223.0
897.12,210.0
897.18,217.0
897.25,203.0
897.31,210.0
897.37,229.0
897.43,228.0
897.5,207.0
897.56,214.0
897.62,232.0
897.69,202.0
897.75,206.0
897.81,205.0
897.88,197.0
897.94,206.0
898.0,207.0
898.06,203.0
898.13,202.0
898.19,200.0
898.25,200.0
898.32,191.0
898.38,201.0
898.44,192.0
898.51,162.0
898.57,180.0
898.63,178.0
898.69,175.0
898.76,195.0
898.82,191.0
898.88,193.0
898.95,171.0
899.01,159.0
899.07,169.0
899.14,163.0
899.2,166.0
899.26,173.0
899.32,169.0
899.39,141.0
899.45,137.0
899.51,153.0
899.58,153.0
899.64,151.0
899.7,140.0
899.77,131.0
899.83,136.0
899.89,150.0
899.95,142.0
900.02,129.0
900.08,131.0
900.14,131.0
900.21,132.0
900.27,131.0
900.33,123.0
900.4,115.0
900.46,114.0
900.52,107.0
900.58,103.0
900.65,92.0
900.71,84.0
900.77,83.0
900.84,88.0
900.9,84.0
900.96,73.0
901.03,76.0
901.09,59.0
901.15,60.0
901.21,71.0
901.28,69.0
901.34,72.0
901.4,60.0
901.47,59.0
901.53,63.0
901.59,61.0
901.66,63.0
901.72,56.0
901.78,70.0
901.84,59.0
901.91,69.0
901.97,59.0
902.03,46.0
902.1,40.0
902.16,33.0
902.22,34.0
902.29,10.0
902.35,8.0
902.41,4.0
902.47,-5.0
902.54,-3.0
902.6,11.0
902.66,14.0
902.73,-5.0
902.79,-4.0
902.85,20.0
902.92,16.0
902.98,11.0
903.04,34.0
903.1,28.0
903.17,28.0
903.23,21.0
903.29,20.0
903.36,-1.0
903.42,17.0
903.48,17.0
903.55,14.0
903.61,18.0
903.67,5.0
903.73,13.0
903.8,-1.0
903.86,5.0
903.92,12.0
903.99,0.0
904.05,15.0
904.11,22.0
904.18,36.0
904.24,9.0
904.3,34.0
904.36,41.0
904.43,20.0
904.49,30.0
904.55,34.0
904.62,60.0
904.68,40.0
904.74,40.0
904.81,47.0
904.87,52.0
904.93,59.0
904.99,55.0
905.06,54.0
905.12,48.0
905.18,46.0
905.25,35.0
905.31,40.0
905.37,48.0
905.44,22.0
905.5,43.0
905.56,39.0
905.62,33.0
905.69,25.0
905.75,33.0
905.81,26.0
905.88,32.0
905.94,41.0
906.0,42.0
906.07,40.0
906.13,42.0
906.19,38.0
906.25,44.0
906.32,53.0
906.38,53.0
906.44,78.0
906.51,77.0
906.57,88.0
906.63,75.0
906.7,70.0
906.76,80.0
906.82,78.0
906.88,85.0
906.95,85.0
907.01,90.0
907.07,95.0
907.14,89.0
907.2,66.0
907.26,96.0
907.33,109.0
907.39,124.0
907.45,125.0
907.51,119.0
907.58,126.0
907.64,114.0
907.7,121.0
907.77,131.0
907.83,125.0
907.89,105.0
907.96,108.0
908.02,129.0
908.08,116.0
908.14,109.0
908.21,138.0
908.27,125.0
908.33,122.0
908.4,146.0
908.46,135.0
908.52,145.0
908.59,132.0
908.65,143.0
908.71,135.0
908.77,129.0
908.84,121.0
908.9,120.0
908.96,112.0
909.03,112.0
909.09,106.0
909.15,135.0
909.22,108.0
909.28,106.0
909.34,102.0
909.4,97.0
909.47,113.0
909.53,86.0
909.59,89.0
909.66,79.0
909.72,84.0
909.78,78.0
909.85,86.0
909.91,94.0
909.97,75.0
910.03,64.0
910.1,80.0
910.16,84.0
910.22,92.0
910.29,91.0
910.35,90.0
910.41,103.0
910.48,109.0
910.54,89.0
910.6,99.0
910.66,122.0
910.73,121.0
910.79,101.0
910.85,91.0
910.92,105.0
910.98,125.0
911.04,102.0
911.11,80.0
911.17,92.0
911.23,95.0
911.29,94.0
911.36,105.0
911.42,122.0
911.48,137.0
911.55,124.0
911.61,137.0
911.67,127.0
911.74,118.0
911.8,105.0
911.86,129.0
911.92,121.0
911.99,114.0
912.05,120.0
912.11,138.0
912.18,155.0
912.24,147.0
912.3,169.0
912.37,161.0
912.43,162.0
912.49,177.0
912.55,181.0
912.62,174.0
912.68,187.0
912.74,189.0
912.81,166.0
912.87,190.0
912.93,200.0
913.0,196.0
913.06,180.0
913.12,182.0
913.18,197.0
913.25,179.0
913.31,188.0
913.37,185.0
913.44,179.0
913.5,182.0
913.56,184.0
913.63,185.0
913.69,174.0
913.75,163.0
913.81,174.0
913.88,189.0
913.94,177.0
914.0,173.0
914.07,202.0
914.13,169.0
914.19,174.0
914.26,185.0
914.32,167.0
914.38,173.0
914.44,193.0
914.51,206.0
914.57,188.0
914.63,221.0
914.7,210.0
914.76,227.0
914.82,223.0
914.89,224.0
914.95,224.0
915.01,238.0
915.07,226.0
915.14,198.0
915.2,229.0
915.26,208.0
915.33,228.0
915.39,237.0
915.45,233.0
915.52,222.0
915.58,224.0
915.64,235.0
915.7,217.0
915.77,190.0
915.83,194.0
915.89,209.0
915.96,207.0
916.02,189.0
916.08,201.0
916.15,188.0
916.21,187.0
916.27,213.0
916.33,200.0
916.4,199.0
916.46,184.0
916.52,198.0
916.59,191.0
916.65,163.0
916.71,154.0
916.78,162.0
916.84,176.0
916.9,185.0
916.96,172.0
917.03,174.0
917.09,176.0
917.15,188.0
917.22,177.0
917.28,180.0
917.34,181.0
917.41,203.0
917.47,205.0
917.53,186.0
917.59,185.0
917.66,184.0
917.72,205.0
917.78,206.0
917.85,201.0
917.91,207.0
917.97,201.0
918.04,177.0
918.1,168.0
918.16,180.0
918.22,172.0
918.29,180.0
918.35,154.0
918.41,150.0
918.48,195.0
918.54,162.0
918.6,160.0
918.67,162.0
918.73,128.0
918.79,147.0
918.85,150.0
918.92,133.0
918.98,140.0
919.04,142.0
919.11,146.0
919.17,151.0
919.23,136.0
919.3,133.0
919.36,130.0
919.42,146.0
919.48,171.0
919.55,137.0
919.61,141.0
919.67,132.0
919.74,135.0
919.8,115.0
919.86,111.0
919.93,121.0
919.99,117.0
920.05,135.0
920.11,107.0
920.18,113.0
920.24,121.0
920.3,133.0
920.37,108.0
920.43,120.0
920.49,120.0
920.56,113.0
920.62,107.0
920.68,89.0
920.74,89.0
920.81,125.0
920.87,105.0
920.93,105.0
921.0,84.0
921.06,94.0
921.12,95.0
921.19,99.0
921.25,99.0
921.31,96.0
921.37,95.0
921.44,111.0
921.5,107.0
921.56,112.0
921.63,121.0
921.69,118.0
921.75,125.0
921.82,137.0
921.88,128.0
921.94,125.0
922.0,144.0
922.07,138.0
922.13,148.0
922.19,153.0
922.26,169.0
922.32,166.0
922.38,154.0
922.45,153.0
922.51,177.0
922.57,155.0
922.63,164.0
922.7,168.0
922.76,162.0
922.82,156.0
922.89,163.0
922.95,176.0
923.01,158.0
923.08,161.0
923.14,165.0
923.2,173.0
923.26,162.0
923.33,155.0
923.39,154.0
923.45,154.0
923.52,143.0
923.58,136.0
923.64,147.0
923.71,147.0
923.77,163.0
923.83,155.0
923.89,145.0
923.96,144.0
924.02,143.0
924.08,138.0
924.15,122.0
924.21,118.0
924.27,151.0
924.34,140.0
924.4,129.0
924.46,116.0
924.52,113.0
924.59,117.0
924.65,117.0
924.71,133.0
924.78,105.0
924.84,122.0
924.9,124.0
924.97,129.0
925.03,110.0
925.09,91.0
925.15,112.0
925.22,110.0
925.28,127.0
925.34,117.0
925.41,111.0
925.47,95.0
925.53,113.0
925.6,119.0
925.66,118.0
925.72,106.0
925.78,94.0
925.85,111.0
925.91,127.0
925.97,131.0
926.04,99.0
926.1,105.0
926.16,102.0
926.23,78.0
926.29,85.0
926.35,84.0
926.41,88.0
926.48,76.0
926.54,86.0
926.6,71.0
926.67,90.0
926.73,87.0
926.79,74.0
926.86,45.0
926.92,47.0
926.98,51.0
927.04,59.0
927.11,44.0
927.17,51.0
927.23,41.0
927.3,50.0
927.36,63.0
927.42,66.0
927.49,28.0
927.55,45.0
927.61,55.0
927.67,48.0
927.74,49.0
927.8,52.0
927.86,53.0
927.93,61.0
927.99,64.0
928.05,62.0
928.12,66.0
928.18,52.0
928.24,71.0
928.3,72.0
928.37,48.0
928.43,65.0
928.49,72.0
928.56,61.0
928.62,50.0
928.68,39.0
928.75,52.0
928.81,45.0
928.87,57.0
928.93,63.0
929.0,59.0
929.06,73.0
929.12,66.0
929.19,70.0
929.25,52.0
929.31,51.0
929.38,58.0
929.44,73.0
929.5,89.0
929.56,84.0
929.63,68.0
929.69,88.0
929.75,76.0
929.82,64.0
929.88,78.0
929.94,61.0
930.01,73.0
930.07,87.0
930.13,59.0
930.19,74.0
930.26,73.0
930.32,55.0
930.38,58.0
930.45,59.0
930.51,61.0
930.57,57.0
930.64,58.0
930.7,74.0
930.76,77.0
930.82,50.0
930.89,66.0
930.95,50.0
931.01,50.0
931.08,63.0
931.14,78.0
931.2,75.0
931.27,53.0
931.33,53.0
931.39,63.0
931.45,70.0
931.52,74.0
931.58,61.0
931.64,75.0
931.71,83.0
931.77,81.0
931.83,88.0
931.9,93.0
931.96,97.0
932.02,87.0
932.08,91.0
932.15,77.0
932.21,87.0
932.27,92.0
932.34,90.0
932.4,100.0
932.46,92.0
932.53,95.0
932.59,86.0
932.65,78.0
932.71,86.0
932.78,85.0
932.84,105.0
932.9,112.0
932.97,105.0
933.03,87.0
933.09,77.0
933.16,75.0
933.22,79.0
933.28,97.0
933.34,85.0
933.41,102.0
933.47,92.0
933.53,100.0
933.6,100.0
933.66,88.0
933.72,102.0
933.79,74.0
933.85,81.0
933.91,67.0
933.97,76.0
934.04,90.0
934.1,82.0
934.16,86.0
934.23,81.0
934.29,89.0
934.35,91.0
934.42,73.0
934.48,80.0
934.54,74.0
934.6,62.0
934.67,44.0
934.73,47.0
934.79,29.0
934.86,51.0
934.92,70.0
934.98,59.0
935.05,50.0
935.11,43.0
935.17,37.0
935.23,22.0
935.3,-2.0
935.36,19.0
935.42,33.0
935.49,29.0
935.55,35.0
935.61,44.0
935.68,50.0
935.74,48.0
935.8,27.0
935.86,18.0
935.93,28.0
935.99,19.0
936.05,25.0
936.12,16.0
936.18,26.0
936.24,23.0
936.31,30.0
936.37,3.0
936.43,4.0
936.49,27.0
936.56,19.0
936.62,24.0
936.68,43.0
936.75,49.0
936.81,69.0
936.87,52.0
936.94,34.0
937.0,49.0
937.06,45.0
937.12,44.0
937.19,42.0
937.25,48.0
937.31,69.0
937.38,76.0
937.44,66.0
937.5,65.0
937.57,41.0
937.63,58.0
937.69,63.0
937.75,66.0
937.82,48.0
937.88,40.0
937.94,64.0
938.01,85.0
938.07,91.0
938.13,89.0
938.2,94.0
938.26,89.0
938.32,85.0
938.38,62.0
938.45,65.0
938.51,91.0
938.57,80.0
938.64,74.0
938.7,80.0
938.76,80.0
938.83,83.0
938.89,59.0
938.95,55.0
939.01,61.0
939.08,70.0
939.14,70.0
939.2,73.0
939.27,75.0
939.33,83.0
939.39,73.0
939.46,79.0
939.52,58.0
939.58,56.0
939.64,62.0
939.71,59.0
939.77,67.0
939.83,61.0
939.9,85.0
939.96,80.0
940.02,69.0
940.09,58.0
940.15,64.0
940.21,83.0
940.27,77.0
940.34,66.0
940.4,83.0
940.46,82.0
940.53,93.0
940.59,105.0
940.65,120.0
940.72,99.0
940.78,104.0
940.84,119.0
940.9,121.0
940.97,106.0
941.03,109.0
941.09,121.0
941.16,129.0
941.22,121.0
941.28,102.0
941.35,97.0
941.41,98.0
941.47,94.0
941.53,98.0
941.6,89.0
941.66,105.0
941.72,112.0
941.79,124.0
941.85,91.0
941.91,90.0
941.98,95.0
942.04,76.0
942.1,103.0
942.16,113.0
942.23,109.0
942.29,113.0
942.35,87.0
942.42,97.0
942.48,75.0
942.54,80.0
942.61,124.0
942.67,95.0
942.73,122.0
942.79,124.0
942.86,109.0
942.92,113.0
942.98,116.0
943.05,122.0
943.11,126.0
943.17,150.0
943.24,148.0
943.3,138.0
943.36,111.0
943.42,126.0
943.49,136.0
943.55,101.0
943.61,105.0
943.68,94.0
943.74,95.0
943.8,108.0
943.87,103.0
943.93,117.0
943.99,124.0
944.05,124.0
944.12,109.0
944.18,126.0
944.24,142.0
944.31,146.0
944.37,143.0
944.43,165.0
944.5,150.0
944.56,164.0
944.62,160.0
944.68,157.0
944.75,165.0
944.81,166.0
944.87,160.0
944.94,125.0
945.0,125.0
945.06,131.0
945.13,147.0
945.19,148.0
945.25,145.0
945.31,150.0
945.38,161.0
945.44,152.0
945.5,160.0
945.57,164.0
945.63,159.0
945.69,172.0
945.76,183.0
945.82,172.0
945.88,179.0
945.94,164.0
946.01,174.0
946.07,187.0
946.13,172.0
946.2,182.0
946.26,204.0
946.32,191.0
946.39,181.0
946.45,201.0
946.51,194.0
946.57,207.0
946.64,203.0
946.7,207.0
946.76,193.0
946.83,196.0
946.89,195.0
946.95,184.0
947.02,192.0
947.08,198.0
947.14,199.0
947.2,205.0
947.27,190.0
947.33,176.0
947.39,198.0
947.46,194.0
947.52,199.0
947.58,201.0
947.65,197.0
947.71,201.0
947.77,218.0
947.83,194.0
947.9,194.0
947.96,206.0
948.02,213.0
948.09,198.0
948.15,204.0
948.21,186.0
948.28,183.0
948.34,201.0
948.4,198.0
948.46,206.0
948.53,187.0
948.59,201.0
948.65,190.0
948.72,197.0
948.78,194.0
948.84,175.0
948.91,178.0
948.97,160.0
949.03,166.0
949.09,161.0
949.16,168.0
949.22,169.0
949.28,154.0
949.35,160.0
949.41,154.0
949.47,170.0
949.54,171.0
949.6,171.0
949.66,165.0
949.72,151.0
949.79,149.0
949.85,148.0
949.91,152.0
949.98,156.0
950.04,157.0
950.1,152.0
950.17,147.0
950.23,144.0
950.29,154.0
950.35,144.0
950.42,114.0
950.48,100.0
950.54,117.0
950.61,113.0
950.67,121.0
950.73,121.0
950.8,102.0
950.86,113.0
950.92,113.0
950.98,95.0
951.05,106.0
951.11,91.0
951.17,99.0
951.24,97.0
951.3,101.0
951.36,111.0
951.43,114.0
951.49,94.0
951.55,100.0
951.61,87.0
951.68,103.0
951.74,108.0
951.8,98.0
951.87,113.0
951.93,92.0
951.99,78.0
952.06,81.0
952.12,85.0
952.18,93.0
952.24,72.0
952.31,78.0
952.37,81.0
952.43,67.0
952.5,64.0
952.56,81.0
952.62,55.0
952.69,72.0
952.75,57.0
952.81,45.0
952.87,65.0
952.94,51.0
953.0,54.0
953.06,54.0
953.13,64.0
953.19,66.0
953.25,51.0
953.32,54.0
953.38,67.0
953.44,67.0
953.5,31.0
953.57,44.0
953.63,55.0
953.69,31.0
953.76,34.0
953.82,19.0
953.88,46.0
953.95,47.0
954.01,23.0
954.07,34.0
954.13,26.0
954.2,48.0
954.26,34.0
954.32,42.0
954.39,64.0
954.45,41.0
954.51,44.0
954.58,62.0
954.64,54.0
954.7,51.0
954.76,57.0
954.83,61.0
954.89,62.0
954.95,43.0
955.02,40.0
955.08,53.0
955.14,40.0
955.21,23.0
955.27,36.0
955.33,34.0
955.39,23.0
955.46,21.0
955.52,44.0
955.58,54.0
955.65,56.0
955.71,62.0
955.77,61.0
955.84,54.0
955.9,40.0
955.96,49.0
956.02,58.0
956.09,47.0
956.15,28.0
956.21,21.0
956.28,26.0
956.34,52.0
956.4,46.0
956.47,36.0
956.53,43.0
956.59,40.0
956.65,48.0
956.72,60.0
956.78,70.0
956.84,66.0
956.91,73.0
956.97,77.0
957.03,70.0
957.1,78.0
957.16,72.0
957.22,80.0
957.28,81.0
957.35,74.0
957.41,65.0
957.47,61.0
957.54,86.0
957.6,110.0
957.66,80.0
957.73,81.0
957.79,84.0
957.85,107.0
957.91,103.0
957.98,85.0
958.04,89.0
958.1,93.0
958.17,88.0
958.23,108.0
958.29,83.0
958.36,101.0
958.42,103.0
958.48,89.0
958.54,83.0
958.61,96.0
958.67,97.0
958.73,74.0
958.8,62.0
958.86,83.0
958.92,84.0
958.99,75.0
959.05,80.0
959.11,92.0
959.17,87.0
959.24,79.0
959.3,83.0
959.36,69.0
959.43,87.0
959.49,81.0
959.55,60.0
959.62,62.0
959.68,54.0
959.74,75.0
959.8,75.0
959.87,87.0
959.93,81.0
959.99,85.0
960.06,76.0
960.12,67.0
960.18,70.0
960.25,70.0
960.31,86.0
960.37,78.0
960.43,81.0
960.5,59.0
960.56,72.0
960.62,73.0
960.69,81.0
960.75,84.0
960.81,73.0
960.88,81.0
960.94,93.0
961.0,91.0
961.06,76.0
961.13,80.0
961.19,95.0
961.25,101.0
961.32,85.0
961.38,95.0
961.44,84.0
961.51,97.0
961.57,110.0
961.63,109.0
961.69,117.0
961.76,122.0
961.82,106.0
961.88,110.0
961.95,125.0
962.01,137.0
962.07,145.0
962.14,160.0
962.2,150.0
962.26,159.0
962.32,171.0
962.39,172.0
962.45,155.0
962.51,147.0
962.58,147.0
962.64,139.0
962.7,143.0
962.77,147.0
962.83,134.0
962.89,155.0
962.95,175.0
963.02,163.0
963.08,151.0
963.14,168.0
963.21,160.0
963.27,164.0
963.33,168.0
963.4,174.0
963.46,196.0
963.52,188.0
963.58,200.0
963.65,185.0
963.71,190.0
963.77,194.0
963.84,214.0
963.9,197.0
963.96,194.0
964.03,216.0
964.09,191.0
964.15,199.0
964.21,191.0
964.28,196.0
964.34,169.0
964.4,179.0
964.47,213.0
964.53,212.0
964.59,190.0
964.66,201.0
964.72,202.0
964.78,198.0
964.84,217.0
964.91,200.0
964.97,204.0
965.03,221.0
965.1,198.0
965.16,208.0
965.22,175.0
965.29,176.0
965.35,178.0
965.41,182.0
965.47,207.0
965.54,194.0
965.6,203.0
965.66,193.0
965.73,209.0
965.79,196.0
965.85,207.0
965.92,206.0
965.98,191.0
966.04,183.0
966.1,182.0
966.17,186.0
966.23,191.0
966.29,197.0
966.36,208.0
966.42,221.0
966.48,227.0
966.55,207.0
966.61,200.0
966.67,190.0
966.73,190.0
966.8,182.0
966.86,197.0
966.92,179.0
966.99,180.0
967.05,171.0
967.11,190.0
967.18,192.0
967.24,187.0
967.3,200.0
967.36,207.0
967.43,208.0
967.49,197.0
967.55,192.0
967.62,209.0
967.68,197.0
967.74,182.0
967.81,191.0
967.87,179.0
967.93,193.0
967.99,176.0
968.06,172.0
968.12,183.0
968.18,179.0
968.25,183.0
968.31,178.0
968.37,191.0
968.44,192.0
968.5,198.0
968.56,192.0
968.62,196.0
968.69,182.0
968.75,156.0
968.81,172.0
968.88,146.0
968.94,154.0
969.0,146.0
969.07,147.0
969.13,157.0
969.19,145.0
969.25,149.0
969.32,140.0
969.38,124.0
969.44,111.0
969.51,118.0
969.57,109.0
969.63,89.0
969.7,98.0
969.76,100.0
969.82,99.0
969.88,121.0
969.95,125.0
970.01,127.0
970.07,155.0
970.14,137.0
970.2,142.0
970.26,143.0
970.33,127.0
970.39,114.0
970.45,124.0
970.51,116.0
970.58,127.0
970.64,141.0
970.7,146.0
970.77,124.0
970.83,125.0
970.89,133.0
970.96,134.0
971.02,128.0
971.08,139.0
971.14,136.0
971.21,131.0
971.27,136.0
971.33,158.0
971.4,156.0
971.46,139.0
971.52,122.0
971.59,122.0
971.65,125.0
971.71,118.0
971.77,128.0
971.84,123.0
971.9,124.0
971.96,99.0
972.03,139.0
972.09,119.0
972.15,126.0
972.22,121.0
972.28,109.0
972.34,124.0
972.4,114.0
972.47,108.0
972.53,112.0
972.59,105.0
972.66,113.0
972.72,109.0
972.78,117.0
972.85,138.0
972.91,141.0
972.97,139.0
973.03,144.0
973.1,130.0
973.16,132.0
973.22,133.0
973.29,116.0
973.35,123.0
973.41,110.0
973.48,117.0
973.54,113.0
973.6,111.0
973.66,119.0
973.73,129.0
973.79,94.0
973.85,118.0
973.92,110.0
973.98,127.0
974.04,133.0
974.11,121.0
974.17,95.0
974.23,108.0
974.29,104.0
974.36,110.0
974.42,124.0
974.48,125.0
974.55,126.0
974.61,129.0
974.67,131.0
974.74,131.0
974.8,134.0
974.86,139.0
974.92,141.0
974.99,127.0
975.05,128.0
975.11,140.0
975.18,121.0
975.24,106.0
975.3,100.0
975.37,102.0
975.43,105.0
975.49,119.0
975.55,102.0
975.62,107.0
975.68,110.0
975.74,97.0
975.81,96.0
975.87,110.0
975.93,98.0
976.0,76.0
976.06,59.0
976.12,73.0
976.18,84.0
976.25,75.0
976.31,98.0
976.37,95.0
976.44,91.0
976.5,81.0
976.56,69.0
976.63,65.0
976.69,56.0
976.75,78.0
976.81,77.0
976.88,65.0
976.94,84.0
977.0,81.0
977.07,82.0
977.13,83.0
977.19,65.0
977.26,74.0
977.32,83.0
977.38,108.0
977.44,86.0
977.51,73.0
977.57,62.0
977.63,77.0
977.7,91.0
977.76,97.0
977.82,95.0
977.89,105.0
977.95,103.0
978.01,89.0
978.07,119.0
978.14,113.0
978.2,118.0
978.26,113.0
978.33,110.0
978.39,128.0
978.45,109.0
978.52,102.0
978.58,110.0
978.64,105.0
978.7,119.0
978.77,100.0
978.83,113.0
978.89,111.0
978.96,144.0
979.02,127.0
979.08,116.0
979.15,130.0
979.21,106.0
979.27,135.0
979.33,122.0
979.4,110.0
979.46,92.0
979.52,110.0
979.59,102.0
979.65,106.0
979.71,96.0
979.78,96.0
979.84,89.0
979.9,81.0
979.96,73.0
980.03,76.0
980.09,96.0
980.15,98.0
980.22,99.0
980.28,92.0
980.34,86.0
980.41,78.0
980.47,84.0
980.53,82.0
980.59,90.0
980.66,112.0
980.72,121.0
980.78,101.0
980.85,109.0
980.91,99.0
980.97,98.0
981.04,96.0
981.1,72.0
981.16,104.0
981.22,82.0
981.29,95.0
981.35,75.0
981.41,99.0
981.48,105.0
981.54,100.0
981.6,115.0
981.67,93.0
981.73,91.0
981.79,80.0
981.85,94.0
981.92,83.0
981.98,100.0
982.04,92.0
982.11,69.0
982.17,89.0
982.23,95.0
982.3,116.0
982.36,94.0
982.42,116.0
982.48,118.0
982.55,99.0
982.61,91.0
982.67,95.0
982.74,88.0
982.8,80.0
982.86,75.0
982.93,81.0
982.99,81.0
983.05,92.0
983.11,74.0
983.18,65.0
983.24,80.0
983.3,76.0
983.37,76.0
983.43,88.0
983.49,74.0
983.56,73.0
983.62,87.0
983.68,78.0
983.74,71.0
983.81,80.0
983.87,48.0
983.93,60.0
984.0,60.0
984.06,62.0
984.12,57.0
984.19,41.0
984.25,57.0
984.31,61.0
984.37,63.0
984.44,52.0
984.5,44.0
984.56,51.0
984.63,56.0
984.69,48.0
984.75,49.0
984.82,53.0
984.88,40.0
984.94,39.0
985.0,23.0
985.07,25.0
985.13,37.0
985.19,40.0
985.26,25.0
985.32,31.0
985.38,43.0
985.45,40.0
985.51,44.0
985.57,29.0
985.63,14.0
985.7,25.0
985.76,19.0
985.82,24.0
985.89,28.0
985.95,15.0
986.01,40.0
986.08,28.0
986.14,26.0
986.2,37.0
986.26,21.0
986.33,25.0
986.39,31.0
986.45,14.0
986.52,10.0
986.58,11.0
986.64,12.0
986.71,18.0
986.77,18.0
986.83,10.0
986.89,11.0
986.96,25.0
987.02,21.0
987.08,30.0
987.15,25.0
987.21,26.0
987.27,17.0
987.34,28.0
987.4,38.0
987.46,34.0
987.52,32.0
987.59,21.0
987.65,34.0
987.71,18.0
987.78,29.0
987.84,67.0
987.9,47.0
987.97,55.0
988.03,59.0
988.09,50.0
988.15,45.0
988.22,58.0
988.28,44.0
988.34,61.0
988.41,62.0
988.47,58.0
988.53,72.0
988.6,56.0
988.66,51.0
988.72,65.0
988.78,64.0
988.85,62.0
988.91,44.0
988.97,46.0
989.04,49.0
989.1,29.0
989.16,47.0
989.23,36.0
989.29,55.0
989.35,58.0
989.41,43.0
989.48,53.0
989.54,56.0
989.6,62.0
989.67,65.0
989.73,61.0
989.79,72.0
989.86,77.0
989.92,83.0
989.98,87.0
990.04,100.0
990.11,105.0
990.17,100.0
990.23,76.0
990.3,80.0
990.36,80.0
990.42,61.0
990.49,75.0
990.55,80.0
990.61,86.0
990.67,77.0
990.74,93.0
990.8,90.0
990.86,101.0
990.93,106.0
990.99,97.0
991.05,97.0
991.12,94.0
991.18,98.0
991.24,100.0
991.3,97.0
991.37,82.0
991.43,85.0
991.49,89.0
991.56,84.0
991.62,65.0
991.68,80.0
991.75,94.0
991.81,91.0
991.87,99.0
991.93,82.0
992.0,78.0
992.06,80.0
992.12,75.0
992.19,90.0
992.25,81.0
992.31,86.0
992.38,88.0
992.44,78.0
992.5,75.0
992.56,86.0
992.63,55.0
992.69,67.0
992.75,71.0
992.82,74.0
992.88,87.0
992.94,66.0
993.01,59.0
993.07,96.0
993.13,76.0
993.19,88.0
993.26,78.0
993.32,89.0
993.38,87.0
993.45,94.0
993.51,104.0
993.57,114.0
993.64,102.0
993.7,91.0
993.76,106.0
993.82,101.0
993.89,101.0
993.95,87.0
994.01,84.0
994.08,78.0
994.14,97.0
994.2,100.0
994.27,105.0
994.33,112.0
994.39,131.0
994.45,127.0
994.52,113.0
994.58,116.0
994.64,125.0
994.71,128.0
994.77,113.0
994.83,124.0
994.9,138.0
994.96,119.0
995.02,119.0
995.08,122.0
995.15,117.0
995.21,117.0
995.27,114.0
995.34,102.0
995.4,97.0
995.46,120.0
995.53,131.0
995.59,124.0
995.65,126.0
995.71,121.0
995.78,146.0
995.84,140.0
995.9,135.0
995.97,139.0
996.03,153.0
996.09,146.0
996.16,146.0
996.22,135.0
996.28,143.0
996.34,158.0
996.41,148.0
996.47,168.0
996.53,151.0
996.6,157.0
996.66,146.0
996.72,129.0
996.79,148.0
996.85,148.0
996.91,132.0
996.97,139.0
997.04,135.0
997.1,138.0
997.16,144.0
997.23,140.0
997.29,138.0
997.35,132.0
997.42,164.0
997.48,138.0
997.54,143.0
997.6,128.0
997.67,132.0
997.73,147.0
997.79,161.0
997.86,150.0
997.92,155.0
997.98,164.0
998.05,153.0
998.11,151.0
998.17,145.0
998.23,132.0
998.3,134.0
998.36,158.0
998.42,159.0
998.49,147.0
998.55,158.0
998.61,183.0
998.68,194.0
998.74,164.0
998.8,179.0
998.86,185.0
998.93,195.0
998.99,199.0
999.05,204.0
999.12,191.0
999.18,160.0
999.24,192.0
999.31,195.0
999.37,172.0
999.43,178.0
999.49,164.0
999.56,170.0
999.62,164.0
999.68,168.0
999.75,173.0
999.81,167.0
999.87,174.0
