timestamp,intensity
0,-336.0
0.06,-327.0
0.13,-343.0
0.19,-329.0
0.25,-327.0
0.32,-337.0
0.38,-342.0
0.44,-332.0
0.5,-318.0
0.57,-334.0
0.63,-326.0
0.69,-335.0
0.76,-335.0
0.82,-329.0
0.88,-330.0
0.94,-319.0
1.01,-305.0
1.07,-301.0
1.13,-306.0
1.2,-309.0
1.26,-307.0
1.32,-301.0
1.39,-289.0
1.45,-286.0
1.51,-294.0
1.57,-305.0
1.64,-306.0
1.7,-294.0
1.76,-288.0
1.83,-298.0
1.89,-297.0
1.95,-296.0
2.02,-291.0
2.08,-301.0
2.14,-292.0
2.2,-293.0
2.27,-292.0
2.33,-297.0
2.39,-297.0
2.46,-298.0
2.52,-280.0
2.58,-253.0
2.65,-286.0
2.71,-250.0
2.77,-256.0
2.84,-260.0
2.9,-258.0
2.96,-279.0
3.02,-260.0
3.09,-268.0
3.15,-267.0
3.21,-260.0
3.28,-241.0
3.34,-240.0
3.4,-251.0
3.47,-244.0
3.53,-245.0
3.59,-242.0
3.65,-231.0
3.72,-223.0
3.78,-225.0
3.84,-242.0
3.91,-228.0
3.97,-232.0
4.03,-254.0
4.1,-231.0
4.16,-251.0
4.22,-264.0
4.28,-240.0
4.35,-241.0
4.41,-240.0
4.47,-236.0
4.54,-243.0
4.6,-230.0
4.66,-238.0
4.73,-225.0
4.79,-238.0
4.85,-239.0
4.91,-254.0
4.98,-257.0
5.04,-247.0
5.1,-252.0
5.17,-261.0
5.23,-255.0
5.29,-280.0
5.35,-274.0
5.42,-276.0
5.48,-269.0
5.54,-272.0
5.61,-293.0
5.67,-309.0
5.73,-308.0
5.8,-292.0
5.86,-275.0
5.92,-272.0
5.98,-273.0
6.05,-267.0
6.11,-254.0
6.17,-275.0
6.24,-283.0
6.3,-269.0
6.36,-285.0
6.43,-287.0
6.49,-282.0
6.55,-290.0
6.61,-302.0
6.68,-277.0
6.74,-285.0
6.8,-301.0
6.87,-272.0
6.93,-294.0
6.99,-307.0
7.06,-276.0
7.12,-278.0
7.18,-291.0
7.24,-295.0
7.31,-282.0
7.37,-295.0
7.43,-293.0
7.5,-297.0
7.56,-284.0
7.62,-270.0
7.69,-279.0
7.75,-279.0
7.81,-280.0
7.87,-271.0
7.94,-271.0
8.0,-250.0
8.06,-259.0
8.13,-243.0
8.19,-258.0
8.25,-267.0
8.32,-273.0
8.38,-272.0
8.44,-258.0
8.5,-273.0
8.57,-253.0
8.63,-256.0
8.69,-262.0
8.76,-236.0
8.82,-252.0
8.88,-234.0
8.95,-243.0
9.01,-255.0
9.07,-249.0
9.13,-233.0
9.2,-237.0
9.26,-235.0
9.32,-217.0
9.39,-224.0
9.45,-213.0
9.51,-215.0
9.58,-211.0
9.64,-222.0
9.7,-221.0
9.77,-211.0
9.83,-196.0
9.89,-193.0
9.95,-236.0
10.02,-214.0
10.08,-217.0
10.14,-211.0
10.21,-201.0
10.27,-205.0
10.33,-221.0
10.4,-211.0
10.46,-207.0
10.52,-215.0
10.58,-197.0
10.65,-215.0
10.71,-215.0
10.77,-190.0
10.84,-202.0
10.9,-211.0
10.96,-218.0
11.03,-213.0
11.09,-221.0
11.15,-221.0
11.21,-222.0
11.28,-218.0
11.34,-225.0
11.4,-219.0
11.47,-212.0
11.53,-229.0
11.59,-217.0
11.66,-216.0
11.72,-206.0
11.78,-192.0
11.84,-203.0
11.91,-220.0
11.97,-220.0
12.03,-217.0
12.1,-218.0
12.16,-225.0
12.22,-196.0
12.29,-213.0
12.35,-202.0
12.41,-224.0
12.47,-250.0
12.54,-214.0
12.6,-232.0
12.66,-236.0
12.73,-246.0
12.79,-227.0
12.85,-235.0
12.92,-227.0
12.98,-207.0
13.04,-198.0
13.1,-214.0
13.17,-231.0
13.23,-241.0
13.29,-241.0
13.36,-250.0
13.42,-244.0
13.48,-257.0
13.55,-264.0
13.61,-253.0
13.67,-266.0
13.73,-271.0
13.8,-257.0
13.86,-248.0
13.92,-250.0
13.99,-241.0
14.05,-237.0
14.11,-251.0
14.18,-245.0
14.24,-255.0
14.3,-243.0
14.36,-243.0
14.43,-247.0
14.49,-243.0
14.55,-233.0
14.62,-245.0
14.68,-245.0
14.74,-256.0
14.81,-250.0
14.87,-254.0
14.93,-253.0
14.99,-261.0
15.06,-240.0
15.12,-246.0
15.18,-237.0
15.25,-236.0
15.31,-238.0
15.37,-216.0
15.44,-229.0
15.5,-231.0
15.56,-238.0
15.62,-247.0
15.69,-235.0
15.75,-268.0
15.81,-260.0
15.88,-249.0
15.94,-261.0
16.0,-245.0
16.07,-264.0
16.13,-234.0
16.19,-268.0
16.25,-239.0
16.32,-229.0
16.38,-242.0
16.44,-233.0
16.51,-243.0
16.57,-253.0
16.63,-240.0
16.7,-234.0
16.76,-207.0
16.82,-236.0
16.88,-235.0
16.95,-239.0
17.01,-234.0
17.07,-231.0
17.14,-230.0
17.2,-230.0
17.26,-235.0
17.33,-220.0
17.39,-181.0
17.45,-189.0
17.51,-197.0
17.58,-192.0
17.64,-200.0
17.7,-196.0
17.77,-207.0
17.83,-204.0
17.89,-201.0
17.96,-196.0
18.02,-193.0
18.08,-183.0
18.14,-185.0
18.21,-200.0
18.27,-203.0
18.33,-188.0
18.4,-173.0
18.46,-191.0
18.52,-191.0
18.59,-187.0
18.65,-183.0
18.71,-195.0
18.77,-206.0
18.84,-171.0
18.9,-177.0
18.96,-186.0
19.03,-173.0
19.09,-183.0
19.15,-172.0
19.22,-157.0
19.28,-176.0
19.34,-174.0
19.4,-176.0
19.47,-160.0
19.53,-168.0
19.59,-172.0
19.66,-184.0
19.72,-179.0
19.78,-210.0
19.84,-197.0
19.91,-185.0
19.97,-206.0
20.03,-202.0
20.1,-204.0
20.16,-196.0
20.22,-207.0
20.29,-206.0
20.35,-198.0
20.41,-206.0
20.47,-203.0
20.54,-211.0
20.6,-222.0
20.66,-228.0
20.73,-225.0
20.79,-224.0
20.85,-220.0
20.92,-214.0
20.98,-217.0
21.04,-216.0
21.1,-197.0
21.17,-216.0
21.23,-218.0
21.29,-222.0
21.36,-225.0
21.42,-220.0
21.48,-218.0
21.55,-212.0
21.61,-194.0
21.67,-201.0
21.73,-201.0
21.8,-216.0
21.86,-237.0
21.92,-229.0
21.99,-234.0
22.05,-227.0
22.11,-239.0
22.18,-244.0
22.24,-219.0
22.3,-235.0
22.36,-256.0
22.43,-244.0
22.49,-232.0
22.55,-216.0
22.62,-223.0
22.68,-234.0
22.74,-225.0
22.81,-235.0
22.87,-226.0
22.93,-217.0
22.99,-224.0
23.06,-223.0
23.12,-226.0
23.18,-227.0
23.25,-228.0
23.31,-234.0
23.37,-229.0
23.44,-227.0
23.5,-237.0
23.56,-211.0
23.62,-226.0
23.69,-224.0
23.75,-227.0
23.81,-227.0
23.88,-214.0
23.94,-247.0
24.0,-235.0
24.07,-239.0
24.13,-241.0
24.19,-243.0
24.25,-239.0
24.32,-245.0
24.38,-235.0
24.44,-242.0
24.51,-238.0
24.57,-230.0
24.63,-219.0
24.7,-220.0
24.76,-200.0
24.82,-216.0
24.88,-215.0
24.95,-201.0
25.01,-221.0
25.07,-211.0
25.14,-204.0
25.2,-210.0
25.26,-200.0
25.33,-197.0
25.39,-200.0
25.45,-200.0
25.51,-192.0
25.58,-169.0
25.64,-162.0
25.7,-177.0
25.77,-185.0
25.83,-173.0
25.89,-164.0
25.96,-157.0
26.02,-153.0
26.08,-145.0
26.14,-139.0
26.21,-146.0
26.27,-162.0
26.33,-151.0
26.4,-160.0
26.46,-159.0
26.52,-153.0
26.59,-159.0
26.65,-130.0
26.71,-129.0
26.77,-139.0
26.84,-133.0
26.9,-112.0
26.96,-113.0
27.03,-137.0
27.09,-135.0
27.15,-110.0
27.22,-138.0
27.28,-129.0
27.34,-136.0
27.4,-145.0
27.47,-135.0
27.53,-165.0
27.59,-154.0
27.66,-142.0
27.72,-138.0
27.78,-153.0
27.85,-138.0
27.91,-135.0
27.97,-156.0
28.03,-153.0
28.1,-155.0
28.16,-162.0
28.22,-144.0
28.29,-129.0
28.35,-144.0
28.41,-159.0
28.48,-161.0
28.54,-181.0
28.6,-173.0
28.66,-164.0
28.73,-165.0
28.79,-142.0
28.85,-151.0
28.92,-140.0
28.98,-135.0
29.04,-136.0
29.11,-129.0
29.17,-131.0
29.23,-121.0
29.29,-119.0
29.36,-127.0
29.42,-120.0
29.48,-132.0
29.55,-155.0
29.61,-150.0
29.67,-172.0
29.74,-163.0
29.8,-148.0
29.86,-147.0
29.92,-139.0
29.99,-145.0
30.05,-157.0
30.11,-166.0
30.18,-158.0
30.24,-167.0
30.3,-172.0
30.37,-168.0
30.43,-158.0
30.49,-147.0
30.55,-156.0
30.62,-156.0
30.68,-154.0
30.74,-159.0
30.81,-166.0
30.87,-175.0
30.93,-168.0
31.0,-171.0
31.06,-178.0
31.12,-168.0
31.18,-188.0
31.25,-173.0
31.31,-179.0
31.37,-178.0
31.44,-183.0
31.5,-179.0
31.56,-197.0
31.63,-199.0
31.69,-199.0
31.75,-197.0
31.81,-181.0
31.88,-209.0
31.94,-194.0
32.0,-193.0
32.07,-212.0
32.13,-181.0
32.19,-193.0
32.26,-184.0
32.32,-202.0
32.38,-206.0
32.44,-202.0
32.51,-189.0
32.57,-185.0
32.63,-189.0
32.7,-182.0
32.76,-179.0
32.82,-186.0
32.89,-185.0
32.95,-185.0
33.01,-169.0
33.07,-184.0
33.14,-190.0
33.2,-180.0
33.26,-159.0
33.33,-141.0
33.39,-132.0
33.45,-149.0
33.52,-156.0
33.58,-151.0
33.64,-171.0
33.7,-135.0
33.77,-127.0
33.83,-132.0
33.89,-158.0
33.96,-143.0
34.02,-141.0
34.08,-124.0
34.15,-124.0
34.21,-139.0
34.27,-120.0
34.33,-123.0
34.4,-93.0
34.46,-96.0
34.52,-106.0
34.59,-107.0
34.65,-106.0
34.71,-92.0
34.78,-101.0
34.84,-108.0
34.9,-98.0
34.96,-104.0
35.03,-111.0
35.09,-112.0
35.15,-91.0
35.22,-100.0
35.28,-94.0
35.34,-105.0
35.41,-112.0
35.47,-108.0
35.53,-111.0
35.59,-106.0
35.66,-100.0
35.72,-88.0
35.78,-100.0
35.85,-96.0
35.91,-95.0
35.97,-81.0
36.04,-89.0
36.1,-71.0
36.16,-76.0
36.22,-67.0
36.29,-87.0
36.35,-95.0
36.41,-72.0
36.48,-114.0
36.54,-105.0
36.6,-93.0
36.67,-90.0
36.73,-107.0
36.79,-74.0
36.85,-52.0
36.92,-58.0
36.98,-79.0
37.04,-95.0
37.11,-71.0
37.17,-102.0
37.23,-59.0
37.3,-75.0
37.36,-69.0
37.42,-61.0
37.48,-68.0
37.55,-67.0
37.61,-69.0
37.67,-56.0
37.74,-71.0
37.8,-50.0
37.86,-66.0
37.93,-64.0
37.99,-62.0
38.05,-77.0
38.12,-79.0
38.18,-79.0
38.24,-98.0
38.3,-76.0
38.37,-90.0
38.43,-86.0
38.49,-75.0
38.56,-106.0
38.62,-104.0
38.68,-94.0
38.75,-95.0
38.81,-99.0
38.87,-102.0
38.93,-120.0
39.0,-94.0
39.06,-87.0
39.12,-103.0
39.19,-108.0
39.25,-98.0
39.31,-111.0
39.38,-117.0
39.44,-119.0
39.5,-119.0
39.56,-131.0
39.63,-136.0
39.69,-128.0
39.75,-145.0
39.82,-136.0
39.88,-133.0
39.94,-131.0
40.01,-156.0
40.07,-143.0
40.13,-121.0
40.19,-132.0
40.26,-132.0
40.32,-124.0
40.38,-109.0
40.45,-123.0
40.51,-123.0
40.57,-117.0
40.64,-112.0
40.7,-122.0
40.76,-133.0
40.82,-130.0
40.89,-121.0
40.95,-115.0
41.01,-132.0
41.08,-118.0
41.14,-128.0
41.2,-121.0
41.27,-104.0
41.33,-105.0
41.39,-110.0
41.45,-116.0
41.52,-96.0
41.58,-111.0
41.64,-108.0
41.71,-110.0
41.77,-98.0
41.83,-96.0
41.9,-90.0
41.96,-96.0
42.02,-113.0
42.08,-111.0
42.15,-104.0
42.21,-97.0
42.27,-108.0
42.34,-82.0
42.4,-77.0
42.46,-71.0
42.53,-82.0
42.59,-81.0
42.65,-94.0
42.71,-86.0
42.78,-96.0
42.84,-81.0
42.9,-94.0
42.97,-83.0
43.03,-83.0
43.09,-81.0
43.16,-90.0
43.22,-74.0
43.28,-74.0
43.34,-89.0
43.41,-83.0
43.47,-94.0
43.53,-88.0
43.6,-92.0
43.66,-107.0
43.72,-89.0
43.79,-102.0
43.85,-97.0
43.91,-74.0
43.97,-91.0
44.04,-88.0
44.1,-63.0
44.16,-94.0
44.23,-67.0
44.29,-83.0
44.35,-78.0
44.42,-62.0
44.48,-55.0
44.54,-30.0
44.6,-71.0
44.67,-63.0
44.73,-50.0
44.79,-68.0
44.86,-53.0
44.92,-58.0
44.98,-75.0
45.05,-58.0
45.11,-66.0
45.17,-77.0
45.23,-62.0
45.3,-44.0
45.36,-48.0
45.42,-62.0
45.49,-67.0
45.55,-59.0
45.61,-58.0
45.68,-66.0
45.74,-78.0
45.8,-80.0
45.86,-79.0
45.93,-81.0
45.99,-100.0
46.05,-115.0
46.12,-111.0
46.18,-123.0
46.24,-121.0
46.31,-117.0
46.37,-114.0
46.43,-92.0
46.49,-111.0
46.56,-96.0
46.62,-94.0
46.68,-107.0
46.75,-125.0
46.81,-136.0
46.87,-107.0
46.94,-119.0
47.0,-117.0
47.06,-119.0
47.12,-128.0
47.19,-126.0
47.25,-130.0
47.31,-127.0
47.38,-100.0
47.44,-107.0
47.5,-108.0
47.57,-113.0
47.63,-106.0
47.69,-102.0
47.75,-124.0
47.82,-126.0
47.88,-126.0
47.94,-119.0
48.01,-106.0
48.07,-123.0
48.13,-103.0
48.2,-107.0
48.26,-107.0
48.32,-105.0
48.38,-116.0
48.45,-122.0
48.51,-105.0
48.57,-95.0
48.64,-101.0
48.7,-104.0
48.76,-111.0
48.83,-128.0
48.89,-139.0
48.95,-142.0
49.01,-126.0
49.08,-108.0
49.14,-107.0
49.2,-109.0
49.27,-101.0
49.33,-99.0
49.39,-98.0
49.46,-113.0
49.52,-99.0
49.58,-102.0
49.64,-80.0
49.71,-86.0
49.77,-94.0
49.83,-94.0
49.9,-80.0
49.96,-83.0
50.02,-92.0
50.09,-95.0
50.15,-84.0
50.21,-80.0
50.27,-74.0
50.34,-103.0
50.4,-87.0
50.46,-71.0
50.53,-77.0
50.59,-67.0
50.65,-66.0
50.72,-46.0
50.78,-47.0
50.84,-51.0
50.9,-28.0
50.97,-31.0
51.03,-24.0
51.09,-15.0
51.16,-36.0
51.22,-29.0
51.28,-23.0
51.35,-17.0
51.41,-25.0
51.47,-23.0
51.53,-41.0
51.6,-11.0
51.66,-7.0
51.72,-6.0
51.79,6.0
51.85,3.0
51.91,16.0
51.98,6.0
52.04,-7.0
52.1,3.0
52.16,10.0
52.23,19.0
52.29,18.0
52.35,23.0
52.42,23.0
52.48,21.0
52.54,32.0
52.61,28.0
52.67,23.0
52.73,51.0
52.79,47.0
52.86,43.0
52.92,53.0
52.98,47.0
53.05,39.0
53.11,32.0
53.17,33.0
53.24,38.0
53.3,74.0
53.36,66.0
53.42,50.0
53.49,35.0
53.55,30.0
53.61,43.0
53.68,35.0
53.74,21.0
53.8,43.0
53.87,36.0
53.93,10.0
53.99,24.0
54.05,17.0
54.12,35.0
54.18,33.0
54.24,39.0
54.31,33.0
54.37,28.0
54.43,28.0
54.5,13.0
54.56,15.0
54.62,36.0
54.68,22.0
54.75,38.0
54.81,24.0
54.87,31.0
54.94,26.0
55.0,48.0
55.06,34.0
55.13,26.0
55.19,27.0
55.25,30.0
55.31,43.0
55.38,16.0
55.44,19.0
55.5,8.0
55.57,-3.0
55.63,5.0
55.69,10.0
55.76,16.0
55.82,10.0
55.88,2.0
55.94,9.0
56.01,17.0
56.07,8.0
56.13,-6.0
56.2,7.0
56.26,13.0
56.32,0.0
56.39,3.0
56.45,-4.0
56.51,7.0
56.57,4.0
56.64,-2.0
56.7,-10.0
56.76,-22.0
56.83,-12.0
56.89,-12.0
56.95,-23.0
57.02,-26.0
57.08,-39.0
57.14,-53.0
57.2,-39.0
57.27,-35.0
57.33,-27.0
57.39,-44.0
57.46,-33.0
57.52,-33.0
57.58,-3.0
57.65,-14.0
57.71,-46.0
57.77,-32.0
57.83,-39.0
57.9,-50.0
57.96,-37.0
58.02,-34.0
58.09,-40.0
58.15,-40.0
58.21,-43.0
58.28,-21.0
58.34,-45.0
58.4,-53.0
58.46,-29.0
58.53,-29.0
58.59,-4.0
58.65,-9.0
58.72,-3.0
58.78,-21.0
58.84,-10.0
58.91,1.0
58.97,-20.0
59.03,-17.0
59.09,-41.0
59.16,-31.0
59.22,-24.0
59.28,-40.0
59.35,-42.0
59.41,-36.0
59.47,-31.0
59.54,-6.0
59.6,-16.0
59.66,-21.0
59.72,-35.0
59.79,-18.0
59.85,-4.0
59.91,5.0
59.98,-6.0
60.04,-35.0
60.1,-24.0
60.17,-17.0
60.23,-13.0
60.29,-24.0
60.35,-14.0
60.42,-30.0
60.48,-7.0
60.54,-6.0
60.61,-26.0
60.67,-22.0
60.73,-33.0
60.8,-36.0
60.86,-35.0
60.92,-36.0
60.98,-48.0
61.05,-36.0
61.11,-31.0
61.17,-31.0
61.24,-18.0
61.3,-34.0
61.36,-44.0
61.43,-36.0
61.49,-56.0
61.55,-58.0
61.61,-55.0
61.68,-65.0
61.74,-71.0
61.8,-77.0
61.87,-69.0
61.93,-71.0
61.99,-69.0
62.06,-62.0
62.12,-57.0
62.18,-79.0
62.24,-83.0
62.31,-85.0
62.37,-90.0
62.43,-96.0
62.5,-105.0
62.56,-77.0
62.62,-70.0
62.69,-61.0
62.75,-87.0
62.81,-78.0
62.87,-100.0
62.94,-94.0
63.0,-82.0
63.06,-79.0
63.13,-52.0
63.19,-59.0
63.25,-78.0
63.32,-93.0
63.38,-79.0
63.44,-87.0
63.5,-73.0
63.57,-83.0
63.63,-80.0
63.69,-83.0
63.76,-102.0
63.82,-100.0
63.88,-99.0
63.95,-78.0
64.01,-81.0
64.07,-97.0
64.13,-101.0
64.2,-97.0
64.26,-103.0
64.32,-110.0
64.39,-109.0
64.45,-118.0
64.51,-110.0
64.58,-121.0
64.64,-118.0
64.7,-103.0
64.76,-130.0
64.83,-142.0
64.89,-136.0
64.95,-137.0
65.02,-123.0
65.08,-125.0
65.14,-136.0
65.21,-127.0
65.27,-162.0
65.33,-147.0
65.39,-150.0
65.46,-133.0
65.52,-143.0
65.58,-168.0
65.65,-161.0
65.71,-176.0
65.77,-155.0
65.84,-157.0
65.9,-151.0
65.96,-159.0
66.02,-150.0
66.09,-150.0
66.15,-156.0
66.21,-147.0
66.28,-166.0
66.34,-160.0
66.4,-165.0
66.47,-159.0
66.53,-156.0
66.59,-160.0
66.65,-130.0
66.72,-142.0
66.78,-112.0
66.84,-108.0
66.91,-119.0
66.97,-137.0
67.03,-136.0
67.1,-143.0
67.16,-130.0
67.22,-136.0
67.28,-158.0
67.35,-150.0
67.41,-141.0
67.47,-136.0
67.54,-145.0
67.6,-146.0
67.66,-139.0
67.73,-141.0
67.79,-104.0
67.85,-110.0
67.91,-114.0
67.98,-134.0
68.04,-119.0
68.1,-125.0
68.17,-126.0
68.23,-126.0
68.29,-125.0
68.36,-131.0
68.42,-128.0
68.48,-117.0
68.54,-101.0
68.61,-97.0
68.67,-94.0
68.73,-90.0
68.8,-102.0
68.86,-99.0
68.92,-85.0
68.99,-76.0
69.05,-77.0
69.11,-82.0
69.17,-81.0
69.24,-49.0
69.3,-72.0
69.36,-55.0
69.43,-43.0
69.49,-44.0
69.55,-41.0
69.62,-24.0
69.68,-17.0
69.74,-24.0
69.8,1.0
69.87,11.0
69.93,-4.0
69.99,-2.0
70.06,1.0
70.12,-3.0
70.18,-10.0
70.25,-8.0
70.31,-4.0
70.37,-3.0
70.43,-5.0
70.5,-28.0
70.56,-14.0
70.62,-1.0
70.69,-24.0
70.75,1.0
70.81,3.0
70.88,11.0
70.94,6.0
71.0,1.0
71.06,-2.0
71.13,-7.0
71.19,-4.0
71.25,7.0
71.32,17.0
71.38,14.0
71.44,4.0
71.51,-3.0
71.57,-8.0
71.63,-7.0
71.69,-13.0
71.76,-5.0
71.82,-12.0
71.88,-21.0
71.95,-9.0
72.01,-16.0
72.07,-8.0
72.14,8.0
72.2,3.0
72.26,-19.0
72.32,10.0
72.39,23.0
72.45,-8.0
72.51,-3.0
72.58,-5.0
72.64,-11.0
72.7,-27.0
72.77,-14.0
72.83,-11.0
72.89,-6.0
72.95,-9.0
73.02,-37.0
73.08,-25.0
73.14,-15.0
73.21,-38.0
73.27,-25.0
73.33,-19.0
73.4,-38.0
73.46,-37.0
73.52,-30.0
73.58,-17.0
73.65,-8.0
73.71,-11.0
73.77,-21.0
73.84,-13.0
73.9,-7.0
73.96,-2.0
74.03,-5.0
74.09,-9.0
74.15,-3.0
74.21,-10.0
74.28,-10.0
74.34,-6.0
74.4,6.0
74.47,2.0
74.53,4.0
74.59,7.0
74.66,13.0
74.72,15.0
74.78,13.0
74.84,14.0
74.91,21.0
74.97,14.0
75.03,-3.0
75.1,6.0
75.16,0.0
75.22,11.0
75.29,17.0
75.35,31.0
75.41,31.0
75.47,21.0
75.54,32.0
75.6,46.0
75.66,39.0
75.73,42.0
75.79,29.0
75.85,44.0
75.92,49.0
75.98,28.0
76.04,43.0
76.1,49.0
76.17,37.0
76.23,53.0
76.29,59.0
76.36,29.0
76.42,35.0
76.48,64.0
76.55,57.0
76.61,59.0
76.67,68.0
76.73,67.0
76.8,76.0
76.86,86.0
76.92,72.0
76.99,82.0
77.05,93.0
77.11,84.0
77.18,87.0
77.24,93.0
77.3,96.0
77.36,85.0
77.43,99.0
77.49,119.0
77.55,107.0
77.62,114.0
77.68,121.0
77.74,129.0
77.81,99.0
77.87,108.0
77.93,109.0
77.99,94.0
78.06,106.0
78.12,106.0
78.18,108.0
78.25,105.0
78.31,94.0
78.37,86.0
78.44,104.0
78.5,113.0
78.56,115.0
78.62,128.0
78.69,121.0
78.75,125.0
78.81,104.0
78.88,124.0
78.94,115.0
79.0,127.0
79.07,126.0
79.13,116.0
79.19,109.0
79.25,112.0
79.32,123.0
79.38,119.0
79.44,119.0
79.51,101.0
79.57,102.0
79.63,107.0
79.7,108.0
79.76,104.0
79.82,108.0
79.88,100.0
79.95,91.0
80.01,79.0
80.07,66.0
80.14,49.0
80.2,50.0
80.26,24.0
80.33,41.0
80.39,53.0
80.45,61.0
80.51,57.0
80.58,53.0
80.64,47.0
80.7,21.0
80.77,20.0
80.83,26.0
80.89,50.0
80.96,26.0
81.02,20.0
81.08,40.0
81.14,27.0
81.21,32.0
81.27,44.0
81.33,38.0
81.4,34.0
81.46,2.0
81.52,7.0
81.59,-3.0
81.65,-8.0
81.71,-21.0
81.77,-14.0
81.84,-20.0
81.9,-44.0
81.96,-50.0
82.03,-53.0
82.09,-53.0
82.15,-45.0
82.22,-25.0
82.28,-35.0
82.34,-43.0
82.4,-50.0
82.47,-49.0
82.53,-68.0
82.59,-68.0
82.66,-55.0
82.72,-64.0
82.78,-64.0
82.85,-58.0
82.91,-71.0
82.97,-62.0
83.03,-72.0
83.1,-96.0
83.16,-83.0
83.22,-78.0
83.29,-77.0
83.35,-70.0
83.41,-69.0
83.48,-63.0
83.54,-77.0
83.6,-61.0
83.66,-54.0
83.73,-61.0
83.79,-59.0
83.85,-58.0
83.92,-57.0
83.98,-42.0
84.04,-64.0
84.11,-58.0
84.17,-64.0
84.23,-41.0
84.29,-46.0
84.36,-41.0
84.42,-23.0
84.48,-20.0
84.55,-19.0
84.61,-27.0
84.67,-48.0
84.74,-51.0
84.8,-41.0
84.86,-27.0
84.92,-30.0
84.99,-8.0
85.05,-25.0
85.11,-19.0
85.18,-44.0
85.24,-36.0
85.3,-19.0
85.37,-37.0
85.43,-15.0
85.49,-2.0
85.55,-25.0
85.62,-15.0
85.68,-27.0
85.74,-12.0
85.81,-4.0
85.87,-1.0
85.93,2.0
86.0,9.0
86.06,12.0
86.12,3.0
86.18,-6.0
86.25,18.0
86.31,10.0
86.37,0.0
86.44,35.0
86.5,40.0
86.56,23.0
86.63,26.0
86.69,18.0
86.75,29.0
86.81,14.0
86.88,1.0
86.94,-13.0
87.0,-4.0
87.07,-15.0
87.13,-10.0
87.19,23.0
87.26,18.0
87.32,21.0
87.38,35.0
87.44,47.0
87.51,31.0
87.57,18.0
87.63,20.0
87.7,39.0
87.76,20.0
87.82,-6.0
87.89,-2.0
87.95,3.0
88.01,-5.0
88.07,1.0
88.14,-16.0
88.2,-18.0
88.26,7.0
88.33,-4.0
88.39,2.0
88.45,12.0
88.52,7.0
88.58,12.0
88.64,14.0
88.7,-2.0
88.77,17.0
88.83,6.0
88.89,-25.0
88.96,-10.0
89.02,-12.0
89.08,-12.0
89.15,-9.0
89.21,-7.0
89.27,-5.0
89.33,-24.0
89.4,-40.0
89.46,-20.0
89.52,-21.0
89.59,-7.0
89.65,-4.0
89.71,-7.0
89.78,-7.0
89.84,-3.0
89.9,-9.0
89.96,-9.0
90.03,-2.0
90.09,-15.0
90.15,-11.0
90.22,-19.0
90.28,-15.0
90.34,-5.0
90.41,-19.0
90.47,-16.0
90.53,-15.0
90.59,-17.0
90.66,-17.0
90.72,-10.0
90.78,-12.0
90.85,-4.0
90.91,3.0
90.97,-27.0
91.04,-32.0
91.1,-20.0
91.16,-20.0
91.22,-32.0
91.29,-9.0
91.35,1.0
91.41,-12.0
91.48,5.0
91.54,1.0
91.6,11.0
91.67,-1.0
91.73,2.0
91.79,0.0
91.85,-10.0
91.92,-9.0
91.98,-9.0
92.04,2.0
92.11,-1.0
92.17,-9.0
92.23,14.0
92.3,23.0
92.36,15.0
92.42,24.0
92.48,22.0
92.55,16.0
92.61,10.0
92.67,21.0
92.74,24.0
92.8,24.0
92.86,20.0
92.93,33.0
92.99,34.0
93.05,6.0
93.11,44.0
93.18,28.0
93.24,35.0
93.3,37.0
93.37,41.0
93.43,32.0
93.49,28.0
93.56,39.0
93.62,38.0
93.68,31.0
93.74,33.0
93.81,29.0
93.87,52.0
93.93,50.0
94.0,54.0
94.06,56.0
94.12,59.0
94.19,64.0
94.25,60.0
94.31,49.0
94.37,64.0
94.44,72.0
94.5,58.0
94.56,60.0
94.63,44.0
94.69,48.0
94.75,65.0
94.82,65.0
94.88,68.0
94.94,53.0
95.0,56.0
95.07,68.0
95.13,71.0
95.19,84.0
95.26,89.0
95.32,95.0
95.38,98.0
95.45,94.0
95.51,93.0
95.57,79.0
95.63,77.0
95.7,72.0
95.76,79.0
95.82,81.0
95.89,70.0
95.95,68.0
96.01,72.0
96.08,67.0
96.14,84.0
96.2,95.0
96.26,85.0
96.33,93.0
96.39,86.0
96.45,81.0
96.52,85.0
96.58,76.0
96.64,89.0
96.71,94.0
96.77,103.0
96.83,100.0
96.89,85.0
96.96,82.0
97.02,111.0
97.08,101.0
97.15,105.0
97.21,99.0
97.27,87.0
97.34,69.0
97.4,51.0
97.46,69.0
97.52,69.0
97.59,74.0
97.65,80.0
97.71,57.0
97.78,70.0
97.84,49.0
97.9,31.0
97.97,35.0
98.03,21.0
98.09,17.0
98.15,20.0
98.22,26.0
98.28,16.0
98.34,2.0
98.41,-22.0
98.47,-10.0
98.53,-19.0
98.6,-29.0
98.66,-31.0
98.72,-29.0
98.78,-31.0
98.85,-30.0
98.91,-45.0
98.97,-35.0
99.04,-27.0
99.1,-31.0
99.16,-49.0
99.23,-34.0
99.29,-28.0
99.35,-37.0
99.41,-45.0
99.48,-50.0
99.54,-50.0
99.6,-43.0
99.67,-29.0
99.73,-29.0
99.79,-45.0
99.86,-19.0
99.92,-23.0
99.98,-21.0
100.04,-41.0
100.11,-51.0
100.17,-54.0
100.23,-56.0
100.3,-44.0
100.36,-56.0
100.42,-32.0
100.49,-25.0
100.55,-37.0
100.61,-33.0
100.67,-23.0
100.74,-15.0
100.8,-28.0
100.86,-14.0
100.93,-14.0
100.99,-22.0
101.05,-22.0
101.12,-5.0
101.18,-20.0
101.24,-25.0
101.3,-9.0
101.37,16.0
101.43,11.0
101.49,18.0
101.56,17.0
101.62,18.0
101.68,10.0
101.75,10.0
101.81,-2.0
101.87,24.0
101.93,20.0
102.0,1.0
102.06,4.0
102.12,11.0
102.19,6.0
102.25,8.0
102.31,10.0
102.38,0.0
102.44,-1.0
102.5,-5.0
102.56,21.0
102.63,1.0
102.69,13.0
102.75,26.0
102.82,8.0
102.88,13.0
102.94,24.0
103.01,39.0
103.07,51.0
103.13,53.0
103.19,22.0
103.26,41.0
103.32,31.0
103.38,42.0
103.45,53.0
103.51,75.0
103.57,89.0
103.64,50.0
103.7,52.0
103.76,94.0
103.82,90.0
103.89,85.0
103.95,67.0
104.01,86.0
104.08,91.0
104.14,78.0
104.2,80.0
104.27,81.0
104.33,75.0
104.39,65.0
104.45,71.0
104.52,64.0
104.58,53.0
104.64,33.0
104.71,60.0
104.77,36.0
104.83,67.0
104.9,64.0
104.96,69.0
105.02,78.0
105.08,77.0
105.15,81.0
105.21,71.0
105.27,82.0
105.34,75.0
105.4,73.0
105.46,81.0
105.53,85.0
105.59,70.0
105.65,94.0
105.71,94.0
105.78,99.0
105.84,96.0
105.9,83.0
105.97,80.0
106.03,89.0
106.09,85.0
106.16,97.0
106.22,86.0
106.28,81.0
106.34,86.0
106.41,75.0
106.47,77.0
106.53,55.0
106.6,73.0
106.66,65.0
106.72,56.0
106.79,42.0
106.85,51.0
106.91,41.0
106.97,40.0
107.04,43.0
107.1,47.0
107.16,49.0
107.23,51.0
107.29,60.0
107.35,47.0
107.42,57.0
107.48,38.0
107.54,42.0
107.6,53.0
107.67,41.0
107.73,57.0
107.79,74.0
107.86,75.0
107.92,53.0
107.98,63.0
108.05,58.0
108.11,71.0
108.17,67.0
108.23,62.0
108.3,52.0
108.36,47.0
108.42,55.0
108.49,49.0
108.55,71.0
108.61,70.0
108.68,69.0
108.74,64.0
108.8,101.0
108.86,91.0
108.93,85.0
108.99,93.0
109.05,82.0
109.12,89.0
109.18,88.0
109.24,89.0
109.31,85.0
109.37,87.0
109.43,98.0
109.49,90.0
109.56,88.0
109.62,85.0
109.68,88.0
109.75,90.0
109.81,72.0
109.87,84.0
109.94,98.0
110.0,93.0
110.06,82.0
110.12,79.0
110.19,82.0
110.25,78.0
110.31,73.0
110.38,75.0
110.44,85.0
110.5,79.0
110.57,79.0
110.63,63.0
110.69,82.0
110.75,101.0
110.82,98.0
110.88,96.0
110.94,79.0
111.01,100.0
111.07,97.0
111.13,77.0
111.2,94.0
111.26,72.0
111.32,77.0
111.38,74.0
111.45,88.0
111.51,102.0
111.57,71.0
111.64,93.0
111.7,85.0
111.76,101.0
111.83,103.0
111.89,110.0
111.95,117.0
112.01,102.0
112.08,111.0
112.14,104.0
112.2,108.0
112.27,113.0
112.33,122.0
112.39,116.0
112.46,116.0
112.52,119.0
112.58,134.0
112.64,115.0
112.71,101.0
112.77,108.0
112.83,119.0
112.9,124.0
112.96,123.0
113.02,115.0
113.09,111.0
113.15,94.0
113.21,86.0
113.27,86.0
113.34,73.0
113.4,76.0
113.46,74.0
113.53,56.0
113.59,66.0
113.65,50.0
113.72,53.0
113.78,51.0
113.84,62.0
113.9,41.0
113.97,41.0
114.03,39.0
114.09,42.0
114.16,39.0
114.22,19.0
114.28,16.0
114.35,19.0
114.41,13.0
114.47,30.0
114.53,20.0
114.6,25.0
114.66,32.0
114.72,37.0
114.79,24.0
114.85,34.0
114.91,45.0
114.98,21.0
115.04,15.0
115.1,12.0
115.16,10.0
115.23,3.0
115.29,20.0
115.35,25.0
115.42,-5.0
115.48,8.0
115.54,24.0
115.61,25.0
115.67,8.0
115.73,-5.0
115.79,9.0
115.86,11.0
115.92,27.0
115.98,-6.0
116.05,-14.0
116.11,-13.0
116.17,-24.0
116.24,-24.0
116.3,-43.0
116.36,-33.0
116.42,-17.0
116.49,-27.0
116.55,-10.0
116.61,-8.0
116.68,-19.0
116.74,-7.0
116.8,-9.0
116.87,-21.0
116.93,-17.0
116.99,-15.0
117.05,-18.0
117.12,-10.0
117.18,-38.0
117.24,-45.0
117.31,-37.0
117.37,-37.0
117.43,-41.0
117.5,-34.0
117.56,-39.0
117.62,-46.0
117.68,-45.0
117.75,-52.0
117.81,-44.0
117.87,-31.0
117.94,-33.0
118.0,-47.0
118.06,-37.0
118.13,-30.0
118.19,-16.0
118.25,-23.0
118.31,3.0
118.38,-1.0
118.44,7.0
118.5,-11.0
118.57,-4.0
118.63,-9.0
118.69,-16.0
118.76,-25.0
118.82,-24.0
118.88,-29.0
118.94,-30.0
119.01,-31.0
119.07,-26.0
119.13,-6.0
119.2,-12.0
119.26,8.0
119.32,-6.0
119.39,-27.0
119.45,-25.0
119.51,-10.0
119.57,0.0
119.64,-21.0
119.7,-15.0
119.76,-19.0
119.83,-23.0
119.89,-25.0
119.95,-28.0
120.02,-42.0
120.08,-25.0
120.14,-34.0
120.2,-60.0
120.27,-51.0
120.33,-40.0
120.39,-39.0
120.46,-35.0
120.52,-37.0
120.58,-21.0
120.65,-20.0
120.71,-23.0
120.77,-26.0
120.83,-17.0
120.9,-23.0
120.96,-13.0
121.02,-5.0
121.09,-5.0
121.15,6.0
121.21,8.0
121.28,21.0
121.34,-5.0
121.4,-4.0
121.46,-12.0
121.53,-5.0
121.59,15.0
121.65,13.0
121.72,15.0
121.78,-15.0
121.84,-6.0
121.91,-9.0
121.97,-2.0
122.03,8.0
122.09,5.0
122.16,8.0
122.22,-14.0
122.28,-6.0
122.35,-15.0
122.41,-9.0
122.47,14.0
122.54,3.0
122.6,-11.0
122.66,15.0
122.72,7.0
122.79,13.0
122.85,18.0
122.91,8.0
122.98,-1.0
123.04,-36.0
123.1,-15.0
123.17,-20.0
123.23,-8.0
123.29,-5.0
123.35,-16.0
123.42,3.0
123.48,-10.0
123.54,-12.0
123.61,-8.0
123.67,-23.0
123.73,-2.0
123.8,-2.0
123.86,-9.0
123.92,0.0
123.98,11.0
124.05,-1.0
124.11,6.0
124.17,-3.0
124.24,11.0
124.3,-9.0
124.36,-3.0
124.43,4.0
124.49,1.0
124.55,-11.0
124.61,-11.0
124.68,-5.0
124.74,-11.0
124.8,-2.0
124.87,5.0
124.93,11.0
124.99,-1.0
125.06,-5.0
125.12,-12.0
125.18,2.0
125.24,-1.0
125.31,8.0
125.37,14.0
125.43,-1.0
125.5,30.0
125.56,31.0
125.62,37.0
125.69,44.0
125.75,32.0
125.81,55.0
125.87,53.0
125.94,35.0
126.0,56.0
126.06,44.0
126.13,82.0
126.19,53.0
126.25,48.0
126.32,75.0
126.38,75.0
126.44,79.0
126.5,82.0
126.57,64.0
126.63,69.0
126.69,84.0
126.76,71.0
126.82,81.0
126.88,88.0
126.95,80.0
127.01,95.0
127.07,75.0
127.13,68.0
127.2,83.0
127.26,82.0
127.32,93.0
127.39,75.0
127.45,63.0
127.51,99.0
127.58,105.0
127.64,114.0
127.7,121.0
127.76,117.0
127.83,115.0
127.89,103.0
127.95,91.0
128.02,130.0
128.08,146.0
128.14,119.0
128.21,123.0
128.27,116.0
128.33,110.0
128.39,107.0
128.46,125.0
128.52,122.0
128.58,126.0
128.65,133.0
128.71,141.0
128.77,126.0
128.84,132.0
128.9,130.0
128.96,131.0
129.02,116.0
129.09,122.0
129.15,130.0
129.21,144.0
129.28,142.0
129.34,122.0
129.4,132.0
129.47,146.0
129.53,145.0
129.59,150.0
129.65,154.0
129.72,162.0
129.78,114.0
129.84,121.0
129.91,161.0
129.97,151.0
130.03,179.0
130.1,163.0
130.16,174.0
130.22,186.0
130.28,183.0
130.35,203.0
130.41,187.0
130.47,177.0
130.54,193.0
130.6,202.0
130.66,222.0
130.73,225.0
130.79,224.0
130.85,220.0
130.91,193.0
130.98,211.0
131.04,190.0
131.1,196.0
131.17,185.0
131.23,179.0
131.29,188.0
131.36,189.0
131.42,166.0
131.48,174.0
131.54,164.0
131.61,180.0
131.67,170.0
131.73,177.0
131.8,195.0
131.86,183.0
131.92,184.0
131.99,167.0
132.05,158.0
132.11,137.0
132.17,128.0
132.24,148.0
132.3,156.0
132.36,151.0
132.43,134.0
132.49,148.0
132.55,152.0
132.62,128.0
132.68,136.0
132.74,151.0
132.8,112.0
132.87,103.0
132.93,113.0
132.99,124.0
133.06,119.0
133.12,121.0
133.18,113.0
133.25,130.0
133.31,119.0
133.37,125.0
133.43,97.0
133.5,93.0
133.56,85.0
133.62,95.0
133.69,93.0
133.75,94.0
133.81,90.0
133.88,113.0
133.94,110.0
134.0,109.0
134.06,118.0
134.13,120.0
134.19,132.0
134.25,121.0
134.32,121.0
134.38,96.0
134.44,104.0
134.51,114.0
134.57,89.0
134.63,86.0
134.69,86.0
134.76,86.0
134.82,85.0
134.88,72.0
134.95,77.0
135.01,64.0
135.07,53.0
135.14,71.0
135.2,68.0
135.26,77.0
135.32,65.0
135.39,76.0
135.45,75.0
135.51,77.0
135.58,74.0
135.64,87.0
135.7,85.0
135.77,81.0
135.83,78.0
135.89,72.0
135.95,80.0
136.02,83.0
136.08,91.0
136.14,77.0
136.21,89.0
136.27,72.0
136.33,88.0
136.4,69.0
136.46,78.0
136.52,74.0
136.58,74.0
136.65,82.0
136.71,80.0
136.77,87.0
136.84,80.0
136.9,78.0
136.96,70.0
137.03,73.0
137.09,94.0
137.15,102.0
137.21,91.0
137.28,105.0
137.34,80.0
137.4,91.0
137.47,102.0
137.53,86.0
137.59,106.0
137.66,81.0
137.72,80.0
137.78,90.0
137.84,102.0
137.91,90.0
137.97,111.0
138.03,84.0
138.1,64.0
138.16,100.0
138.22,71.0
138.29,74.0
138.35,77.0
138.41,95.0
138.47,75.0
138.54,74.0
138.6,49.0
138.66,59.0
138.73,52.0
138.79,52.0
138.85,69.0
138.92,45.0
138.98,53.0
139.04,68.0
139.1,86.0
139.17,84.0
139.23,78.0
139.29,60.0
139.36,59.0
139.42,67.0
139.48,52.0
139.55,55.0
139.61,28.0
139.67,34.0
139.73,39.0
139.8,38.0
139.86,46.0
139.92,34.0
139.99,20.0
140.05,32.0
140.11,46.0
140.18,45.0
140.24,21.0
140.3,24.0
140.36,34.0
140.43,32.0
140.49,36.0
140.55,17.0
140.62,3.0
140.68,9.0
140.74,11.0
140.81,15.0
140.87,-8.0
140.93,10.0
140.99,8.0
141.06,-16.0
141.12,-24.0
141.18,-6.0
141.25,5.0
141.31,-9.0
141.37,21.0
141.44,-9.0
141.5,-12.0
141.56,-17.0
141.62,-9.0
141.69,8.0
141.75,12.0
141.81,-8.0
141.88,5.0
141.94,-9.0
142.0,16.0
142.07,17.0
142.13,17.0
142.19,30.0
142.25,28.0
142.32,27.0
142.38,20.0
142.44,38.0
142.51,41.0
142.57,47.0
142.63,40.0
142.7,35.0
142.76,41.0
142.82,53.0
142.88,39.0
142.95,60.0
143.01,65.0
143.07,58.0
143.14,69.0
143.2,53.0
143.26,64.0
143.33,73.0
143.39,52.0
143.45,53.0
143.51,72.0
143.58,53.0
143.64,66.0
143.7,80.0
143.77,81.0
143.83,74.0
143.89,71.0
143.96,70.0
144.02,70.0
144.08,73.0
144.14,72.0
144.21,74.0
144.27,81.0
144.33,69.0
144.4,77.0
144.46,69.0
144.52,76.0
144.59,69.0
144.65,74.0
144.71,66.0
144.77,76.0
144.84,95.0
144.9,96.0
144.96,85.0
145.03,71.0
145.09,72.0
145.15,63.0
145.22,61.0
145.28,78.0
145.34,99.0
145.4,84.0
145.47,86.0
145.53,78.0
145.59,83.0
145.66,82.0
145.72,89.0
145.78,103.0
145.85,95.0
145.91,88.0
145.97,78.0
146.03,99.0
146.1,83.0
146.16,79.0
146.22,76.0
146.29,71.0
146.35,75.0
146.41,108.0
146.47,99.0
146.54,101.0
146.6,117.0
146.66,129.0
146.73,110.0
146.79,130.0
146.85,130.0
146.92,125.0
146.98,130.0
147.04,137.0
147.1,130.0
147.17,129.0
147.23,99.0
147.29,111.0
147.36,118.0
147.42,107.0
147.48,110.0
147.55,91.0
147.61,124.0
147.67,123.0
147.73,126.0
147.8,142.0
147.86,148.0
147.92,129.0
147.99,126.0
148.05,141.0
148.11,122.0
148.18,122.0
148.24,123.0
148.3,129.0
148.36,140.0
148.43,130.0
148.49,115.0
148.55,130.0
148.62,125.0
148.68,130.0
148.74,110.0
148.81,104.0
148.87,82.0
148.93,105.0
148.99,124.0
149.06,133.0
149.12,121.0
149.18,95.0
149.25,106.0
149.31,96.0
149.37,97.0
149.44,107.0
149.5,86.0
149.56,90.0
149.62,104.0
149.69,105.0
149.75,90.0
149.81,83.0
149.88,71.0
149.94,74.0
150.0,71.0
150.07,80.0
150.13,75.0
150.19,62.0
150.25,69.0
150.32,63.0
150.38,74.0
150.44,78.0
150.51,82.0
150.57,95.0
150.63,90.0
150.7,90.0
150.76,86.0
150.82,79.0
150.88,83.0
150.95,80.0
151.01,84.0
151.07,69.0
151.14,70.0
151.2,71.0
151.26,91.0
151.33,72.0
151.39,73.0
151.45,88.0
151.51,91.0
151.58,97.0
151.64,74.0
151.7,85.0
151.77,85.0
151.83,98.0
151.89,91.0
151.96,91.0
152.02,105.0
152.08,109.0
152.14,108.0
152.21,130.0
152.27,110.0
152.33,100.0
152.4,97.0
152.46,108.0
152.52,108.0
152.59,102.0
152.65,110.0
152.71,107.0
152.77,126.0
152.84,118.0
152.9,116.0
152.96,128.0
153.03,141.0
153.09,144.0
153.15,153.0
153.22,150.0
153.28,128.0
153.34,144.0
153.4,131.0
153.47,139.0
153.53,148.0
153.59,135.0
153.66,149.0
153.72,130.0
153.78,142.0
153.85,160.0
153.91,137.0
153.97,147.0
154.03,155.0
154.1,163.0
154.16,148.0
154.22,143.0
154.29,158.0
154.35,143.0
154.41,145.0
154.48,133.0
154.54,153.0
154.6,148.0
154.66,157.0
154.73,148.0
154.79,144.0
154.85,170.0
154.92,151.0
154.98,153.0
155.04,159.0
155.11,164.0
155.17,145.0
155.23,148.0
155.29,131.0
155.36,143.0
155.42,137.0
155.48,132.0
155.55,125.0
155.61,110.0
155.67,130.0
155.74,114.0
155.8,127.0
155.86,129.0
155.92,126.0
155.99,132.0
156.05,129.0
156.11,119.0
156.18,100.0
156.24,108.0
156.3,107.0
156.37,89.0
156.43,93.0
156.49,87.0
156.55,94.0
156.62,89.0
156.68,90.0
156.74,104.0
156.81,97.0
156.87,94.0
156.93,78.0
157.0,68.0
157.06,72.0
157.12,66.0
157.18,75.0
157.25,86.0
157.31,99.0
157.37,71.0
157.44,64.0
157.5,64.0
157.56,57.0
157.63,45.0
157.69,48.0
157.75,51.0
157.81,56.0
157.88,54.0
157.94,45.0
158.0,56.0
158.07,72.0
158.13,66.0
158.19,75.0
158.26,69.0
158.32,64.0
158.38,89.0
158.44,75.0
158.51,78.0
158.57,70.0
158.63,108.0
158.7,95.0
158.76,77.0
158.82,87.0
158.89,99.0
158.95,105.0
159.01,78.0
159.07,97.0
159.14,83.0
159.2,85.0
159.26,93.0
159.33,81.0
159.39,97.0
159.45,112.0
159.52,101.0
159.58,93.0
159.64,97.0
159.7,110.0
159.77,110.0
159.83,79.0
159.89,77.0
159.96,75.0
160.02,99.0
160.08,77.0
160.15,100.0
160.21,103.0
160.27,99.0
160.33,98.0
160.4,89.0
160.46,72.0
160.52,70.0
160.59,82.0
160.65,60.0
160.71,59.0
160.78,85.0
160.84,75.0
160.9,72.0
160.96,85.0
161.03,68.0
161.09,83.0
161.15,94.0
161.22,75.0
161.28,85.0
161.34,79.0
161.41,104.0
161.47,90.0
161.53,101.0
161.59,97.0
161.66,81.0
161.72,88.0
161.78,99.0
161.85,102.0
161.91,130.0
161.97,122.0
162.04,123.0
162.1,124.0
162.16,106.0
162.22,111.0
162.29,114.0
162.35,112.0
162.41,114.0
162.48,114.0
162.54,127.0
162.6,135.0
162.67,136.0
162.73,115.0
162.79,126.0
162.85,139.0
162.92,124.0
162.98,118.0
163.04,128.0
163.11,126.0
163.17,120.0
163.23,115.0
163.3,107.0
163.36,116.0
163.42,112.0
163.48,109.0
163.55,101.0
163.61,98.0
163.67,78.0
163.74,77.0
163.8,77.0
163.86,94.0
163.93,96.0
163.99,91.0
164.05,98.0
164.11,82.0
164.18,93.0
164.24,79.0
164.3,77.0
164.37,68.0
164.43,45.0
164.49,49.0
164.56,57.0
164.62,58.0
164.68,42.0
164.74,36.0
164.81,38.0
164.87,53.0
164.93,27.0
165.0,17.0
165.06,-9.0
165.12,-7.0
165.19,-9.0
165.25,1.0
165.31,-31.0
165.37,-19.0
165.44,6.0
165.5,-27.0
165.56,-17.0
165.63,-6.0
165.69,-26.0
165.75,-16.0
165.82,-9.0
165.88,-18.0
165.94,-10.0
166.0,-40.0
166.07,-35.0
166.13,-40.0
166.19,-19.0
166.26,-32.0
166.32,-44.0
166.38,-55.0
166.45,-58.0
166.51,-61.0
166.57,-57.0
166.63,-54.0
166.7,-40.0
166.76,-47.0
166.82,-59.0
166.89,-60.0
166.95,-58.0
167.01,-51.0
167.08,-59.0
167.14,-68.0
167.2,-75.0
167.26,-68.0
167.33,-89.0
167.39,-79.0
167.45,-40.0
167.52,-38.0
167.58,-57.0
167.64,-39.0
167.71,-61.0
167.77,-62.0
167.83,-57.0
167.89,-75.0
167.96,-67.0
168.02,-76.0
168.08,-77.0
168.15,-66.0
168.21,-34.0
168.27,-46.0
168.34,-40.0
168.4,-39.0
168.46,-37.0
168.52,-26.0
168.59,-39.0
168.65,-32.0
168.71,-27.0
168.78,-35.0
168.84,-21.0
168.9,-34.0
168.97,-49.0
169.03,-63.0
169.09,-58.0
169.15,-48.0
169.22,-42.0
169.28,-47.0
169.34,-29.0
169.41,-33.0
169.47,-43.0
169.53,-43.0
169.6,-19.0
169.66,6.0
169.72,-2.0
169.78,-8.0
169.85,14.0
169.91,-4.0
169.97,11.0
170.04,14.0
170.1,-3.0
170.16,1.0
170.23,-8.0
170.29,-11.0
170.35,10.0
170.41,27.0
170.48,39.0
170.54,51.0
170.6,38.0
170.67,46.0
170.73,44.0
170.79,44.0
170.86,38.0
170.92,28.0
170.98,43.0
171.04,45.0
171.11,53.0
171.17,54.0
171.23,41.0
171.3,53.0
171.36,43.0
171.42,47.0
171.49,47.0
171.55,53.0
171.61,47.0
171.67,63.0
171.74,62.0
171.8,55.0
171.86,44.0
171.93,49.0
171.99,59.0
172.05,60.0
172.12,46.0
172.18,39.0
172.24,32.0
172.3,29.0
172.37,31.0
172.43,13.0
172.49,20.0
172.56,8.0
172.62,14.0
172.68,22.0
172.75,26.0
172.81,15.0
172.87,19.0
172.93,11.0
173.0,16.0
173.06,42.0
173.12,36.0
173.19,24.0
173.25,36.0
173.31,22.0
173.38,11.0
173.44,27.0
173.5,29.0
173.56,46.0
173.63,49.0
173.69,56.0
173.75,74.0
173.82,71.0
173.88,73.0
173.94,77.0
174.01,65.0
174.07,64.0
174.13,53.0
174.19,73.0
174.26,77.0
174.32,66.0
174.38,63.0
174.45,60.0
174.51,88.0
174.57,86.0
174.64,80.0
174.7,78.0
174.76,79.0
174.82,56.0
174.89,50.0
174.95,68.0
175.01,82.0
175.08,60.0
175.14,75.0
175.2,86.0
175.27,79.0
175.33,82.0
175.39,98.0
175.45,107.0
175.52,93.0
175.58,80.0
175.64,74.0
175.71,84.0
175.77,94.0
175.83,82.0
175.9,86.0
175.96,100.0
176.02,104.0
176.08,96.0
176.15,111.0
176.21,111.0
176.27,114.0
176.34,104.0
176.4,108.0
176.46,132.0
176.53,125.0
176.59,127.0
176.65,137.0
176.71,138.0
176.78,141.0
176.84,118.0
176.9,122.0
176.97,137.0
177.03,123.0
177.09,126.0
177.16,126.0
177.22,135.0
177.28,137.0
177.34,117.0
177.41,147.0
177.47,136.0
177.53,138.0
177.6,136.0
177.66,146.0
177.72,162.0
177.79,159.0
177.85,155.0
177.91,162.0
177.97,180.0
178.04,196.0
178.1,192.0
178.16,194.0
178.23,198.0
178.29,186.0
178.35,209.0
178.42,222.0
178.48,233.0
178.54,232.0
178.6,225.0
178.67,214.0
178.73,222.0
178.79,201.0
178.86,188.0
178.92,190.0
178.98,200.0
179.05,188.0
179.11,199.0
179.17,179.0
179.23,174.0
179.3,189.0
179.36,172.0
179.42,187.0
179.49,173.0
179.55,178.0
179.61,188.0
179.68,172.0
179.74,157.0
179.8,158.0
179.86,183.0
179.93,173.0
179.99,168.0
180.05,181.0
180.12,178.0
180.18,181.0
180.24,170.0
180.31,181.0
180.37,179.0
180.43,194.0
180.49,195.0
180.56,170.0
180.62,156.0
180.68,167.0
180.75,156.0
180.81,145.0
180.87,133.0
180.94,135.0
181.0,149.0
181.06,171.0
181.12,158.0
181.19,162.0
181.25,160.0
181.31,126.0
181.38,131.0
181.44,146.0
181.5,147.0
181.57,144.0
181.63,142.0
181.69,143.0
181.75,154.0
181.82,129.0
181.88,153.0
181.94,153.0
182.01,143.0
182.07,153.0
182.13,146.0
182.2,139.0
182.26,135.0
182.32,121.0
182.38,107.0
182.45,115.0
182.51,97.0
182.57,93.0
182.64,119.0
182.7,120.0
182.76,102.0
182.83,86.0
182.89,91.0
182.95,79.0
183.01,78.0
183.08,63.0
183.14,78.0
183.2,75.0
183.27,60.0
183.33,56.0
183.39,77.0
183.46,72.0
183.52,75.0
183.58,85.0
183.64,65.0
183.71,75.0
183.77,84.0
183.83,77.0
183.9,86.0
183.96,76.0
184.02,99.0
184.09,94.0
184.15,83.0
184.21,79.0
184.27,72.0
184.34,82.0
184.4,76.0
184.46,84.0
184.53,87.0
184.59,72.0
184.65,75.0
184.72,96.0
184.78,93.0
184.84,79.0
184.9,85.0
184.97,101.0
185.03,100.0
185.09,97.0
185.16,96.0
185.22,82.0
185.28,76.0
185.35,87.0
185.41,81.0
185.47,75.0
185.53,75.0
185.6,96.0
185.66,104.0
185.72,99.0
185.79,91.0
185.85,101.0
185.91,101.0
185.98,99.0
186.04,97.0
186.1,94.0
186.16,102.0
186.23,101.0
186.29,96.0
186.35,93.0
186.42,83.0
186.48,70.0
186.54,58.0
186.61,66.0
186.67,68.0
186.73,82.0
186.79,72.0
186.86,65.0
186.92,60.0
186.98,58.0
187.05,84.0
187.11,85.0
187.17,80.0
187.24,83.0
187.3,83.0
187.36,94.0
187.42,85.0
187.49,101.0
187.55,99.0
187.61,79.0
187.68,82.0
187.74,83.0
187.8,78.0
187.87,73.0
187.93,62.0
187.99,86.0
188.05,99.0
188.12,83.0
188.18,89.0
188.24,97.0
188.31,71.0
188.37,83.0
188.43,83.0
188.5,89.0
188.56,114.0
188.62,118.0
188.68,114.0
188.75,113.0
188.81,90.0
188.87,98.0
188.94,106.0
189.0,115.0
189.06,85.0
189.13,92.0
189.19,84.0
189.25,88.0
189.31,89.0
189.38,72.0
189.44,80.0
189.5,88.0
189.57,75.0
189.63,82.0
189.69,65.0
189.76,75.0
189.82,66.0
189.88,28.0
189.94,49.0
190.01,69.0
190.07,74.0
190.13,71.0
190.2,67.0
190.26,65.0
190.32,49.0
190.39,55.0
190.45,56.0
190.51,69.0
190.57,44.0
190.64,43.0
190.7,58.0
190.76,55.0
190.83,41.0
190.89,36.0
190.95,42.0
191.02,34.0
191.08,27.0
191.14,16.0
191.2,20.0
191.27,4.0
191.33,15.0
191.39,27.0
191.46,18.0
191.52,40.0
191.58,41.0
191.65,28.0
191.71,38.0
191.77,24.0
191.83,25.0
191.9,22.0
191.96,21.0
192.02,29.0
192.09,25.0
192.15,23.0
192.21,39.0
192.28,27.0
192.34,32.0
192.4,50.0
192.46,52.0
192.53,46.0
192.59,51.0
192.65,48.0
192.72,53.0
192.78,66.0
192.84,87.0
192.91,83.0
192.97,75.0
193.03,94.0
193.09,94.0
193.16,86.0
193.22,112.0
193.28,100.0
193.35,75.0
193.41,106.0
193.47,119.0
193.54,101.0
193.6,89.0
193.66,85.0
193.72,82.0
193.79,83.0
193.85,93.0
193.91,106.0
193.98,101.0
194.04,113.0
194.1,100.0
194.17,97.0
194.23,102.0
194.29,118.0
194.35,104.0
194.42,115.0
194.48,107.0
194.54,104.0
194.61,113.0
194.67,104.0
194.73,94.0
194.8,73.0
194.86,97.0
194.92,101.0
194.98,91.0
195.05,109.0
195.11,111.0
195.17,84.0
195.24,91.0
195.3,104.0
195.36,96.0
195.43,90.0
195.49,112.0
195.55,110.0
195.61,134.0
195.68,142.0
195.74,129.0
195.8,131.0
195.87,140.0
195.93,141.0
195.99,141.0
196.06,141.0
196.12,154.0
196.18,144.0
196.24,160.0
196.31,136.0
196.37,134.0
196.43,148.0
196.5,159.0
196.56,135.0
196.62,131.0
196.69,148.0
196.75,151.0
196.81,141.0
196.87,164.0
196.94,148.0
197.0,163.0
197.06,166.0
197.13,185.0
197.19,182.0
197.25,164.0
197.32,174.0
197.38,174.0
197.44,210.0
197.5,207.0
197.57,173.0
197.63,165.0
197.69,167.0
197.76,187.0
197.82,185.0
197.88,190.0
197.95,167.0
198.01,198.0
198.07,190.0
198.13,176.0
198.2,188.0
198.26,163.0
198.32,174.0
198.39,147.0
198.45,153.0
198.51,145.0
198.58,149.0
198.64,168.0
198.7,150.0
198.76,150.0
198.83,158.0
198.89,113.0
198.95,105.0
199.02,99.0
199.08,112.0
199.14,94.0
199.21,81.0
199.27,108.0
199.33,115.0
199.39,124.0
199.46,126.0
199.52,116.0
199.58,120.0
199.65,118.0
199.71,134.0
199.77,119.0
199.84,127.0
199.9,127.0
199.96,127.0
200.02,129.0
200.09,126.0
200.15,111.0
200.21,111.0
200.28,126.0
200.34,126.0
200.4,126.0
200.47,145.0
200.53,141.0
200.59,132.0
200.65,157.0
200.72,146.0
200.78,127.0
200.84,124.0
200.91,127.0
200.97,139.0
201.03,159.0
201.1,151.0
201.16,145.0
201.22,122.0
201.28,99.0
201.35,119.0
201.41,137.0
201.47,109.0
201.54,117.0
201.6,114.0
201.66,114.0
201.73,108.0
201.79,106.0
201.85,97.0
201.91,101.0
201.98,90.0
202.04,85.0
202.1,92.0
202.17,81.0
202.23,80.0
202.29,93.0
202.36,99.0
202.42,84.0
202.48,95.0
202.54,103.0
202.61,107.0
202.67,105.0
202.73,105.0
202.8,90.0
202.86,96.0
202.92,94.0
202.99,90.0
203.05,80.0
203.11,85.0
203.17,76.0
203.24,72.0
203.3,76.0
203.36,50.0
203.43,59.0
203.49,78.0
203.55,59.0
203.62,78.0
203.68,94.0
203.74,77.0
203.8,79.0
203.87,96.0
203.93,100.0
203.99,116.0
204.06,131.0
204.12,119.0
204.18,129.0
204.25,126.0
204.31,97.0
204.37,94.0
204.43,97.0
204.5,98.0
204.56,115.0
204.62,98.0
204.69,93.0
204.75,120.0
204.81,77.0
204.88,82.0
204.94,75.0
205.0,75.0
205.06,84.0
205.13,72.0
205.19,71.0
205.25,56.0
205.32,72.0
205.38,69.0
205.44,64.0
205.51,71.0
205.57,36.0
205.63,9.0
205.69,27.0
205.76,14.0
205.82,8.0
205.88,31.0
205.95,20.0
206.01,8.0
206.07,27.0
206.14,14.0
206.2,36.0
206.26,10.0
206.32,11.0
206.39,22.0
206.45,16.0
206.51,4.0
206.58,0.0
206.64,10.0
206.7,16.0
206.77,-8.0
206.83,1.0
206.89,18.0
206.95,15.0
207.02,3.0
207.08,5.0
207.14,12.0
207.21,19.0
207.27,19.0
207.33,34.0
207.4,17.0
207.46,13.0
207.52,12.0
207.58,-6.0
207.65,4.0
207.71,40.0
207.77,37.0
207.84,14.0
207.9,24.0
207.96,11.0
208.03,4.0
208.09,12.0
208.15,8.0
208.21,8.0
208.28,26.0
208.34,22.0
208.4,11.0
208.47,19.0
208.53,20.0
208.59,28.0
208.66,30.0
208.72,45.0
208.78,53.0
208.84,60.0
208.91,62.0
208.97,66.0
209.03,82.0
209.1,65.0
209.16,60.0
209.22,65.0
209.29,75.0
209.35,105.0
209.41,75.0
209.47,92.0
209.54,70.0
209.6,65.0
209.66,66.0
209.73,77.0
209.79,74.0
209.85,61.0
209.92,74.0
209.98,59.0
210.04,98.0
210.1,75.0
210.17,102.0
210.23,91.0
210.29,80.0
210.36,92.0
210.42,89.0
210.48,96.0
210.55,74.0
210.61,69.0
210.67,92.0
210.73,94.0
210.8,102.0
210.86,89.0
210.92,86.0
210.99,113.0
211.05,103.0
211.11,100.0
211.18,114.0
211.24,121.0
211.3,112.0
211.36,111.0
211.43,143.0
211.49,118.0
211.55,150.0
211.62,135.0
211.68,128.0
211.74,151.0
211.81,149.0
211.87,154.0
211.93,143.0
211.99,133.0
212.06,141.0
212.12,149.0
212.18,153.0
212.25,176.0
212.31,176.0
212.37,198.0
212.44,202.0
212.5,204.0
212.56,204.0
212.62,201.0
212.69,209.0
212.75,202.0
212.81,176.0
212.88,194.0
212.94,207.0
213.0,182.0
213.07,185.0
213.13,185.0
213.19,191.0
213.25,202.0
213.32,207.0
213.38,213.0
213.44,224.0
213.51,201.0
213.57,241.0
213.63,238.0
213.7,210.0
213.76,196.0
213.82,225.0
213.88,223.0
213.95,209.0
214.01,208.0
214.07,210.0
214.14,224.0
214.2,219.0
214.26,224.0
214.33,209.0
214.39,193.0
214.45,197.0
214.51,217.0
214.58,235.0
214.64,238.0
214.7,213.0
214.77,220.0
214.83,234.0
214.89,217.0
214.96,216.0
215.02,223.0
215.08,200.0
215.14,199.0
215.21,201.0
215.27,184.0
215.33,191.0
215.4,197.0
215.46,203.0
215.52,184.0
215.59,175.0
215.65,201.0
215.71,214.0
215.77,198.0
215.84,187.0
215.9,195.0
215.96,185.0
216.03,184.0
216.09,166.0
216.15,183.0
216.22,179.0
216.28,170.0
216.34,158.0
216.4,174.0
216.47,169.0
216.53,160.0
216.59,152.0
216.66,137.0
216.72,121.0
216.78,126.0
216.85,112.0
216.91,107.0
216.97,138.0
217.03,118.0
217.1,136.0
217.16,119.0
217.22,113.0
217.29,118.0
217.35,111.0
217.41,124.0
217.48,94.0
217.54,99.0
217.6,110.0
217.66,121.0
217.73,118.0
217.79,100.0
217.85,92.0
217.92,100.0
217.98,97.0
218.04,103.0
218.11,95.0
218.17,102.0
218.23,106.0
218.29,119.0
218.36,113.0
218.42,113.0
218.48,102.0
218.55,103.0
218.61,110.0
218.67,98.0
218.74,97.0
218.8,108.0
218.86,108.0
218.92,102.0
218.99,95.0
219.05,99.0
219.11,81.0
219.18,92.0
219.24,76.0
219.3,76.0
219.37,67.0
219.43,70.0
219.49,78.0
219.55,48.0
219.62,69.0
219.68,81.0
219.74,62.0
219.81,63.0
219.87,72.0
219.93,53.0
220.0,62.0
220.06,70.0
220.12,68.0
220.18,66.0
220.25,66.0
220.31,51.0
220.37,43.0
220.44,45.0
220.5,43.0
220.56,52.0
220.63,32.0
220.69,30.0
220.75,39.0
220.81,32.0
220.88,54.0
220.94,37.0
221.0,20.0
221.07,15.0
221.13,31.0
221.19,30.0
221.26,4.0
221.32,11.0
221.38,19.0
221.44,27.0
221.51,20.0
221.57,7.0
221.63,27.0
221.7,47.0
221.76,22.0
221.82,10.0
221.89,14.0
221.95,13.0
222.01,11.0
222.07,8.0
222.14,-7.0
222.2,-9.0
222.26,3.0
222.33,-15.0
222.39,-20.0
222.45,-9.0
222.52,-20.0
222.58,-29.0
222.64,-18.0
222.7,-14.0
222.77,-24.0
222.83,-14.0
222.89,-9.0
222.96,-24.0
223.02,-1.0
223.08,13.0
223.15,-5.0
223.21,-13.0
223.27,4.0
223.33,10.0
223.4,2.0
223.46,-8.0
223.52,11.0
223.59,19.0
223.65,22.0
223.71,13.0
223.78,21.0
223.84,22.0
223.9,26.0
223.96,20.0
224.03,34.0
224.09,19.0
224.15,4.0
224.22,16.0
224.28,11.0
224.34,14.0
224.41,28.0
224.47,15.0
224.53,26.0
224.59,20.0
224.66,33.0
224.72,14.0
224.78,-3.0
224.85,8.0
224.91,8.0
224.97,6.0
225.04,5.0
225.1,-16.0
225.16,-20.0
225.22,5.0
225.29,-6.0
225.35,-10.0
225.41,-14.0
225.48,2.0
225.54,14.0
225.6,-4.0
225.67,-1.0
225.73,-4.0
225.79,8.0
225.85,-3.0
225.92,-12.0
225.98,-12.0
226.04,10.0
226.11,-4.0
226.17,-2.0
226.23,13.0
226.3,11.0
226.36,15.0
226.42,24.0
226.48,34.0
226.55,24.0
226.61,21.0
226.67,35.0
226.74,43.0
226.8,39.0
226.86,38.0
226.93,61.0
226.99,57.0
227.05,55.0
227.11,54.0
227.18,61.0
227.24,74.0
227.3,56.0
227.37,43.0
227.43,47.0
227.49,35.0
227.56,27.0
227.62,2.0
227.68,27.0
227.74,26.0
227.81,38.0
227.87,35.0
227.93,57.0
228.0,46.0
228.06,48.0
228.12,60.0
228.19,53.0
228.25,72.0
228.31,86.0
228.37,67.0
228.44,69.0
228.5,72.0
228.56,71.0
228.63,71.0
228.69,71.0
228.75,69.0
228.82,81.0
228.88,89.0
228.94,91.0
229.0,94.0
229.07,103.0
229.13,110.0
229.19,87.0
229.26,91.0
229.32,101.0
229.38,99.0
229.45,106.0
229.51,99.0
229.57,96.0
229.63,114.0
229.7,122.0
229.76,101.0
229.82,108.0
229.89,102.0
229.95,110.0
230.01,118.0
230.08,103.0
230.14,127.0
230.2,109.0
230.26,125.0
230.33,127.0
230.39,152.0
230.45,166.0
230.52,152.0
230.58,159.0
230.64,156.0
230.71,147.0
230.77,157.0
230.83,146.0
230.89,176.0
230.96,175.0
231.02,170.0
231.08,178.0
231.15,176.0
231.21,170.0
231.27,171.0
231.34,166.0
231.4,167.0
231.46,187.0
231.52,169.0
231.59,151.0
231.65,166.0
231.71,182.0
231.78,184.0
231.84,178.0
231.9,188.0
231.97,185.0
232.03,174.0
232.09,164.0
232.15,155.0
232.22,152.0
232.28,149.0
232.34,129.0
232.41,137.0
232.47,146.0
232.53,153.0
232.6,148.0
232.66,151.0
232.72,152.0
232.78,141.0
232.85,142.0
232.91,153.0
232.97,145.0
233.04,137.0
233.1,150.0
233.16,140.0
233.23,130.0
233.29,132.0
233.35,121.0
233.41,116.0
233.48,140.0
233.54,134.0
233.6,138.0
233.67,151.0
233.73,129.0
233.79,126.0
233.86,141.0
233.92,129.0
233.98,130.0
234.04,115.0
234.11,123.0
234.17,123.0
234.23,126.0
234.3,123.0
234.36,135.0
234.42,142.0
234.49,133.0
234.55,133.0
234.61,159.0
234.67,143.0
234.74,153.0
234.8,148.0
234.86,159.0
234.93,168.0
234.99,165.0
235.05,161.0
235.12,156.0
235.18,149.0
235.24,168.0
235.3,156.0
235.37,150.0
235.43,163.0
235.49,134.0
235.56,127.0
235.62,134.0
235.68,148.0
235.75,134.0
235.81,130.0
235.87,141.0
235.93,146.0
236.0,149.0
236.06,145.0
236.12,150.0
236.19,145.0
236.25,142.0
236.31,141.0
236.38,130.0
236.44,130.0
236.5,122.0
236.56,116.0
236.63,136.0
236.69,140.0
236.75,144.0
236.82,144.0
236.88,151.0
236.94,130.0
237.01,152.0
237.07,139.0
237.13,151.0
237.19,138.0
237.26,149.0
237.32,160.0
237.38,147.0
237.45,162.0
237.51,145.0
237.57,151.0
237.64,149.0
237.7,165.0
237.76,162.0
237.82,161.0
237.89,166.0
237.95,145.0
238.01,148.0
238.08,135.0
238.14,167.0
238.2,170.0
238.27,157.0
238.33,186.0
238.39,158.0
238.45,180.0
238.52,170.0
238.58,176.0
238.64,155.0
238.71,139.0
238.77,151.0
238.83,146.0
238.9,146.0
238.96,150.0
239.02,159.0
239.08,143.0
239.15,167.0
239.21,180.0
239.27,173.0
239.34,173.0
239.4,162.0
239.46,161.0
239.53,160.0
239.59,160.0
239.65,143.0
239.71,138.0
239.78,142.0
239.84,151.0
239.9,159.0
239.97,164.0
240.03,167.0
240.09,151.0
240.16,161.0
240.22,175.0
240.28,172.0
240.34,183.0
240.41,171.0
240.47,151.0
240.53,137.0
240.6,165.0
240.66,171.0
240.72,166.0
240.79,175.0
240.85,176.0
240.91,174.0
240.97,159.0
241.04,159.0
241.1,152.0
241.16,148.0
241.23,148.0
241.29,156.0
241.35,143.0
241.42,139.0
241.48,130.0
241.54,129.0
241.6,122.0
241.67,115.0
241.73,124.0
241.79,126.0
241.86,121.0
241.92,122.0
241.98,118.0
242.05,113.0
242.11,121.0
242.17,113.0
242.23,113.0
242.3,122.0
242.36,124.0
242.42,114.0
242.49,114.0
242.55,107.0
242.61,97.0
242.68,99.0
242.74,75.0
242.8,79.0
242.86,82.0
242.93,79.0
242.99,62.0
243.05,68.0
243.12,66.0
243.18,73.0
243.24,55.0
243.31,51.0
243.37,63.0
243.43,50.0
243.49,66.0
243.56,45.0
243.62,61.0
243.68,69.0
243.75,59.0
243.81,59.0
243.87,50.0
243.94,80.0
244.0,66.0
244.06,59.0
244.12,39.0
244.19,44.0
244.25,61.0
244.31,82.0
244.38,50.0
244.44,39.0
244.5,57.0
244.57,65.0
244.63,52.0
244.69,52.0
244.75,57.0
244.82,76.0
244.88,63.0
244.94,35.0
245.01,47.0
245.07,47.0
245.13,63.0
245.2,64.0
245.26,41.0
245.32,66.0
245.38,57.0
245.45,73.0
245.51,83.0
245.57,70.0
245.64,74.0
245.7,75.0
245.76,88.0
245.83,77.0
245.89,68.0
245.95,71.0
246.01,55.0
246.08,75.0
246.14,68.0
246.2,74.0
246.27,82.0
246.33,57.0
246.39,86.0
246.46,73.0
246.52,63.0
246.58,68.0
246.64,68.0
246.71,68.0
246.77,59.0
246.83,64.0
246.9,66.0
246.96,60.0
247.02,35.0
247.09,56.0
247.15,51.0
247.21,54.0
247.27,55.0
247.34,47.0
247.4,75.0
247.46,72.0
247.53,74.0
247.59,77.0
247.65,51.0
247.72,60.0
247.78,61.0
247.84,55.0
247.9,77.0
247.97,84.0
248.03,78.0
248.09,88.0
248.16,96.0
248.22,90.0
248.28,93.0
248.35,93.0
248.41,100.0
248.47,91.0
248.53,90.0
248.6,94.0
248.66,99.0
248.72,95.0
248.79,91.0
248.85,83.0
248.91,71.0
248.98,75.0
249.04,76.0
249.1,92.0
249.16,99.0
249.23,95.0
249.29,102.0
249.35,91.0
249.42,77.0
249.48,80.0
249.54,97.0
249.61,85.0
249.67,80.0
249.73,78.0
249.79,86.0
249.86,90.0
249.92,97.0
249.98,106.0
250.05,100.0
250.11,92.0
250.17,79.0
250.24,100.0
250.3,87.0
250.36,86.0
250.42,67.0
250.49,53.0
250.55,53.0
250.61,60.0
250.68,49.0
250.74,72.0
250.8,87.0
250.87,71.0
250.93,50.0
250.99,63.0
251.05,44.0
251.12,72.0
251.18,80.0
251.24,78.0
251.31,79.0
251.37,77.0
251.43,85.0
251.5,82.0
251.56,77.0
251.62,86.0
251.68,73.0
251.75,66.0
251.81,66.0
251.87,90.0
251.94,93.0
252.0,100.0
252.06,105.0
252.13,108.0
252.19,93.0
252.25,108.0
252.31,118.0
252.38,109.0
252.44,114.0
252.5,95.0
252.57,115.0
252.63,95.0
252.69,110.0
252.76,103.0
252.82,114.0
252.88,105.0
252.94,100.0
253.01,113.0
253.07,131.0
253.13,126.0
253.2,99.0
253.26,115.0
253.32,90.0
253.39,88.0
253.45,85.0
253.51,102.0
253.57,120.0
253.64,98.0
253.7,113.0
253.76,116.0
253.83,105.0
253.89,124.0
253.95,132.0
254.02,114.0
254.08,123.0
254.14,122.0
254.2,107.0
254.27,110.0
254.33,133.0
254.39,132.0
254.46,127.0
254.52,108.0
254.58,123.0
254.65,130.0
254.71,124.0
254.77,132.0
254.83,134.0
254.9,132.0
254.96,140.0
255.02,128.0
255.09,126.0
255.15,145.0
255.21,131.0
255.28,134.0
255.34,126.0
255.4,128.0
255.46,133.0
255.53,146.0
255.59,143.0
255.65,143.0
255.72,142.0
255.78,134.0
255.84,135.0
255.91,141.0
255.97,164.0
256.03,150.0
256.09,159.0
256.16,129.0
256.22,130.0
256.28,158.0
256.35,130.0
256.41,124.0
256.47,142.0
256.54,131.0
256.6,129.0
256.66,135.0
256.72,124.0
256.79,119.0
256.85,131.0
256.91,146.0
256.98,126.0
257.04,103.0
257.1,108.0
257.17,119.0
257.23,116.0
257.29,120.0
257.35,115.0
257.42,134.0
257.48,135.0
257.54,103.0
257.61,108.0
257.67,116.0
257.73,100.0
257.8,115.0
257.86,94.0
257.92,101.0
257.98,96.0
258.05,95.0
258.11,93.0
258.17,74.0
258.24,111.0
258.3,99.0
258.36,84.0
258.43,86.0
258.49,104.0
258.55,110.0
258.61,80.0
258.68,91.0
258.74,96.0
258.8,93.0
258.87,97.0
258.93,74.0
258.99,68.0
259.06,74.0
259.12,82.0
259.18,74.0
259.24,85.0
259.31,91.0
259.37,90.0
259.43,110.0
259.5,105.0
259.56,103.0
259.62,89.0
259.69,99.0
259.75,99.0
259.81,103.0
259.87,63.0
259.94,73.0
260.0,71.0
260.06,67.0
260.13,80.0
260.19,72.0
260.25,69.0
260.32,85.0
260.38,97.0
260.44,85.0
260.5,66.0
260.57,73.0
260.63,80.0
260.69,60.0
260.76,76.0
260.82,60.0
260.88,61.0
260.95,59.0
261.01,57.0
261.07,71.0
261.13,82.0
261.2,65.0
261.26,63.0
261.32,41.0
261.39,56.0
261.45,62.0
261.51,74.0
261.58,72.0
261.64,63.0
261.7,64.0
261.76,78.0
261.83,65.0
261.89,37.0
261.95,46.0
262.02,46.0
262.08,53.0
262.14,41.0
262.21,45.0
262.27,62.0
262.33,51.0
262.39,45.0
262.46,49.0
262.52,30.0
262.58,38.0
262.65,50.0
262.71,43.0
262.77,50.0
262.84,38.0
262.9,44.0
262.96,25.0
263.02,41.0
263.09,66.0
263.15,42.0
263.21,38.0
263.28,36.0
263.34,44.0
263.4,31.0
263.47,33.0
263.53,43.0
263.59,21.0
263.65,47.0
263.72,42.0
263.78,45.0
263.84,46.0
263.91,56.0
263.97,87.0
264.03,65.0
264.1,68.0
264.16,76.0
264.22,99.0
264.28,96.0
264.35,83.0
264.41,77.0
264.47,91.0
264.54,110.0
264.6,107.0
264.66,118.0
264.73,107.0
264.79,101.0
264.85,103.0
264.91,94.0
264.98,93.0
265.04,77.0
265.1,100.0
265.17,110.0
265.23,118.0
265.29,112.0
265.36,97.0
265.42,94.0
265.48,112.0
265.54,125.0
265.61,103.0
265.67,119.0
265.73,134.0
265.8,143.0
265.86,158.0
265.92,135.0
265.99,130.0
266.05,121.0
266.11,130.0
266.17,143.0
266.24,124.0
266.3,138.0
266.36,136.0
266.43,125.0
266.49,124.0
266.55,134.0
266.62,126.0
266.68,123.0
266.74,132.0
266.8,135.0
266.87,137.0
266.93,121.0
266.99,124.0
267.06,119.0
267.12,127.0
267.18,140.0
267.25,140.0
267.31,119.0
267.37,127.0
267.43,129.0
267.5,139.0
267.56,133.0
267.62,107.0
267.69,121.0
267.75,126.0
267.81,134.0
267.88,138.0
267.94,118.0
268.0,122.0
268.06,118.0
268.13,127.0
268.19,117.0
268.25,118.0
268.32,130.0
268.38,129.0
268.44,111.0
268.51,135.0
268.57,128.0
268.63,147.0
268.69,142.0
268.76,146.0
268.82,155.0
268.88,153.0
268.95,159.0
269.01,154.0
269.07,156.0
269.14,165.0
269.2,185.0
269.26,172.0
269.32,167.0
269.39,149.0
269.45,156.0
269.51,162.0
269.58,152.0
269.64,133.0
269.7,142.0
269.77,133.0
269.83,126.0
269.89,101.0
269.95,121.0
270.02,125.0
270.08,121.0
270.14,122.0
270.21,126.0
270.27,146.0
270.33,144.0
270.4,148.0
270.46,158.0
270.52,162.0
270.58,136.0
270.65,137.0
270.71,155.0
270.77,146.0
270.84,148.0
270.9,162.0
270.96,150.0
271.03,136.0
271.09,138.0
271.15,152.0
271.21,141.0
271.28,137.0
271.34,148.0
271.4,131.0
271.47,136.0
271.53,141.0
271.59,159.0
271.66,161.0
271.72,152.0
271.78,159.0
271.84,154.0
271.91,145.0
271.97,141.0
272.03,135.0
272.1,127.0
272.16,141.0
272.22,128.0
272.29,121.0
272.35,106.0
272.41,113.0
272.47,118.0
272.54,118.0
272.6,129.0
272.66,133.0
272.73,107.0
272.79,83.0
272.85,108.0
272.92,128.0
272.98,115.0
273.04,90.0
273.1,100.0
273.17,107.0
273.23,93.0
273.29,88.0
273.36,94.0
273.42,90.0
273.48,91.0
273.55,94.0
273.61,94.0
273.67,111.0
273.73,92.0
273.8,82.0
273.86,98.0
273.92,119.0
273.99,98.0
274.05,80.0
274.11,67.0
274.18,70.0
274.24,94.0
274.3,97.0
274.36,102.0
274.43,101.0
274.49,82.0
274.55,71.0
274.62,88.0
274.68,80.0
274.74,71.0
274.81,78.0
274.87,93.0
274.93,81.0
274.99,60.0
275.06,71.0
275.12,60.0
275.18,64.0
275.25,57.0
275.31,51.0
275.37,54.0
275.44,58.0
275.5,64.0
275.56,80.0
275.62,56.0
275.69,54.0
275.75,61.0
275.81,49.0
275.88,74.0
275.94,67.0
276.0,56.0
276.07,67.0
276.13,52.0
276.19,43.0
276.25,50.0
276.32,67.0
276.38,49.0
276.44,46.0
276.51,48.0
276.57,42.0
276.63,49.0
276.7,62.0
276.76,64.0
276.82,49.0
276.88,41.0
276.95,60.0
277.01,52.0
277.07,52.0
277.14,54.0
277.2,78.0
277.26,60.0
277.33,49.0
277.39,77.0
277.45,71.0
277.51,67.0
277.58,79.0
277.64,69.0
277.7,71.0
277.77,54.0
277.83,58.0
277.89,72.0
277.96,64.0
278.02,68.0
278.08,64.0
278.14,54.0
278.21,52.0
278.27,61.0
278.33,57.0
278.4,48.0
278.46,60.0
278.52,60.0
278.59,37.0
278.65,43.0
278.71,52.0
278.77,30.0
278.84,43.0
278.9,48.0
278.96,50.0
279.03,42.0
279.09,42.0
279.15,41.0
279.22,28.0
279.28,33.0
279.34,50.0
279.4,30.0
279.47,50.0
279.53,62.0
279.59,53.0
279.66,41.0
279.72,53.0
279.78,52.0
279.85,55.0
279.91,52.0
279.97,70.0
280.03,68.0
280.1,66.0
280.16,54.0
280.22,60.0
280.29,50.0
280.35,49.0
280.41,67.0
280.48,80.0
280.54,73.0
280.6,81.0
280.66,43.0
280.73,64.0
280.79,53.0
280.85,56.0
280.92,71.0
280.98,77.0
281.04,70.0
281.11,83.0
281.17,95.0
281.23,113.0
281.29,111.0
281.36,92.0
281.42,93.0
281.48,71.0
281.55,91.0
281.61,85.0
281.67,80.0
281.74,92.0
281.8,107.0
281.86,115.0
281.92,129.0
281.99,114.0
282.05,106.0
282.11,112.0
282.18,92.0
282.24,101.0
282.3,94.0
282.37,87.0
282.43,93.0
282.49,87.0
282.55,94.0
282.62,108.0
282.68,109.0
282.74,90.0
282.81,104.0
282.87,110.0
282.93,74.0
283.0,86.0
283.06,102.0
283.12,116.0
283.18,96.0
283.25,89.0
283.31,81.0
283.37,86.0
283.44,100.0
283.5,69.0
283.56,61.0
283.63,74.0
283.69,70.0
283.75,66.0
283.81,71.0
283.88,71.0
283.94,67.0
284.0,75.0
284.07,67.0
284.13,71.0
284.19,94.0
284.26,89.0
284.32,102.0
284.38,93.0
284.44,102.0
284.51,98.0
284.57,89.0
284.63,93.0
284.7,62.0
284.76,93.0
284.82,96.0
284.89,64.0
284.95,89.0
285.01,58.0
285.07,57.0
285.14,72.0
285.2,54.0
285.26,55.0
285.33,70.0
285.39,53.0
285.45,55.0
285.52,53.0
285.58,55.0
285.64,77.0
285.7,76.0
285.77,75.0
285.83,56.0
285.89,62.0
285.96,66.0
286.02,68.0
286.08,86.0
286.15,67.0
286.21,56.0
286.27,39.0
286.33,64.0
286.4,75.0
286.46,53.0
286.52,53.0
286.59,57.0
286.65,54.0
286.71,75.0
286.78,67.0
286.84,72.0
286.9,90.0
286.96,67.0
287.03,60.0
287.09,88.0
287.15,95.0
287.22,82.0
287.28,65.0
287.34,82.0
287.41,71.0
287.47,70.0
287.53,75.0
287.59,83.0
287.66,94.0
287.72,119.0
287.78,86.0
287.85,88.0
287.91,86.0
287.97,70.0
288.04,61.0
288.1,79.0
288.16,55.0
288.22,68.0
288.29,66.0
288.35,35.0
288.41,15.0
288.48,17.0
288.54,38.0
288.6,21.0
288.67,42.0
288.73,17.0
288.79,24.0
288.85,47.0
288.92,69.0
288.98,34.0
289.04,49.0
289.11,79.0
289.17,55.0
289.23,56.0
289.3,57.0
289.36,42.0
289.42,36.0
289.48,52.0
289.55,45.0
289.61,40.0
289.67,58.0
289.74,55.0
289.8,42.0
289.86,56.0
289.93,67.0
289.99,71.0
290.05,94.0
290.11,34.0
290.18,59.0
290.24,62.0
290.3,51.0
290.37,87.0
290.43,67.0
290.49,74.0
290.56,57.0
290.62,55.0
290.68,61.0
290.74,49.0
290.81,42.0
290.87,71.0
290.93,82.0
291.0,96.0
291.06,91.0
291.12,92.0
291.19,107.0
291.25,97.0
291.31,86.0
291.37,86.0
291.44,86.0
291.5,105.0
291.56,111.0
291.63,90.0
291.69,99.0
291.75,80.0
291.82,97.0
291.88,89.0
291.94,89.0
292.0,89.0
292.07,93.0
292.13,107.0
292.19,108.0
292.26,127.0
292.32,131.0
292.38,113.0
292.45,121.0
292.51,145.0
292.57,138.0
292.63,153.0
292.7,167.0
292.76,152.0
292.82,152.0
292.89,151.0
292.95,141.0
293.01,164.0
293.08,145.0
293.14,156.0
293.2,152.0
293.26,154.0
293.33,163.0
293.39,155.0
293.45,172.0
293.52,173.0
293.58,167.0
293.64,147.0
293.71,181.0
293.77,211.0
293.83,189.0
293.89,174.0
293.96,179.0
294.02,183.0
294.08,174.0
294.15,163.0
294.21,154.0
294.27,171.0
294.34,177.0
294.4,166.0
294.46,168.0
294.52,177.0
294.59,157.0
294.65,178.0
294.71,181.0
294.78,172.0
294.84,171.0
294.9,176.0
294.97,177.0
295.03,189.0
295.09,200.0
295.15,206.0
295.22,201.0
295.28,196.0
295.34,189.0
295.41,192.0
295.47,221.0
295.53,218.0
295.6,240.0
295.66,206.0
295.72,205.0
295.78,229.0
295.85,219.0
295.91,198.0
295.97,239.0
296.04,212.0
296.1,222.0
296.16,237.0
296.23,241.0
296.29,245.0
296.35,238.0
296.41,256.0
296.48,250.0
296.54,223.0
296.6,233.0
296.67,222.0
296.73,240.0
296.79,231.0
296.86,240.0
296.92,261.0
296.98,253.0
297.04,270.0
297.11,256.0
297.17,264.0
297.23,240.0
297.3,243.0
297.36,251.0
297.42,262.0
297.49,266.0
297.55,258.0
297.61,261.0
297.67,262.0
297.74,273.0
297.8,291.0
297.86,277.0
297.93,264.0
297.99,263.0
298.05,245.0
298.12,252.0
298.18,246.0
298.24,240.0
298.3,256.0
298.37,256.0
298.43,235.0
298.49,246.0
298.56,250.0
298.62,243.0
298.68,234.0
298.75,244.0
298.81,254.0
298.87,250.0
298.93,255.0
299.0,265.0
299.06,262.0
299.12,267.0
299.19,252.0
299.25,236.0
299.31,233.0
299.38,239.0
299.44,239.0
299.5,243.0
299.56,236.0
299.63,242.0
299.69,247.0
299.75,233.0
299.82,214.0
299.88,214.0
299.94,220.0
300.01,209.0
300.07,199.0
300.13,208.0
300.19,228.0
300.26,215.0
300.32,231.0
300.38,242.0
300.45,231.0
300.51,230.0
300.57,224.0
300.64,228.0
300.7,199.0
300.76,184.0
300.82,198.0
300.89,199.0
300.95,195.0
301.01,193.0
301.08,196.0
301.14,212.0
301.2,214.0
301.27,191.0
301.33,209.0
301.39,225.0
301.45,191.0
301.52,186.0
301.58,163.0
301.64,165.0
301.71,155.0
301.77,155.0
301.83,166.0
301.9,149.0
301.96,137.0
302.02,148.0
302.08,126.0
302.15,145.0
302.21,153.0
302.27,146.0
302.34,141.0
302.4,148.0
302.46,131.0
302.53,123.0
302.59,126.0
302.65,114.0
302.71,135.0
302.78,141.0
302.84,130.0
302.9,126.0
302.97,125.0
303.03,133.0
303.09,130.0
303.16,130.0
303.22,117.0
303.28,115.0
303.34,115.0
303.41,135.0
303.47,105.0
303.53,106.0
303.6,123.0
303.66,116.0
303.72,123.0
303.79,108.0
303.85,111.0
303.91,97.0
303.97,100.0
304.04,101.0
304.1,102.0
304.16,100.0
304.23,89.0
304.29,97.0
304.35,99.0
304.42,74.0
304.48,85.0
304.54,59.0
304.6,52.0
304.67,74.0
304.73,71.0
304.79,51.0
304.86,44.0
304.92,50.0
304.98,35.0
305.05,54.0
305.11,48.0
305.17,57.0
305.23,60.0
305.3,34.0
305.36,44.0
305.42,46.0
305.49,34.0
305.55,31.0
305.61,36.0
305.68,24.0
305.74,34.0
305.8,2.0
305.86,23.0
305.93,38.0
305.99,24.0
306.05,30.0
306.12,6.0
306.18,36.0
306.24,28.0
306.31,24.0
306.37,29.0
306.43,20.0
306.49,31.0
306.56,8.0
306.62,28.0
306.68,41.0
306.75,28.0
306.81,36.0
306.87,19.0
306.94,28.0
307.0,21.0
307.06,19.0
307.12,18.0
307.19,48.0
307.25,44.0
307.31,43.0
307.38,24.0
307.44,40.0
307.5,43.0
307.57,42.0
307.63,53.0
307.69,58.0
307.75,38.0
307.82,35.0
307.88,30.0
307.94,23.0
308.01,25.0
308.07,17.0
308.13,26.0
308.2,21.0
308.26,17.0
308.32,15.0
308.38,23.0
308.45,27.0
308.51,16.0
308.57,37.0
308.64,56.0
308.7,45.0
308.76,18.0
308.83,11.0
308.89,11.0
308.95,27.0
309.01,43.0
309.08,44.0
309.14,30.0
309.2,26.0
309.27,59.0
309.33,38.0
309.39,36.0
309.46,45.0
309.52,27.0
309.58,43.0
309.64,48.0
309.71,37.0
309.77,32.0
309.83,33.0
309.9,3.0
309.96,38.0
310.02,38.0
310.09,36.0
310.15,33.0
310.21,41.0
310.27,34.0
310.34,34.0
310.4,28.0
310.46,37.0
310.53,27.0
310.59,39.0
310.65,42.0
310.72,49.0
310.78,58.0
310.84,41.0
310.9,27.0
310.97,56.0
311.03,37.0
311.09,35.0
311.16,39.0
311.22,47.0
311.28,42.0
311.35,60.0
311.41,51.0
311.47,38.0
311.53,27.0
311.6,53.0
311.66,51.0
311.72,43.0
311.79,55.0
311.85,61.0
311.91,52.0
311.98,59.0
312.04,35.0
312.1,55.0
312.16,68.0
312.23,72.0
312.29,67.0
312.35,64.0
312.42,81.0
312.48,57.0
312.54,64.0
312.61,42.0
312.67,70.0
312.73,72.0
312.79,60.0
312.86,70.0
312.92,79.0
312.98,69.0
313.05,66.0
313.11,74.0
313.17,75.0
313.24,63.0
313.3,69.0
313.36,83.0
313.42,78.0
313.49,80.0
313.55,75.0
313.61,77.0
313.68,85.0
313.74,87.0
313.8,67.0
313.87,71.0
313.93,58.0
313.99,79.0
314.05,73.0
314.12,76.0
314.18,93.0
314.24,81.0
314.31,90.0
314.37,108.0
314.43,95.0
314.5,118.0
314.56,93.0
314.62,71.0
314.68,82.0
314.75,99.0
314.81,111.0
314.87,112.0
314.94,93.0
315.0,91.0
315.06,108.0
315.13,93.0
315.19,101.0
315.25,119.0
315.31,113.0
315.38,101.0
315.44,135.0
315.5,134.0
315.57,152.0
315.63,151.0
315.69,159.0
315.76,159.0
315.82,141.0
315.88,141.0
315.94,155.0
316.01,148.0
316.07,122.0
316.13,146.0
316.2,154.0
316.26,167.0
316.32,138.0
316.39,173.0
316.45,164.0
316.51,145.0
316.57,159.0
316.64,161.0
316.7,155.0
316.76,154.0
316.83,172.0
316.89,163.0
316.95,175.0
317.02,157.0
317.08,125.0
317.14,145.0
317.2,144.0
317.27,135.0
317.33,160.0
317.39,145.0
317.46,137.0
317.52,111.0
317.58,112.0
317.65,119.0
317.71,121.0
317.77,139.0
317.83,152.0
317.9,137.0
317.96,135.0
318.02,125.0
318.09,126.0
318.15,144.0
318.21,134.0
318.28,151.0
318.34,159.0
318.4,167.0
318.46,164.0
318.53,137.0
318.59,163.0
318.65,189.0
318.72,152.0
318.78,158.0
318.84,187.0
318.91,185.0
318.97,172.0
319.03,157.0
319.09,156.0
319.16,149.0
319.22,170.0
319.28,168.0
319.35,146.0
319.41,135.0
319.47,126.0
319.54,146.0
319.6,134.0
319.66,151.0
319.72,143.0
319.79,133.0
319.85,147.0
319.91,169.0
319.98,159.0
320.04,150.0
320.1,170.0
320.17,153.0
320.23,159.0
320.29,141.0
320.35,150.0
320.42,164.0
320.48,162.0
320.54,153.0
320.61,146.0
320.67,173.0
320.73,163.0
320.8,168.0
320.86,154.0
320.92,143.0
320.98,154.0
321.05,136.0
321.11,133.0
321.17,153.0
321.24,129.0
321.3,139.0
321.36,157.0
321.43,174.0
321.49,179.0
321.55,168.0
321.61,170.0
321.68,175.0
321.74,141.0
321.8,144.0
321.87,134.0
321.93,140.0
321.99,150.0
322.06,161.0
322.12,139.0
322.18,121.0
322.24,129.0
322.31,121.0
322.37,133.0
322.43,136.0
322.5,140.0
322.56,116.0
322.62,134.0
322.69,116.0
322.75,116.0
322.81,103.0
322.87,112.0
322.94,121.0
323.0,124.0
323.06,107.0
323.13,125.0
323.19,115.0
323.25,96.0
323.32,101.0
323.38,78.0
323.44,104.0
323.5,108.0
323.57,96.0
323.63,97.0
323.69,100.0
323.76,106.0
323.82,97.0
323.88,85.0
323.95,101.0
324.01,93.0
324.07,97.0
324.13,94.0
324.2,89.0
324.26,95.0
324.32,104.0
324.39,95.0
324.45,79.0
324.51,108.0
324.58,100.0
324.64,90.0
324.7,96.0
324.76,82.0
324.83,63.0
324.89,86.0
324.95,56.0
325.02,50.0
325.08,50.0
325.14,77.0
325.21,59.0
325.27,71.0
325.33,70.0
325.39,59.0
325.46,64.0
325.52,79.0
325.58,49.0
325.65,38.0
325.71,71.0
325.77,47.0
325.84,35.0
325.9,44.0
325.96,30.0
326.02,47.0
326.09,49.0
326.15,61.0
326.21,50.0
326.28,40.0
326.34,48.0
326.4,33.0
326.47,39.0
326.53,53.0
326.59,41.0
326.65,48.0
326.72,20.0
326.78,42.0
326.84,52.0
326.91,48.0
326.97,35.0
327.03,35.0
327.1,42.0
327.16,44.0
327.22,37.0
327.28,49.0
327.35,58.0
327.41,50.0
327.47,36.0
327.54,32.0
327.6,26.0
327.66,9.0
327.73,5.0
327.79,-6.0
327.85,3.0
327.91,6.0
327.98,6.0
328.04,-3.0
328.1,7.0
328.17,0.0
328.23,14.0
328.29,0.0
328.36,-8.0
328.42,3.0
328.48,-19.0
328.54,-10.0
328.61,-12.0
328.67,-9.0
328.73,2.0
328.8,-12.0
328.86,-29.0
328.92,-22.0
328.99,-28.0
329.05,-11.0
329.11,-23.0
329.17,-38.0
329.24,-28.0
329.3,-34.0
329.36,-23.0
329.43,-32.0
329.49,-12.0
329.55,-26.0
329.62,-30.0
329.68,-19.0
329.74,-27.0
329.8,-28.0
329.87,-36.0
329.93,-23.0
329.99,-3.0
330.06,-21.0
330.12,-18.0
330.18,-26.0
330.25,-20.0
330.31,-15.0
330.37,-22.0
330.43,-20.0
330.5,-15.0
330.56,0.0
330.62,-15.0
330.69,-26.0
330.75,-18.0
330.81,-13.0
330.88,0.0
330.94,-13.0
331.0,28.0
331.06,18.0
331.13,18.0
331.19,8.0
331.25,5.0
331.32,26.0
331.38,25.0
331.44,21.0
331.51,43.0
331.57,27.0
331.63,30.0
331.69,35.0
331.76,32.0
331.82,36.0
331.88,43.0
331.95,35.0
332.01,55.0
332.07,48.0
332.14,42.0
332.2,39.0
332.26,48.0
332.32,66.0
332.39,82.0
332.45,71.0
332.51,68.0
332.58,63.0
332.64,57.0
332.7,57.0
332.77,75.0
332.83,85.0
332.89,75.0
332.95,58.0
333.02,75.0
333.08,68.0
333.14,77.0
333.21,96.0
333.27,100.0
333.33,89.0
333.4,98.0
333.46,98.0
333.52,89.0
333.58,85.0
333.65,87.0
333.71,79.0
333.77,68.0
333.84,63.0
333.9,64.0
333.96,92.0
334.03,93.0
334.09,102.0
334.15,92.0
334.21,110.0
334.28,96.0
334.34,96.0
334.4,107.0
334.47,83.0
334.53,87.0
334.59,82.0
334.66,79.0
334.72,82.0
334.78,93.0
334.84,98.0
334.91,87.0
334.97,86.0
335.03,106.0
335.1,114.0
335.16,98.0
335.22,100.0
335.29,103.0
335.35,104.0
335.41,118.0
335.47,132.0
335.54,139.0
335.6,148.0
335.66,139.0
335.73,135.0
335.79,131.0
335.85,125.0
335.92,148.0
335.98,152.0
336.04,151.0
336.1,146.0
336.17,151.0
336.23,143.0
336.29,135.0
336.36,155.0
336.42,162.0
336.48,147.0
336.55,145.0
336.61,148.0
336.67,134.0
336.73,118.0
336.8,108.0
336.86,106.0
336.92,118.0
336.99,129.0
337.05,124.0
337.11,150.0
337.18,147.0
337.24,130.0
337.3,146.0
337.36,149.0
337.43,154.0
337.49,173.0
337.55,156.0
337.62,163.0
337.68,166.0
337.74,170.0
337.81,174.0
337.87,162.0
337.93,175.0
337.99,208.0
338.06,207.0
338.12,206.0
338.18,211.0
338.25,204.0
338.31,186.0
338.37,185.0
338.44,211.0
338.5,203.0
338.56,191.0
338.62,202.0
338.69,188.0
338.75,180.0
338.81,207.0
338.88,195.0
338.94,192.0
339.0,195.0
339.07,191.0
339.13,187.0
339.19,195.0
339.25,198.0
339.32,191.0
339.38,162.0
339.44,170.0
339.51,169.0
339.57,173.0
339.63,217.0
339.7,188.0
339.76,184.0
339.82,180.0
339.88,179.0
339.95,195.0
340.01,174.0
340.07,184.0
340.14,205.0
340.2,194.0
340.26,173.0
340.33,184.0
340.39,194.0
340.45,186.0
340.51,204.0
340.58,197.0
340.64,203.0
340.7,202.0
340.77,199.0
340.83,185.0
340.89,175.0
340.96,181.0
341.02,175.0
341.08,169.0
341.14,184.0
341.21,169.0
341.27,181.0
341.33,191.0
341.4,179.0
341.46,194.0
341.52,179.0
341.59,162.0
341.65,170.0
341.71,167.0
341.77,179.0
341.84,181.0
341.9,181.0
341.96,157.0
342.03,164.0
342.09,170.0
342.15,160.0
342.22,142.0
342.28,165.0
342.34,151.0
342.4,156.0
342.47,141.0
342.53,129.0
342.59,143.0
342.66,141.0
342.72,140.0
342.78,131.0
342.85,145.0
342.91,126.0
342.97,117.0
343.03,128.0
343.1,115.0
343.16,129.0
343.22,131.0
343.29,134.0
343.35,125.0
343.41,113.0
343.48,115.0
343.54,93.0
343.6,105.0
343.66,70.0
343.73,84.0
343.79,88.0
343.85,90.0
343.92,90.0
343.98,90.0
344.04,73.0
344.11,73.0
344.17,70.0
344.23,74.0
344.29,69.0
344.36,76.0
344.42,70.0
344.48,65.0
344.55,59.0
344.61,50.0
344.67,60.0
344.74,70.0
344.8,63.0
344.86,71.0
344.92,77.0
344.99,59.0
345.05,51.0
345.11,33.0
345.18,45.0
345.24,40.0
345.3,58.0
345.37,76.0
345.43,54.0
345.49,69.0
345.55,55.0
345.62,34.0
345.68,45.0
345.74,57.0
345.81,71.0
345.87,69.0
345.93,60.0
346.0,65.0
346.06,73.0
346.12,66.0
346.18,87.0
346.25,86.0
346.31,77.0
346.37,56.0
346.44,54.0
346.5,67.0
346.56,60.0
346.63,77.0
346.69,85.0
346.75,79.0
346.81,88.0
346.88,93.0
346.94,92.0
347.0,100.0
347.07,95.0
347.13,77.0
347.19,80.0
347.26,81.0
347.32,89.0
347.38,94.0
347.44,78.0
347.51,105.0
347.57,90.0
347.63,110.0
347.7,99.0
347.76,87.0
347.82,120.0
347.89,126.0
347.95,121.0
348.01,126.0
348.07,122.0
348.14,100.0
348.2,123.0
348.26,134.0
348.33,117.0
348.39,127.0
348.45,121.0
348.52,106.0
348.58,106.0
348.64,122.0
348.7,126.0
348.77,135.0
348.83,126.0
348.89,127.0
348.96,141.0
349.02,133.0
349.08,142.0
349.15,157.0
349.21,153.0
349.27,138.0
349.33,172.0
349.4,163.0
349.46,162.0
349.52,171.0
349.59,162.0
349.65,173.0
349.71,162.0
349.78,169.0
349.84,167.0
349.9,169.0
349.96,179.0
350.03,164.0
350.09,176.0
350.15,170.0
350.22,180.0
350.28,181.0
350.34,198.0
350.41,176.0
350.47,202.0
350.53,200.0
350.59,185.0
350.66,200.0
350.72,182.0
350.78,166.0
350.85,162.0
350.91,183.0
350.97,199.0
351.04,176.0
351.1,180.0
351.16,171.0
351.22,169.0
351.29,179.0
351.35,179.0
351.41,169.0
351.48,147.0
351.54,154.0
351.6,152.0
351.67,164.0
351.73,162.0
351.79,137.0
351.85,180.0
351.92,166.0
351.98,165.0
352.04,166.0
352.11,176.0
352.17,181.0
352.23,180.0
352.3,176.0
352.36,182.0
352.42,184.0
352.48,176.0
352.55,189.0
352.61,177.0
352.67,185.0
352.74,199.0
352.8,209.0
352.86,197.0
352.93,188.0
352.99,195.0
353.05,193.0
353.11,194.0
353.18,186.0
353.24,184.0
353.3,167.0
353.37,164.0
353.43,187.0
353.49,190.0
353.56,205.0
353.62,199.0
353.68,167.0
353.74,169.0
353.81,175.0
353.87,179.0
353.93,196.0
354.0,178.0
354.06,172.0
354.12,158.0
354.19,162.0
354.25,188.0
354.31,181.0
354.37,185.0
354.44,175.0
354.5,180.0
354.56,173.0
354.63,173.0
354.69,174.0
354.75,180.0
354.82,158.0
354.88,168.0
354.94,158.0
355.0,186.0
355.07,152.0
355.13,136.0
355.19,134.0
355.26,123.0
355.32,159.0
355.38,151.0
355.45,140.0
355.51,123.0
355.57,112.0
355.63,123.0
355.7,107.0
355.76,104.0
355.82,126.0
355.89,125.0
355.95,135.0
356.01,122.0
356.08,142.0
356.14,119.0
356.2,125.0
356.26,130.0
356.33,117.0
356.39,134.0
356.45,136.0
356.52,136.0
356.58,140.0
356.64,143.0
356.71,123.0
356.77,126.0
356.83,125.0
356.89,116.0
356.96,93.0
357.02,101.0
357.08,99.0
357.15,103.0
357.21,105.0
357.27,88.0
357.34,96.0
357.4,104.0
357.46,98.0
357.52,99.0
357.59,95.0
357.65,95.0
357.71,106.0
357.78,115.0
357.84,82.0
357.9,63.0
357.97,82.0
358.03,80.0
358.09,75.0
358.15,89.0
358.22,98.0
358.28,95.0
358.34,77.0
358.41,84.0
358.47,87.0
358.53,78.0
358.6,78.0
358.66,54.0
358.72,66.0
358.78,91.0
358.85,73.0
358.91,76.0
358.97,66.0
359.04,66.0
359.1,75.0
359.16,65.0
359.23,68.0
359.29,83.0
359.35,81.0
359.41,82.0
359.48,68.0
359.54,70.0
359.6,65.0
359.67,54.0
359.73,75.0
359.79,90.0
359.86,90.0
359.92,83.0
359.98,81.0
360.04,91.0
360.11,86.0
360.17,89.0
360.23,92.0
360.3,105.0
360.36,98.0
360.42,94.0
360.49,107.0
360.55,102.0
360.61,118.0
360.67,91.0
360.74,92.0
360.8,91.0
360.86,73.0
360.93,78.0
360.99,76.0
361.05,92.0
361.12,66.0
361.18,67.0
361.24,77.0
361.3,88.0
361.37,76.0
361.43,84.0
361.49,93.0
361.56,74.0
361.62,79.0
361.68,73.0
361.75,72.0
361.81,80.0
361.87,92.0
361.93,73.0
362.0,119.0
362.06,88.0
362.12,76.0
362.19,83.0
362.25,81.0
362.31,77.0
362.38,85.0
362.44,88.0
362.5,85.0
362.56,112.0
362.63,114.0
362.69,93.0
362.75,89.0
362.82,110.0
362.88,115.0
362.94,107.0
363.01,101.0
363.07,107.0
363.13,106.0
363.19,136.0
363.26,126.0
363.32,109.0
363.38,125.0
363.45,126.0
363.51,140.0
363.57,119.0
363.64,109.0
363.7,111.0
363.76,127.0
363.82,120.0
363.89,126.0
363.95,117.0
364.01,110.0
364.08,128.0
364.14,134.0
364.2,137.0
364.27,147.0
364.33,139.0
364.39,162.0
364.45,163.0
364.52,130.0
364.58,152.0
364.64,159.0
364.71,137.0
364.77,132.0
364.83,125.0
364.9,112.0
364.96,107.0
365.02,114.0
365.08,119.0
365.15,105.0
365.21,107.0
365.27,123.0
365.34,122.0
365.4,133.0
365.46,132.0
365.53,141.0
365.59,151.0
365.65,114.0
365.71,128.0
365.78,126.0
365.84,121.0
365.9,140.0
365.97,111.0
366.03,118.0
366.09,148.0
366.16,134.0
366.22,107.0
366.28,105.0
366.34,105.0
366.41,98.0
366.47,95.0
366.53,101.0
366.6,109.0
366.66,104.0
366.72,112.0
366.79,112.0
366.85,103.0
366.91,108.0
366.97,100.0
367.04,97.0
367.1,85.0
367.16,95.0
367.23,95.0
367.29,63.0
367.35,59.0
367.42,72.0
367.48,81.0
367.54,75.0
367.6,85.0
367.67,64.0
367.73,63.0
367.79,77.0
367.86,98.0
367.92,90.0
367.98,95.0
368.05,92.0
368.11,98.0
368.17,99.0
368.23,92.0
368.3,78.0
368.36,77.0
368.42,90.0
368.49,79.0
368.55,109.0
368.61,95.0
368.68,86.0
368.74,85.0
368.8,67.0
368.86,85.0
368.93,90.0
368.99,72.0
369.05,68.0
369.12,76.0
369.18,86.0
369.24,68.0
369.31,75.0
369.37,54.0
369.43,70.0
369.49,65.0
369.56,42.0
369.62,40.0
369.68,57.0
369.75,46.0
369.81,42.0
369.87,44.0
369.94,40.0
370.0,54.0
370.06,24.0
370.12,44.0
370.19,63.0
370.25,37.0
370.31,49.0
370.38,30.0
370.44,51.0
370.5,55.0
370.57,46.0
370.63,40.0
370.69,50.0
370.75,65.0
370.82,74.0
370.88,60.0
370.94,48.0
371.01,54.0
371.07,81.0
371.13,53.0
371.2,46.0
371.26,44.0
371.32,24.0
371.38,37.0
371.45,25.0
371.51,32.0
371.57,30.0
371.64,13.0
371.7,44.0
371.76,8.0
371.83,23.0
371.89,57.0
371.95,49.0
372.01,50.0
372.08,59.0
372.14,55.0
372.2,59.0
372.27,73.0
372.33,55.0
372.39,58.0
372.46,54.0
372.52,40.0
372.58,49.0
372.64,46.0
372.71,45.0
372.77,47.0
372.83,26.0
372.9,15.0
372.96,28.0
373.02,51.0
373.09,54.0
373.15,44.0
373.21,35.0
373.27,46.0
373.34,54.0
373.4,37.0
373.46,33.0
373.53,21.0
373.59,47.0
373.65,37.0
373.72,65.0
373.78,63.0
373.84,46.0
373.9,53.0
373.97,58.0
374.03,76.0
374.09,70.0
374.16,61.0
374.22,52.0
374.28,63.0
374.35,72.0
374.41,103.0
374.47,106.0
374.53,113.0
374.6,111.0
374.66,110.0
374.72,126.0
374.79,107.0
374.85,122.0
374.91,113.0
374.98,96.0
375.04,109.0
375.1,117.0
375.16,122.0
375.23,109.0
375.29,129.0
375.35,116.0
375.42,108.0
375.48,123.0
375.54,120.0
375.61,104.0
375.67,106.0
375.73,117.0
375.79,109.0
375.86,116.0
375.92,130.0
375.98,122.0
376.05,118.0
376.11,125.0
376.17,117.0
376.24,124.0
376.3,138.0
376.36,136.0
376.42,126.0
376.49,138.0
376.55,145.0
376.61,138.0
376.68,147.0
376.74,138.0
376.8,140.0
376.87,117.0
376.93,117.0
376.99,140.0
377.05,156.0
377.12,151.0
377.18,154.0
377.24,155.0
377.31,147.0
377.37,153.0
377.43,164.0
377.5,154.0
377.56,168.0
377.62,174.0
377.68,145.0
377.75,160.0
377.81,155.0
377.87,158.0
377.94,162.0
378.0,172.0
378.06,167.0
378.13,165.0
378.19,197.0
378.25,187.0
378.31,194.0
378.38,188.0
378.44,191.0
378.5,189.0
378.57,194.0
378.63,198.0
378.69,187.0
378.76,192.0
378.82,180.0
378.88,203.0
378.94,200.0
379.01,204.0
379.07,204.0
379.13,199.0
379.2,210.0
379.26,210.0
379.32,229.0
379.39,227.0
379.45,216.0
379.51,200.0
379.57,187.0
379.64,192.0
379.7,207.0
379.76,222.0
379.83,231.0
379.89,232.0
379.95,220.0
380.02,199.0
380.08,222.0
380.14,212.0
380.2,209.0
380.27,221.0
380.33,211.0
380.39,215.0
380.46,210.0
380.52,224.0
380.58,214.0
380.65,228.0
380.71,203.0
380.77,227.0
380.83,214.0
380.9,194.0
380.96,201.0
381.02,195.0
381.09,208.0
381.15,193.0
381.21,209.0
381.28,213.0
381.34,202.0
381.4,210.0
381.46,194.0
381.53,172.0
381.59,179.0
381.65,197.0
381.72,181.0
381.78,174.0
381.84,188.0
381.91,172.0
381.97,177.0
382.03,175.0
382.09,192.0
382.16,184.0
382.22,167.0
382.28,180.0
382.35,165.0
382.41,176.0
382.47,173.0
382.54,169.0
382.6,164.0
382.66,170.0
382.72,179.0
382.79,177.0
382.85,153.0
382.91,161.0
382.98,147.0
383.04,133.0
383.1,142.0
383.17,140.0
383.23,128.0
383.29,128.0
383.35,122.0
383.42,125.0
383.48,126.0
383.54,102.0
383.61,127.0
383.67,122.0
383.73,123.0
383.8,128.0
383.86,116.0
383.92,107.0
383.98,104.0
384.05,97.0
384.11,95.0
384.17,92.0
384.24,99.0
384.3,96.0
384.36,92.0
384.43,85.0
384.49,90.0
384.55,83.0
384.61,68.0
384.68,81.0
384.74,58.0
384.8,68.0
384.87,58.0
384.93,55.0
384.99,74.0
385.06,67.0
385.12,67.0
385.18,55.0
385.24,47.0
385.31,48.0
385.37,37.0
385.43,47.0
385.5,86.0
385.56,74.0
385.62,69.0
385.69,49.0
385.75,30.0
385.81,37.0
385.87,46.0
385.94,48.0
386.0,49.0
386.06,53.0
386.13,32.0
386.19,37.0
386.25,15.0
386.32,9.0
386.38,1.0
386.44,21.0
386.5,41.0
386.57,9.0
386.63,1.0
386.69,4.0
386.76,10.0
386.82,11.0
386.88,7.0
386.95,15.0
387.01,23.0
387.07,26.0
387.13,29.0
387.2,44.0
387.26,44.0
387.32,24.0
387.39,15.0
387.45,14.0
387.51,27.0
387.58,39.0
387.64,38.0
387.7,55.0
387.76,38.0
387.83,41.0
387.89,31.0
387.95,53.0
388.02,58.0
388.08,27.0
388.14,38.0
388.21,42.0
388.27,40.0
388.33,32.0
388.39,27.0
388.46,56.0
388.52,44.0
388.58,45.0
388.65,52.0
388.71,30.0
388.77,51.0
388.84,48.0
388.9,37.0
388.96,50.0
389.02,51.0
389.09,48.0
389.15,47.0
389.21,48.0
389.28,59.0
389.34,56.0
389.4,54.0
389.47,38.0
389.53,64.0
389.59,64.0
389.65,71.0
389.72,84.0
389.78,66.0
389.84,77.0
389.91,62.0
389.97,60.0
390.03,52.0
390.1,52.0
390.16,65.0
390.22,75.0
390.28,75.0
390.35,70.0
390.41,68.0
390.47,93.0
390.54,90.0
390.6,74.0
390.66,84.0
390.73,86.0
390.79,83.0
390.85,79.0
390.91,74.0
390.98,72.0
391.04,79.0
391.1,89.0
391.17,85.0
391.23,78.0
391.29,81.0
391.36,84.0
391.42,85.0
391.48,66.0
391.54,76.0
391.61,83.0
391.67,86.0
391.73,72.0
391.8,88.0
391.86,92.0
391.92,80.0
391.99,67.0
392.05,68.0
392.11,77.0
392.17,77.0
392.24,77.0
392.3,89.0
392.36,77.0
392.43,84.0
392.49,80.0
392.55,95.0
392.62,85.0
392.68,95.0
392.74,106.0
392.8,125.0
392.87,123.0
392.93,106.0
392.99,111.0
393.06,107.0
393.12,118.0
393.18,133.0
393.25,140.0
393.31,140.0
393.37,114.0
393.43,141.0
393.5,140.0
393.56,135.0
393.62,120.0
393.69,119.0
393.75,122.0
393.81,121.0
393.88,127.0
393.94,121.0
394.0,126.0
394.06,121.0
394.13,125.0
394.19,138.0
394.25,121.0
394.32,129.0
394.38,120.0
394.44,121.0
394.51,114.0
394.57,126.0
394.63,108.0
394.69,110.0
394.76,105.0
394.82,99.0
394.88,110.0
394.95,106.0
395.01,112.0
395.07,124.0
395.14,121.0
395.2,125.0
395.26,129.0
395.32,129.0
395.39,132.0
395.45,149.0
395.51,156.0
395.58,144.0
395.64,141.0
395.7,149.0
395.77,147.0
395.83,151.0
395.89,155.0
395.95,158.0
396.02,165.0
396.08,167.0
396.14,165.0
396.21,161.0
396.27,156.0
396.33,137.0
396.4,148.0
396.46,158.0
396.52,126.0
396.58,137.0
396.65,136.0
396.71,159.0
396.77,186.0
396.84,164.0
396.9,148.0
396.96,160.0
397.03,156.0
397.09,152.0
397.15,137.0
397.21,140.0
397.28,151.0
397.34,140.0
397.4,140.0
397.47,160.0
397.53,172.0
397.59,175.0
397.66,151.0
397.72,179.0
397.78,177.0
397.84,175.0
397.91,197.0
397.97,174.0
398.03,165.0
398.1,162.0
398.16,168.0
398.22,173.0
398.29,173.0
398.35,188.0
398.41,169.0
398.47,151.0
398.54,164.0
398.6,173.0
398.66,184.0
398.73,162.0
398.79,180.0
398.85,172.0
398.92,181.0
398.98,174.0
399.04,172.0
399.1,169.0
399.17,180.0
399.23,176.0
399.29,184.0
399.36,164.0
399.42,153.0
399.48,151.0
399.55,165.0
399.61,169.0
399.67,153.0
399.73,150.0
399.8,171.0
399.86,169.0
399.92,158.0
399.99,182.0
400.05,172.0
400.11,153.0
400.18,179.0
400.24,177.0
400.3,177.0
400.36,180.0
400.43,170.0
400.49,163.0
400.55,168.0
400.62,171.0
400.68,161.0
400.74,156.0
400.81,162.0
400.87,159.0
400.93,127.0
400.99,137.0
401.06,151.0
401.12,159.0
401.18,164.0
401.25,141.0
401.31,144.0
401.37,137.0
401.44,154.0
401.5,158.0
401.56,162.0
401.62,171.0
401.69,180.0
401.75,188.0
401.81,184.0
401.88,159.0
401.94,173.0
402.0,179.0
402.07,170.0
402.13,166.0
402.19,175.0
402.25,176.0
402.32,169.0
402.38,171.0
402.44,173.0
402.51,163.0
402.57,158.0
402.63,195.0
402.7,173.0
402.76,166.0
402.82,180.0
402.88,180.0
402.95,162.0
403.01,142.0
403.07,169.0
403.14,162.0
403.2,165.0
403.26,178.0
403.33,184.0
403.39,189.0
403.45,180.0
403.51,194.0
403.58,182.0
403.64,182.0
403.7,177.0
403.77,182.0
403.83,206.0
403.89,196.0
403.96,206.0
404.02,204.0
404.08,197.0
404.14,199.0
404.21,198.0
404.27,208.0
404.33,228.0
404.4,224.0
404.46,214.0
404.52,228.0
404.59,211.0
404.65,229.0
404.71,220.0
404.77,218.0
404.84,221.0
404.9,208.0
404.96,203.0
405.03,211.0
405.09,202.0
405.15,218.0
405.22,212.0
405.28,209.0
405.34,193.0
405.4,190.0
405.47,208.0
405.53,208.0
405.59,191.0
405.66,193.0
405.72,213.0
405.78,209.0
405.85,191.0
405.91,195.0
405.97,187.0
406.03,211.0
406.1,186.0
406.16,185.0
406.22,209.0
406.29,208.0
406.35,195.0
406.41,190.0
406.48,160.0
406.54,180.0
406.6,181.0
406.66,179.0
406.73,173.0
406.79,171.0
406.85,161.0
406.92,160.0
406.98,167.0
407.04,143.0
407.11,148.0
407.17,157.0
407.23,156.0
407.29,137.0
407.36,128.0
407.42,154.0
407.48,136.0
407.55,118.0
407.61,123.0
407.67,114.0
407.74,95.0
407.8,103.0
407.86,112.0
407.92,111.0
407.99,111.0
408.05,93.0
408.11,103.0
408.18,95.0
408.24,97.0
408.3,85.0
408.37,85.0
408.43,80.0
408.49,82.0
408.55,76.0
408.62,89.0
408.68,90.0
408.74,85.0
408.81,78.0
408.87,78.0
408.93,86.0
409.0,82.0
409.06,79.0
409.12,85.0
409.18,109.0
409.25,92.0
409.31,66.0
409.37,85.0
409.44,60.0
409.5,71.0
409.56,49.0
409.63,41.0
409.69,48.0
409.75,29.0
409.81,21.0
409.88,38.0
409.94,41.0
410.0,19.0
410.07,9.0
410.13,37.0
410.19,40.0
410.26,5.0
410.32,-8.0
410.38,-10.0
410.44,-8.0
410.51,-5.0
410.57,-2.0
410.63,-14.0
410.7,-8.0
410.76,-11.0
410.82,-16.0
410.89,16.0
410.95,-4.0
411.01,2.0
411.07,1.0
411.14,-17.0
411.2,-3.0
411.26,-20.0
411.33,-14.0
411.39,-22.0
411.45,-31.0
411.52,-18.0
411.58,-30.0
411.64,-33.0
411.7,-40.0
411.77,-20.0
411.83,-26.0
411.89,-11.0
411.96,-14.0
412.02,-33.0
412.08,-16.0
412.15,-29.0
412.21,-33.0
412.27,-47.0
412.33,-23.0
412.4,-24.0
412.46,-16.0
412.52,-13.0
412.59,0.0
412.65,-11.0
412.71,-19.0
412.78,-7.0
412.84,-21.0
412.9,-20.0
412.96,-19.0
413.03,-17.0
413.09,-35.0
413.15,-6.0
413.22,-2.0
413.28,-11.0
413.34,-18.0
413.41,2.0
413.47,-4.0
413.53,-4.0
413.59,-19.0
413.66,-10.0
413.72,-4.0
413.78,-17.0
413.85,-12.0
413.91,-16.0
413.97,-28.0
414.04,-18.0
414.1,-4.0
414.16,-6.0
414.22,-12.0
414.29,-11.0
414.35,-13.0
414.41,-10.0
414.48,-14.0
414.54,-12.0
414.6,-16.0
414.67,-4.0
414.73,7.0
414.79,-3.0
414.85,-2.0
414.92,15.0
414.98,29.0
415.04,18.0
415.11,-9.0
415.17,25.0
415.23,22.0
415.3,58.0
415.36,49.0
415.42,30.0
415.48,41.0
415.55,40.0
415.61,52.0
415.67,35.0
415.74,53.0
415.8,54.0
415.86,69.0
415.93,73.0
415.99,65.0
416.05,66.0
416.11,80.0
416.18,90.0
416.24,61.0
416.3,57.0
416.37,77.0
416.43,95.0
416.49,100.0
416.56,94.0
416.62,106.0
416.68,111.0
416.74,108.0
416.81,90.0
416.87,76.0
416.93,85.0
417.0,94.0
417.06,111.0
417.12,94.0
417.19,83.0
417.25,90.0
417.31,96.0
417.37,108.0
417.44,121.0
417.5,116.0
417.56,121.0
417.63,126.0
417.69,113.0
417.75,105.0
417.82,82.0
417.88,109.0
417.94,107.0
418.0,88.0
418.07,95.0
418.13,96.0
418.19,101.0
418.26,105.0
418.32,115.0
418.38,118.0
418.45,110.0
418.51,121.0
418.57,128.0
418.63,135.0
418.7,131.0
418.76,147.0
418.82,147.0
418.89,156.0
418.95,169.0
419.01,157.0
419.08,170.0
419.14,178.0
419.2,178.0
419.26,182.0
419.33,190.0
419.39,187.0
419.45,195.0
419.52,204.0
419.58,208.0
419.64,191.0
419.71,172.0
419.77,187.0
419.83,205.0
419.89,189.0
419.96,204.0
420.02,217.0
420.08,228.0
420.15,219.0
420.21,231.0
420.27,226.0
420.34,223.0
420.4,240.0
420.46,229.0
420.52,241.0
420.59,228.0
420.65,238.0
420.71,234.0
420.78,226.0
420.84,224.0
420.9,219.0
420.97,230.0
421.03,215.0
421.09,192.0
421.15,193.0
421.22,220.0
421.28,223.0
421.34,224.0
421.41,230.0
421.47,204.0
421.53,201.0
421.6,201.0
421.66,200.0
421.72,205.0
421.78,190.0
421.85,199.0
421.91,181.0
421.97,190.0
422.04,200.0
422.1,183.0
422.16,177.0
422.23,182.0
422.29,168.0
422.35,162.0
422.41,166.0
422.48,167.0
422.54,153.0
422.6,178.0
422.67,200.0
422.73,179.0
422.79,168.0
422.86,176.0
422.92,169.0
422.98,157.0
423.04,152.0
423.11,161.0
423.17,176.0
423.23,148.0
423.3,143.0
423.36,140.0
423.42,137.0
423.49,132.0
423.55,140.0
423.61,135.0
423.67,134.0
423.74,127.0
423.8,144.0
423.86,163.0
423.93,130.0
423.99,127.0
424.05,122.0
424.12,129.0
424.18,119.0
424.24,126.0
424.3,130.0
424.37,135.0
424.43,121.0
424.49,106.0
424.56,94.0
424.62,108.0
424.68,95.0
424.75,104.0
424.81,98.0
424.87,80.0
424.93,85.0
425.0,85.0
425.06,73.0
425.12,81.0
425.19,80.0
425.25,69.0
425.31,49.0
425.38,61.0
425.44,69.0
425.5,63.0
425.56,76.0
425.63,52.0
425.69,60.0
425.75,47.0
425.82,37.0
425.88,41.0
425.94,39.0
426.01,56.0
426.07,67.0
426.13,56.0
426.19,47.0
426.26,53.0
426.32,49.0
426.38,35.0
426.45,40.0
426.51,29.0
426.57,49.0
426.64,40.0
426.7,65.0
426.76,68.0
426.82,70.0
426.89,76.0
426.95,73.0
427.01,43.0
427.08,56.0
427.14,69.0
427.2,62.0
427.27,57.0
427.33,62.0
427.39,49.0
427.45,47.0
427.52,22.0
427.58,36.0
427.64,31.0
427.71,16.0
427.77,22.0
427.83,23.0
427.9,14.0
427.96,9.0
428.02,14.0
428.08,13.0
428.15,19.0
428.21,24.0
428.27,11.0
428.34,25.0
428.4,34.0
428.46,31.0
428.53,33.0
428.59,18.0
428.65,38.0
428.71,38.0
428.78,19.0
428.84,26.0
428.9,40.0
428.97,61.0
429.03,47.0
429.09,35.0
429.16,47.0
429.22,41.0
429.28,46.0
429.34,53.0
429.41,62.0
429.47,50.0
429.53,69.0
429.6,71.0
429.66,76.0
429.72,79.0
429.79,84.0
429.85,76.0
429.91,59.0
429.97,73.0
430.04,80.0
430.1,80.0
430.16,87.0
430.23,75.0
430.29,73.0
430.35,77.0
430.42,88.0
430.48,91.0
430.54,98.0
430.6,93.0
430.67,115.0
430.73,109.0
430.79,98.0
430.86,103.0
430.92,113.0
430.98,120.0
431.05,120.0
431.11,96.0
431.17,102.0
431.23,91.0
431.3,94.0
431.36,102.0
431.42,105.0
431.49,101.0
431.55,116.0
431.61,128.0
431.68,128.0
431.74,127.0
431.8,130.0
431.86,129.0
431.93,142.0
431.99,138.0
432.05,160.0
432.12,171.0
432.18,166.0
432.24,174.0
432.31,168.0
432.37,164.0
432.43,187.0
432.49,166.0
432.56,170.0
432.62,163.0
432.68,176.0
432.75,187.0
432.81,168.0
432.87,164.0
432.94,170.0
433.0,164.0
433.06,156.0
433.12,145.0
433.19,168.0
433.25,167.0
433.31,175.0
433.38,168.0
433.44,158.0
433.5,158.0
433.57,176.0
433.63,173.0
433.69,181.0
433.75,167.0
433.82,172.0
433.88,168.0
433.94,174.0
434.01,187.0
434.07,193.0
434.13,174.0
434.2,176.0
434.26,176.0
434.32,157.0
434.38,161.0
434.45,160.0
434.51,153.0
434.57,138.0
434.64,146.0
434.7,163.0
434.76,154.0
434.83,162.0
434.89,147.0
434.95,149.0
435.01,160.0
435.08,164.0
435.14,178.0
435.2,172.0
435.27,169.0
435.33,161.0
435.39,169.0
435.46,155.0
435.52,158.0
435.58,172.0
435.64,167.0
435.71,167.0
435.77,167.0
435.83,156.0
435.9,165.0
435.96,173.0
436.02,169.0
436.09,164.0
436.15,164.0
436.21,161.0
436.27,173.0
436.34,167.0
436.4,151.0
436.46,152.0
436.53,157.0
436.59,175.0
436.65,158.0
436.72,150.0
436.78,153.0
436.84,164.0
436.9,161.0
436.97,163.0
437.03,167.0
437.09,162.0
437.16,165.0
437.22,154.0
437.28,140.0
437.35,136.0
437.41,155.0
437.47,150.0
437.53,143.0
437.6,137.0
437.66,141.0
437.72,151.0
437.79,145.0
437.85,149.0
437.91,129.0
437.98,131.0
438.04,123.0
438.1,132.0
438.16,128.0
438.23,124.0
438.29,117.0
438.35,115.0
438.42,135.0
438.48,132.0
438.54,123.0
438.61,124.0
438.67,118.0
438.73,116.0
438.79,113.0
438.86,105.0
438.92,102.0
438.98,90.0
439.05,85.0
439.11,81.0
439.17,98.0
439.24,94.0
439.3,97.0
439.36,98.0
439.42,85.0
439.49,84.0
439.55,74.0
439.61,74.0
439.68,106.0
439.74,90.0
439.8,82.0
439.87,78.0
439.93,88.0
439.99,92.0
440.05,79.0
440.12,84.0
440.18,95.0
440.24,85.0
440.31,71.0
440.37,102.0
440.43,72.0
440.5,78.0
440.56,80.0
440.62,85.0
440.68,87.0
440.75,79.0
440.81,86.0
440.87,94.0
440.94,107.0
441.0,113.0
441.06,94.0
441.13,93.0
441.19,105.0
441.25,71.0
441.31,62.0
441.38,91.0
441.44,95.0
441.5,116.0
441.57,106.0
441.63,105.0
441.69,96.0
441.76,117.0
441.82,90.0
441.88,95.0
441.94,113.0
442.01,113.0
442.07,90.0
442.13,91.0
442.2,76.0
442.26,86.0
442.32,74.0
442.39,88.0
442.45,106.0
442.51,111.0
442.57,93.0
442.64,93.0
442.7,110.0
442.76,111.0
442.83,110.0
442.89,131.0
442.95,129.0
443.02,120.0
443.08,143.0
443.14,129.0
443.2,128.0
443.27,107.0
443.33,104.0
443.39,107.0
443.46,117.0
443.52,140.0
443.58,107.0
443.65,100.0
443.71,119.0
443.77,110.0
443.83,113.0
443.9,117.0
443.96,126.0
444.02,113.0
444.09,93.0
444.15,102.0
444.21,100.0
444.28,124.0
444.34,118.0
444.4,99.0
444.46,101.0
444.53,120.0
444.59,104.0
444.65,102.0
444.72,117.0
444.78,115.0
444.84,120.0
444.91,122.0
444.97,111.0
445.03,118.0
445.09,115.0
445.16,121.0
445.22,107.0
445.28,129.0
445.35,150.0
445.41,144.0
445.47,150.0
445.54,160.0
445.6,153.0
445.66,164.0
445.72,153.0
445.79,141.0
445.85,150.0
445.91,149.0
445.98,171.0
446.04,170.0
446.1,166.0
446.17,158.0
446.23,158.0
446.29,157.0
446.35,190.0
446.42,177.0
446.48,186.0
446.54,196.0
446.61,162.0
446.67,169.0
446.73,164.0
446.8,178.0
446.86,184.0
446.92,178.0
446.98,179.0
447.05,167.0
447.11,168.0
447.17,175.0
447.24,159.0
447.3,179.0
447.36,187.0
447.43,204.0
447.49,204.0
447.55,210.0
447.61,200.0
447.68,197.0
447.74,206.0
447.8,198.0
447.87,177.0
447.93,183.0
447.99,175.0
448.06,171.0
448.12,178.0
448.18,183.0
448.24,181.0
448.31,184.0
448.37,191.0
448.43,183.0
448.5,196.0
448.56,183.0
448.62,187.0
448.69,202.0
448.75,189.0
448.81,194.0
448.87,195.0
448.94,223.0
449.0,212.0
449.06,229.0
449.13,215.0
449.19,218.0
449.25,201.0
449.32,207.0
449.38,205.0
449.44,192.0
449.5,194.0
449.57,197.0
449.63,175.0
449.69,180.0
449.76,181.0
449.82,171.0
449.88,175.0
449.95,164.0
450.01,171.0
450.07,168.0
450.13,144.0
450.2,167.0
450.26,167.0
450.32,160.0
450.39,151.0
450.45,134.0
450.51,139.0
450.58,137.0
450.64,121.0
450.7,123.0
450.76,109.0
450.83,95.0
450.89,109.0
450.95,101.0
451.02,85.0
451.08,86.0
451.14,92.0
451.21,97.0
451.27,68.0
451.33,83.0
451.39,82.0
451.46,91.0
451.52,88.0
451.58,76.0
451.65,70.0
451.71,65.0
451.77,78.0
451.84,80.0
451.9,65.0
451.96,62.0
452.02,62.0
452.09,70.0
452.15,48.0
452.21,32.0
452.28,59.0
452.34,28.0
452.4,78.0
452.47,79.0
452.53,76.0
452.59,55.0
452.65,71.0
452.72,77.0
452.78,62.0
452.84,58.0
452.91,62.0
452.97,87.0
453.03,99.0
453.1,85.0
453.16,90.0
453.22,78.0
453.28,101.0
453.35,99.0
453.41,102.0
453.47,116.0
453.54,104.0
453.6,84.0
453.66,80.0
453.73,91.0
453.79,96.0
453.85,87.0
453.91,98.0
453.98,114.0
454.04,107.0
454.1,108.0
454.17,111.0
454.23,118.0
454.29,118.0
454.36,122.0
454.42,136.0
454.48,128.0
454.54,113.0
454.61,104.0
454.67,113.0
454.73,114.0
454.8,101.0
454.86,114.0
454.92,104.0
454.99,105.0
455.05,115.0
455.11,122.0
455.17,133.0
455.24,120.0
455.3,130.0
455.36,129.0
455.43,124.0
455.49,130.0
455.55,113.0
455.62,124.0
455.68,127.0
455.74,115.0
455.8,115.0
455.87,121.0
455.93,118.0
455.99,128.0
456.06,120.0
456.12,137.0
456.18,131.0
456.25,117.0
456.31,134.0
456.37,118.0
456.43,131.0
456.5,137.0
456.56,129.0
456.62,125.0
456.69,116.0
456.75,129.0
456.81,131.0
456.88,121.0
456.94,140.0
457.0,112.0
457.06,123.0
457.13,130.0
457.19,134.0
457.25,134.0
457.32,120.0
457.38,134.0
457.44,150.0
457.51,143.0
457.57,160.0
457.63,148.0
457.69,169.0
457.76,168.0
457.82,154.0
457.88,152.0
457.95,149.0
458.01,162.0
458.07,148.0
458.14,159.0
458.2,159.0
458.26,161.0
458.32,159.0
458.39,160.0
458.45,140.0
458.51,157.0
458.58,139.0
458.64,121.0
458.7,151.0
458.77,159.0
458.83,151.0
458.89,155.0
458.95,156.0
459.02,138.0
459.08,135.0
459.14,146.0
459.21,162.0
459.27,143.0
459.33,148.0
459.4,156.0
459.46,153.0
459.52,169.0
459.58,153.0
459.65,161.0
459.71,159.0
459.77,149.0
459.84,171.0
459.9,151.0
459.96,161.0
460.03,173.0
460.09,170.0
460.15,168.0
460.21,174.0
460.28,174.0
460.34,181.0
460.4,199.0
460.47,193.0
460.53,173.0
460.59,182.0
460.66,186.0
460.72,204.0
460.78,176.0
460.84,178.0
460.91,188.0
460.97,195.0
461.03,204.0
461.1,208.0
461.16,205.0
461.22,216.0
461.29,215.0
461.35,217.0
461.41,206.0
461.47,197.0
461.54,199.0
461.6,224.0
461.66,229.0
461.73,200.0
461.79,203.0
461.85,224.0
461.92,227.0
461.98,212.0
462.04,217.0
462.1,218.0
462.17,227.0
462.23,215.0
462.29,211.0
462.36,198.0
462.42,198.0
462.48,198.0
462.55,199.0
462.61,198.0
462.67,186.0
462.73,185.0
462.8,188.0
462.86,203.0
462.92,194.0
462.99,175.0
463.05,186.0
463.11,193.0
463.18,190.0
463.24,196.0
463.3,189.0
463.36,190.0
463.43,167.0
463.49,158.0
463.55,166.0
463.62,195.0
463.68,176.0
463.74,175.0
463.81,183.0
463.87,184.0
463.93,183.0
463.99,187.0
464.06,200.0
464.12,179.0
464.18,180.0
464.25,168.0
464.31,171.0
464.37,168.0
464.44,157.0
464.5,189.0
464.56,182.0
464.62,176.0
464.69,176.0
464.75,165.0
464.81,172.0
464.88,177.0
464.94,162.0
465.0,179.0
465.07,181.0
465.13,175.0
465.19,183.0
465.25,177.0
465.32,188.0
465.38,189.0
465.44,192.0
465.51,182.0
465.57,169.0
465.63,156.0
465.7,152.0
465.76,146.0
465.82,152.0
465.88,139.0
465.95,150.0
466.01,154.0
466.07,120.0
466.14,131.0
466.2,130.0
466.26,157.0
466.33,134.0
466.39,153.0
466.45,169.0
466.51,157.0
466.58,137.0
466.64,133.0
466.7,116.0
466.77,121.0
466.83,142.0
466.89,146.0
466.96,139.0
467.02,142.0
467.08,131.0
467.14,134.0
467.21,137.0
467.27,119.0
467.33,120.0
467.4,129.0
467.46,107.0
467.52,96.0
467.59,93.0
467.65,85.0
467.71,68.0
467.77,68.0
467.84,55.0
467.9,45.0
467.96,57.0
468.03,61.0
468.09,50.0
468.15,45.0
468.22,58.0
468.28,59.0
468.34,69.0
468.4,75.0
468.47,58.0
468.53,69.0
468.59,51.0
468.66,51.0
468.72,43.0
468.78,61.0
468.85,74.0
468.91,65.0
468.97,68.0
469.03,58.0
469.1,56.0
469.16,45.0
469.22,72.0
469.29,43.0
469.35,58.0
469.41,40.0
469.48,51.0
469.54,47.0
469.6,25.0
469.66,37.0
469.73,36.0
469.79,48.0
469.85,50.0
469.92,51.0
469.98,53.0
470.04,43.0
470.11,61.0
470.17,47.0
470.23,53.0
470.29,35.0
470.36,50.0
470.42,49.0
470.48,40.0
470.55,48.0
470.61,43.0
470.67,63.0
470.74,78.0
470.8,80.0
470.86,76.0
470.92,89.0
470.99,82.0
471.05,92.0
471.11,84.0
471.18,93.0
471.24,72.0
471.3,87.0
471.37,71.0
471.43,86.0
471.49,73.0
471.55,71.0
471.62,78.0
471.68,83.0
471.74,66.0
471.81,88.0
471.87,82.0
471.93,84.0
472.0,97.0
472.06,101.0
472.12,88.0
472.18,83.0
472.25,91.0
472.31,84.0
472.37,88.0
472.44,94.0
472.5,58.0
472.56,75.0
472.63,79.0
472.69,98.0
472.75,78.0
472.81,77.0
472.88,82.0
472.94,85.0
473.0,91.0
473.07,82.0
473.13,88.0
473.19,96.0
473.26,91.0
473.32,81.0
473.38,101.0
473.44,103.0
473.51,94.0
473.57,84.0
473.63,102.0
473.7,102.0
473.76,102.0
473.82,71.0
473.89,89.0
473.95,93.0
474.01,85.0
474.07,93.0
474.14,115.0
474.2,88.0
474.26,98.0
474.33,106.0
474.39,118.0
474.45,95.0
474.52,94.0
474.58,116.0
474.64,104.0
474.7,110.0
474.77,126.0
474.83,122.0
474.89,107.0
474.96,124.0
475.02,123.0
475.08,133.0
475.15,139.0
475.21,144.0
475.27,139.0
475.33,148.0
475.4,156.0
475.46,154.0
475.52,138.0
475.59,146.0
475.65,126.0
475.71,127.0
475.78,135.0
475.84,122.0
475.9,115.0
475.96,129.0
476.03,133.0
476.09,144.0
476.15,144.0
476.22,129.0
476.28,116.0
476.34,121.0
476.41,121.0
476.47,127.0
476.53,142.0
476.59,137.0
476.66,122.0
476.72,123.0
476.78,120.0
476.85,117.0
476.91,117.0
476.97,142.0
477.04,115.0
477.1,131.0
477.16,117.0
477.22,108.0
477.29,123.0
477.35,126.0
477.41,113.0
477.48,90.0
477.54,102.0
477.6,100.0
477.67,115.0
477.73,107.0
477.79,120.0
477.85,114.0
477.92,98.0
477.98,120.0
478.04,127.0
478.11,99.0
478.17,112.0
478.23,106.0
478.3,117.0
478.36,112.0
478.42,127.0
478.48,116.0
478.55,100.0
478.61,122.0
478.67,104.0
478.74,116.0
478.8,115.0
478.86,102.0
478.93,120.0
478.99,121.0
479.05,135.0
479.11,116.0
479.18,115.0
479.24,136.0
479.3,120.0
479.37,115.0
479.43,109.0
479.49,93.0
479.56,128.0
479.62,127.0
479.68,116.0
479.74,107.0
479.81,137.0
479.87,127.0
479.93,129.0
480.0,131.0
480.06,131.0
480.12,156.0
480.19,134.0
480.25,139.0
480.31,141.0
480.37,140.0
480.44,144.0
480.5,146.0
480.56,138.0
480.63,154.0
480.69,168.0
480.75,161.0
480.82,162.0
480.88,159.0
480.94,149.0
481.0,168.0
481.07,156.0
481.13,162.0
481.19,159.0
481.26,159.0
481.32,165.0
481.38,178.0
481.45,175.0
481.51,171.0
481.57,157.0
481.63,170.0
481.7,165.0
481.76,141.0
481.82,157.0
481.89,154.0
481.95,158.0
482.01,149.0
482.08,160.0
482.14,168.0
482.2,167.0
482.26,178.0
482.33,170.0
482.39,158.0
482.45,150.0
482.52,155.0
482.58,164.0
482.64,153.0
482.71,149.0
482.77,143.0
482.83,152.0
482.89,156.0
482.96,165.0
483.02,179.0
483.08,160.0
483.15,182.0
483.21,170.0
483.27,170.0
483.34,167.0
483.4,168.0
483.46,188.0
483.52,171.0
483.59,169.0
483.65,184.0
483.71,173.0
483.78,188.0
483.84,175.0
483.9,171.0
483.97,175.0
484.03,179.0
484.09,183.0
484.15,143.0
484.22,137.0
484.28,146.0
484.34,146.0
484.41,135.0
484.47,128.0
484.53,144.0
484.6,133.0
484.66,139.0
484.72,143.0
484.78,125.0
484.85,134.0
484.91,136.0
484.97,155.0
485.04,137.0
485.1,132.0
485.16,142.0
485.23,128.0
485.29,136.0
485.35,142.0
485.41,140.0
485.48,139.0
485.54,140.0
485.6,150.0
485.67,170.0
485.73,168.0
485.79,165.0
485.86,146.0
485.92,150.0
485.98,138.0
486.04,142.0
486.11,131.0
486.17,137.0
486.23,146.0
486.3,138.0
486.36,147.0
486.42,129.0
486.49,148.0
486.55,136.0
486.61,134.0
486.67,137.0
486.74,122.0
486.8,117.0
486.86,122.0
486.93,125.0
486.99,135.0
487.05,136.0
487.12,148.0
487.18,154.0
487.24,148.0
487.3,137.0
487.37,144.0
487.43,156.0
487.49,168.0
487.56,172.0
487.62,163.0
487.68,175.0
487.75,163.0
487.81,167.0
487.87,175.0
487.93,172.0
488.0,189.0
488.06,176.0
488.12,161.0
488.19,163.0
488.25,170.0
488.31,164.0
488.38,169.0
488.44,172.0
488.5,189.0
488.56,206.0
488.63,182.0
488.69,176.0
488.75,190.0
488.82,176.0
488.88,174.0
488.94,191.0
489.01,177.0
489.07,174.0
489.13,176.0
489.19,205.0
489.26,196.0
489.32,204.0
489.38,181.0
489.45,184.0
489.51,191.0
489.57,189.0
489.64,181.0
489.7,187.0
489.76,186.0
489.82,150.0
489.89,163.0
489.95,171.0
490.01,186.0
490.08,186.0
490.14,191.0
490.2,181.0
490.27,170.0
490.33,169.0
490.39,161.0
490.45,174.0
490.52,148.0
490.58,173.0
490.64,159.0
490.71,170.0
490.77,173.0
490.83,143.0
490.9,162.0
490.96,159.0
491.02,158.0
491.08,140.0
491.15,151.0
491.21,159.0
491.27,154.0
491.34,156.0
491.4,160.0
491.46,131.0
491.53,135.0
491.59,138.0
491.65,120.0
491.71,119.0
491.78,112.0
491.84,109.0
491.9,131.0
491.97,121.0
492.03,117.0
492.09,135.0
492.16,138.0
492.22,136.0
492.28,104.0
492.34,110.0
492.41,112.0
492.47,98.0
492.53,100.0
492.6,93.0
492.66,58.0
492.72,50.0
492.79,59.0
492.85,51.0
492.91,39.0
492.97,21.0
493.04,39.0
493.1,32.0
493.16,21.0
493.23,12.0
493.29,11.0
493.35,18.0
493.42,5.0
493.48,26.0
493.54,24.0
493.6,45.0
493.67,29.0
493.73,1.0
493.79,27.0
493.86,39.0
493.92,12.0
493.98,5.0
494.05,25.0
494.11,33.0
494.17,40.0
494.23,49.0
494.3,42.0
494.36,37.0
494.42,29.0
494.49,31.0
494.55,7.0
494.61,-2.0
494.68,13.0
494.74,25.0
494.8,17.0
494.86,3.0
494.93,-43.0
494.99,-27.0
495.05,-19.0
495.12,-32.0
495.18,-24.0
495.24,-24.0
495.31,-37.0
495.37,-30.0
495.43,-39.0
495.49,-34.0
495.56,-49.0
495.62,-48.0
495.68,-58.0
495.75,-30.0
495.81,-46.0
495.87,-68.0
495.94,-63.0
496.0,-59.0
496.06,-71.0
496.12,-74.0
496.19,-53.0
496.25,-44.0
496.31,-37.0
496.38,-46.0
496.44,-49.0
496.5,-36.0
496.57,-40.0
496.63,-10.0
496.69,-28.0
496.75,-30.0
496.82,-30.0
496.88,-35.0
496.94,-16.0
497.01,-10.0
497.07,-13.0
497.13,-10.0
497.2,-11.0
497.26,-4.0
497.32,-4.0
497.38,12.0
497.45,7.0
497.51,2.0
497.57,-2.0
497.64,18.0
497.7,16.0
497.76,31.0
497.83,27.0
497.89,18.0
497.95,17.0
498.01,36.0
498.08,14.0
498.14,20.0
498.2,34.0
498.27,52.0
498.33,42.0
498.39,55.0
498.46,62.0
498.52,53.0
498.58,38.0
498.64,48.0
498.71,62.0
498.77,73.0
498.83,53.0
498.9,83.0
498.96,46.0
499.02,54.0
499.09,38.0
499.15,45.0
499.21,51.0
499.27,43.0
499.34,60.0
499.4,53.0
499.46,66.0
499.53,65.0
499.59,82.0
499.65,73.0
499.72,66.0
499.78,50.0
499.84,48.0
499.9,59.0
499.97,87.0
500.03,106.0
500.09,96.0
500.16,84.0
500.22,79.0
500.28,91.0
500.35,98.0
500.41,98.0
500.47,101.0
500.53,88.0
500.6,118.0
500.66,130.0
500.72,107.0
500.79,111.0
500.85,111.0
500.91,88.0
500.98,115.0
501.04,100.0
501.1,130.0
501.16,130.0
501.23,111.0
501.29,134.0
501.35,129.0
501.42,140.0
501.48,140.0
501.54,128.0
501.61,118.0
501.67,133.0
501.73,128.0
501.79,115.0
501.86,125.0
501.92,132.0
501.98,143.0
502.05,162.0
502.11,157.0
502.17,153.0
502.24,144.0
502.3,152.0
502.36,166.0
502.42,156.0
502.49,155.0
502.55,148.0
502.61,150.0
502.68,155.0
502.74,167.0
502.8,171.0
502.87,156.0
502.93,191.0
502.99,168.0
503.05,182.0
503.12,186.0
503.18,192.0
503.24,167.0
503.31,188.0
503.37,194.0
503.43,209.0
503.5,188.0
503.56,180.0
503.62,185.0
503.68,176.0
503.75,188.0
503.81,187.0
503.87,209.0
503.94,211.0
504.0,210.0
504.06,224.0
504.13,216.0
504.19,211.0
504.25,218.0
504.31,230.0
504.38,221.0
504.44,213.0
504.5,215.0
504.57,214.0
504.63,210.0
504.69,199.0
504.76,210.0
504.82,234.0
504.88,233.0
504.94,246.0
505.01,232.0
505.07,238.0
505.13,244.0
505.2,238.0
505.26,232.0
505.32,210.0
505.39,219.0
505.45,208.0
505.51,211.0
505.57,213.0
505.64,179.0
505.7,210.0
505.76,201.0
505.83,201.0
505.89,199.0
505.95,191.0
506.02,199.0
506.08,213.0
506.14,208.0
506.2,224.0
506.27,207.0
506.33,200.0
506.39,235.0
506.46,229.0
506.52,239.0
506.58,239.0
506.65,211.0
506.71,223.0
506.77,210.0
506.83,229.0
506.9,205.0
506.96,207.0
507.02,217.0
507.09,207.0
507.15,185.0
507.21,194.0
507.28,193.0
507.34,201.0
507.4,194.0
507.46,206.0
507.53,211.0
507.59,209.0
507.65,207.0
507.72,201.0
507.78,197.0
507.84,214.0
507.91,220.0
507.97,216.0
508.03,219.0
508.09,214.0
508.16,238.0
508.22,214.0
508.28,208.0
508.35,202.0
508.41,204.0
508.47,189.0
508.54,166.0
508.6,186.0
508.66,203.0
508.72,202.0
508.79,185.0
508.85,203.0
508.91,182.0
508.98,197.0
509.04,197.0
509.1,184.0
509.17,173.0
509.23,170.0
509.29,197.0
509.35,187.0
509.42,173.0
509.48,191.0
509.54,166.0
509.61,187.0
509.67,185.0
509.73,182.0
509.8,184.0
509.86,178.0
509.92,184.0
509.98,173.0
510.05,176.0
510.11,166.0
510.17,156.0
510.24,142.0
510.3,151.0
510.36,161.0
510.43,145.0
510.49,151.0
510.55,158.0
510.61,137.0
510.68,128.0
510.74,134.0
510.8,126.0
510.87,131.0
510.93,137.0
510.99,133.0
511.06,143.0
511.12,127.0
511.18,132.0
511.24,145.0
511.31,123.0
511.37,126.0
511.43,131.0
511.5,112.0
511.56,107.0
511.62,115.0
511.69,118.0
511.75,117.0
511.81,137.0
511.87,120.0
511.94,124.0
512.0,128.0
512.06,130.0
512.13,132.0
512.19,100.0
512.25,109.0
512.32,123.0
512.38,110.0
512.44,127.0
512.5,113.0
512.57,137.0
512.63,121.0
512.69,111.0
512.76,130.0
512.82,131.0
512.88,145.0
512.95,143.0
513.01,134.0
513.07,153.0
513.13,144.0
513.2,150.0
513.26,161.0
513.32,155.0
513.39,149.0
513.45,150.0
513.51,158.0
513.58,159.0
513.64,141.0
513.7,158.0
513.76,166.0
513.83,158.0
513.89,168.0
513.95,173.0
514.02,171.0
514.08,172.0
514.14,182.0
514.21,186.0
514.27,175.0
514.33,171.0
514.39,169.0
514.46,169.0
514.52,180.0
514.58,192.0
514.65,191.0
514.71,189.0
514.77,191.0
514.84,199.0
514.9,202.0
514.96,192.0
515.02,196.0
515.09,194.0
515.15,192.0
515.21,193.0
515.28,178.0
515.34,185.0
515.4,209.0
515.47,204.0
515.53,217.0
515.59,216.0
515.65,216.0
515.72,203.0
515.78,223.0
515.84,200.0
515.91,210.0
515.97,199.0
516.03,210.0
516.1,204.0
516.16,207.0
516.22,213.0
516.28,204.0
516.35,206.0
516.41,217.0
516.47,217.0
516.54,230.0
516.6,214.0
516.66,211.0
516.73,225.0
516.79,224.0
516.85,232.0
516.91,206.0
516.98,210.0
517.04,199.0
517.1,212.0
517.17,209.0
517.23,207.0
517.29,204.0
517.36,188.0
517.42,203.0
517.48,200.0
517.54,180.0
517.61,181.0
517.67,182.0
517.73,191.0
517.8,192.0
517.86,181.0
517.92,203.0
517.99,179.0
518.05,189.0
518.11,175.0
518.17,167.0
518.24,178.0
518.3,203.0
518.36,194.0
518.43,172.0
518.49,176.0
518.55,184.0
518.62,185.0
518.68,189.0
518.74,177.0
518.8,169.0
518.87,153.0
518.93,157.0
518.99,171.0
519.06,152.0
519.12,147.0
519.18,164.0
519.25,164.0
519.31,161.0
519.37,166.0
519.43,152.0
519.5,163.0
519.56,148.0
519.62,153.0
519.69,152.0
519.75,149.0
519.81,139.0
519.88,143.0
519.94,150.0
520.0,165.0
520.06,145.0
520.13,142.0
520.19,146.0
520.25,141.0
520.32,144.0
520.38,147.0
520.44,130.0
520.51,151.0
520.57,125.0
520.63,133.0
520.69,144.0
520.76,135.0
520.82,140.0
520.88,153.0
520.95,156.0
521.01,163.0
521.07,156.0
521.14,157.0
521.2,157.0
521.26,158.0
521.32,163.0
521.39,174.0
521.45,165.0
521.51,170.0
521.58,173.0
521.64,155.0
521.7,152.0
521.77,141.0
521.83,146.0
521.89,159.0
521.95,152.0
522.02,126.0
522.08,130.0
522.14,142.0
522.21,136.0
522.27,159.0
522.33,150.0
522.4,162.0
522.46,148.0
522.52,154.0
522.58,131.0
522.65,131.0
522.71,146.0
522.77,135.0
522.84,147.0
522.9,147.0
522.96,146.0
523.03,133.0
523.09,131.0
523.15,139.0
523.21,124.0
523.28,149.0
523.34,132.0
523.4,140.0
523.47,139.0
523.53,133.0
523.59,134.0
523.66,111.0
523.72,116.0
523.78,121.0
523.84,128.0
523.91,108.0
523.97,117.0
524.03,111.0
524.1,113.0
524.16,119.0
524.22,112.0
524.29,130.0
524.35,115.0
524.41,109.0
524.47,99.0
524.54,102.0
524.6,84.0
524.66,81.0
524.73,90.0
524.79,75.0
524.85,84.0
524.92,71.0
524.98,73.0
525.04,80.0
525.1,82.0
525.17,63.0
525.23,60.0
525.29,59.0
525.36,67.0
525.42,63.0
525.48,84.0
525.55,71.0
525.61,82.0
525.67,71.0
525.73,78.0
525.8,89.0
525.86,97.0
525.92,92.0
525.99,71.0
526.05,78.0
526.11,70.0
526.18,75.0
526.24,81.0
526.3,75.0
526.36,70.0
526.43,68.0
526.49,84.0
526.55,74.0
526.62,60.0
526.68,51.0
526.74,61.0
526.81,76.0
526.87,71.0
526.93,68.0
526.99,58.0
527.06,56.0
527.12,57.0
527.18,80.0
527.25,82.0
527.31,67.0
527.37,77.0
527.44,76.0
527.5,52.0
527.56,67.0
527.62,64.0
527.69,72.0
527.75,82.0
527.81,72.0
527.88,81.0
527.94,98.0
528.0,85.0
528.07,74.0
528.13,83.0
528.19,92.0
528.25,94.0
528.32,82.0
528.38,81.0
528.44,76.0
528.51,78.0
528.57,74.0
528.63,92.0
528.7,85.0
528.76,82.0
528.82,82.0
528.88,67.0
528.95,98.0
529.01,71.0
529.07,70.0
529.14,64.0
529.2,67.0
529.26,74.0
529.33,78.0
529.39,96.0
529.45,89.0
529.51,69.0
529.58,82.0
529.64,73.0
529.7,90.0
529.77,93.0
529.83,104.0
529.89,93.0
529.96,107.0
530.02,120.0
530.08,145.0
530.14,141.0
530.21,147.0
530.27,162.0
530.33,162.0
530.4,162.0
530.46,162.0
530.52,171.0
530.59,172.0
530.65,176.0
530.71,177.0
530.77,183.0
530.84,198.0
530.9,204.0
530.96,190.0
531.03,184.0
531.09,176.0
531.15,175.0
531.22,179.0
531.28,165.0
531.34,192.0
531.4,196.0
531.47,191.0
531.53,189.0
531.59,212.0
531.66,210.0
531.72,189.0
531.78,173.0
531.85,180.0
531.91,178.0
531.97,192.0
532.03,208.0
532.1,199.0
532.16,192.0
532.22,196.0
532.29,199.0
532.35,200.0
532.41,203.0
532.48,189.0
532.54,201.0
532.6,200.0
532.66,214.0
532.73,230.0
532.79,217.0
532.85,223.0
532.92,226.0
532.98,209.0
533.04,220.0
533.11,213.0
533.17,189.0
533.23,194.0
533.29,189.0
533.36,193.0
533.42,211.0
533.48,199.0
533.55,183.0
533.61,188.0
533.67,181.0
533.74,187.0
533.8,180.0
533.86,174.0
533.92,185.0
533.99,187.0
534.05,202.0
534.11,193.0
534.18,182.0
534.24,193.0
534.3,196.0
534.37,177.0
534.43,183.0
534.49,177.0
534.55,182.0
534.62,177.0
534.68,164.0
534.74,149.0
534.81,170.0
534.87,184.0
534.93,177.0
535.0,162.0
535.06,181.0
535.12,174.0
535.18,184.0
535.25,177.0
535.31,164.0
535.37,158.0
535.44,135.0
535.5,136.0
535.56,149.0
535.63,154.0
535.69,131.0
535.75,150.0
535.81,153.0
535.88,138.0
535.94,130.0
536.0,126.0
536.07,115.0
536.13,122.0
536.19,130.0
536.26,133.0
536.32,118.0
536.38,125.0
536.44,112.0
536.51,126.0
536.57,130.0
536.63,149.0
536.7,145.0
536.76,145.0
536.82,131.0
536.89,129.0
536.95,145.0
537.01,136.0
537.07,139.0
537.14,130.0
537.2,119.0
537.26,126.0
537.33,126.0
537.39,116.0
537.45,123.0
537.52,107.0
537.58,151.0
537.64,136.0
537.7,137.0
537.77,151.0
537.83,144.0
537.89,150.0
537.96,152.0
538.02,139.0
538.08,170.0
538.15,158.0
538.21,156.0
538.27,165.0
538.33,157.0
538.4,170.0
538.46,171.0
538.52,166.0
538.59,152.0
538.65,171.0
538.71,188.0
538.78,185.0
538.84,183.0
538.9,184.0
538.96,168.0
539.03,162.0
539.09,163.0
539.15,145.0
539.22,157.0
539.28,145.0
539.34,151.0
539.41,156.0
539.47,134.0
539.53,113.0
539.59,122.0
539.66,140.0
539.72,113.0
539.78,119.0
539.85,126.0
539.91,135.0
539.97,137.0
540.04,126.0
540.1,135.0
540.16,107.0
540.22,107.0
540.29,130.0
540.35,122.0
540.41,125.0
540.48,134.0
540.54,156.0
540.6,133.0
540.67,136.0
540.73,142.0
540.79,148.0
540.85,147.0
540.92,145.0
540.98,152.0
541.04,129.0
541.11,139.0
541.17,136.0
541.23,131.0
541.3,137.0
541.36,123.0
541.42,144.0
541.48,163.0
541.55,187.0
541.61,163.0
541.67,136.0
541.74,139.0
541.8,128.0
541.86,144.0
541.93,150.0
541.99,149.0
542.05,175.0
542.11,167.0
542.18,183.0
542.24,186.0
542.3,171.0
542.37,158.0
542.43,141.0
542.49,144.0
542.56,170.0
542.62,155.0
542.68,164.0
542.74,168.0
542.81,159.0
542.87,175.0
542.93,162.0
543.0,180.0
543.06,162.0
543.12,154.0
543.19,167.0
543.25,166.0
543.31,122.0
543.37,131.0
543.44,150.0
543.5,122.0
543.56,136.0
543.63,144.0
543.69,148.0
543.75,141.0
543.82,144.0
543.88,136.0
543.94,130.0
544.0,140.0
544.07,126.0
544.13,132.0
544.19,139.0
544.26,135.0
544.32,115.0
544.38,130.0
544.45,130.0
544.51,126.0
544.57,106.0
544.63,125.0
544.7,115.0
544.76,109.0
544.82,128.0
544.89,120.0
544.95,119.0
545.01,139.0
545.08,141.0
545.14,111.0
545.2,114.0
545.26,137.0
545.33,144.0
545.39,137.0
545.45,120.0
545.52,141.0
545.58,131.0
545.64,144.0
545.71,158.0
545.77,159.0
545.83,155.0
545.89,155.0
545.96,161.0
546.02,144.0
546.08,145.0
546.15,124.0
546.21,147.0
546.27,164.0
546.34,137.0
546.4,151.0
546.46,144.0
546.52,139.0
546.59,130.0
546.65,139.0
546.71,119.0
546.78,137.0
546.84,138.0
546.9,134.0
546.97,146.0
547.03,126.0
547.09,126.0
547.15,138.0
547.22,130.0
547.28,134.0
547.34,133.0
547.41,139.0
547.47,144.0
547.53,143.0
547.6,143.0
547.66,125.0
547.72,148.0
547.78,157.0
547.85,162.0
547.91,159.0
547.97,164.0
548.04,175.0
548.1,159.0
548.16,147.0
548.23,157.0
548.29,148.0
548.35,159.0
548.41,155.0
548.48,158.0
548.54,150.0
548.6,155.0
548.67,144.0
548.73,166.0
548.79,144.0
548.86,127.0
548.92,136.0
548.98,155.0
549.04,147.0
549.11,162.0
549.17,156.0
549.23,146.0
549.3,151.0
549.36,158.0
549.42,165.0
549.49,162.0
549.55,163.0
549.61,159.0
549.67,147.0
549.74,135.0
549.8,132.0
549.86,145.0
549.93,135.0
549.99,140.0
550.05,159.0
550.12,155.0
550.18,172.0
550.24,145.0
550.3,156.0
550.37,139.0
550.43,140.0
550.49,133.0
550.56,130.0
550.62,128.0
550.68,149.0
550.75,149.0
550.81,140.0
550.87,128.0
550.93,100.0
551.0,121.0
551.06,81.0
551.12,93.0
551.19,95.0
551.25,98.0
551.31,91.0
551.38,76.0
551.44,71.0
551.5,59.0
551.56,59.0
551.63,72.0
551.69,49.0
551.75,73.0
551.82,106.0
551.88,71.0
551.94,70.0
552.01,68.0
552.07,47.0
552.13,29.0
552.19,38.0
552.26,39.0
552.32,38.0
552.38,28.0
552.45,54.0
552.51,43.0
552.57,32.0
552.64,48.0
552.7,31.0
552.76,19.0
552.82,27.0
552.89,21.0
552.95,20.0
553.01,22.0
553.08,0.0
553.14,-2.0
553.2,-10.0
553.27,2.0
553.33,5.0
553.39,3.0
553.45,37.0
553.52,27.0
553.58,-1.0
553.64,25.0
553.71,31.0
553.77,22.0
553.83,33.0
553.9,36.0
553.96,48.0
554.02,57.0
554.08,54.0
554.15,57.0
554.21,58.0
554.27,33.0
554.34,51.0
554.4,66.0
554.46,59.0
554.53,55.0
554.59,52.0
554.65,69.0
554.71,74.0
554.78,79.0
554.84,70.0
554.9,77.0
554.97,77.0
555.03,73.0
555.09,78.0
555.16,75.0
555.22,93.0
555.28,80.0
555.34,80.0
555.41,77.0
555.47,74.0
555.53,85.0
555.6,65.0
555.66,63.0
555.72,73.0
555.79,99.0
555.85,104.0
555.91,94.0
555.97,89.0
556.04,95.0
556.1,101.0
556.16,102.0
556.23,103.0
556.29,89.0
556.35,91.0
556.42,84.0
556.48,78.0
556.54,89.0
556.6,94.0
556.67,107.0
556.73,112.0
556.79,106.0
556.86,117.0
556.92,125.0
556.98,123.0
557.05,124.0
557.11,115.0
557.17,98.0
557.23,115.0
557.3,117.0
557.36,130.0
557.42,141.0
557.49,124.0
557.55,117.0
557.61,119.0
557.68,126.0
557.74,113.0
557.8,113.0
557.86,128.0
557.93,117.0
557.99,135.0
558.05,129.0
558.12,136.0
558.18,135.0
558.24,116.0
558.31,124.0
558.37,131.0
558.43,135.0
558.49,124.0
558.56,126.0
558.62,140.0
558.68,148.0
558.75,153.0
558.81,149.0
558.87,136.0
558.94,122.0
559.0,158.0
559.06,148.0
559.12,154.0
559.19,146.0
559.25,149.0
559.31,153.0
559.38,159.0
559.44,123.0
559.5,135.0
559.57,151.0
559.63,161.0
559.69,151.0
559.75,144.0
559.82,148.0
559.88,138.0
559.94,168.0
560.01,173.0
560.07,176.0
560.13,191.0
560.2,187.0
560.26,189.0
560.32,184.0
560.38,179.0
560.45,162.0
560.51,154.0
560.57,157.0
560.64,168.0
560.7,161.0
560.76,166.0
560.83,197.0
560.89,176.0
560.95,176.0
561.01,184.0
561.08,168.0
561.14,170.0
561.2,188.0
561.27,186.0
561.33,161.0
561.39,170.0
561.46,186.0
561.52,195.0
561.58,173.0
561.64,189.0
561.71,172.0
561.77,167.0
561.83,183.0
561.9,203.0
561.96,201.0
562.02,188.0
562.09,168.0
562.15,174.0
562.21,162.0
562.27,159.0
562.34,157.0
562.4,152.0
562.46,170.0
562.53,154.0
562.59,145.0
562.65,146.0
562.72,145.0
562.78,160.0
562.84,169.0
562.9,149.0
562.97,181.0
563.03,190.0
563.09,167.0
563.16,173.0
563.22,173.0
563.28,172.0
563.35,181.0
563.41,195.0
563.47,178.0
563.53,191.0
563.6,181.0
563.66,203.0
563.72,190.0
563.79,184.0
563.85,185.0
563.91,220.0
563.98,191.0
564.04,195.0
564.1,212.0
564.16,214.0
564.23,225.0
564.29,226.0
564.35,219.0
564.42,223.0
564.48,228.0
564.54,239.0
564.61,231.0
564.67,219.0
564.73,234.0
564.79,220.0
564.86,237.0
564.92,247.0
564.98,230.0
565.05,238.0
565.11,251.0
565.17,253.0
565.24,255.0
565.3,262.0
565.36,245.0
565.42,254.0
565.49,246.0
565.55,244.0
565.61,231.0
565.68,221.0
565.74,229.0
565.8,218.0
565.87,217.0
565.93,232.0
565.99,225.0
566.05,216.0
566.12,234.0
566.18,234.0
566.24,221.0
566.31,210.0
566.37,219.0
566.43,223.0
566.5,227.0
566.56,236.0
566.62,223.0
566.68,209.0
566.75,214.0
566.81,218.0
566.87,208.0
566.94,205.0
567.0,200.0
567.06,207.0
567.13,201.0
567.19,211.0
567.25,196.0
567.31,195.0
567.38,189.0
567.44,198.0
567.5,198.0
567.57,180.0
567.63,200.0
567.69,188.0
567.76,187.0
567.82,173.0
567.88,188.0
567.94,182.0
568.01,181.0
568.07,187.0
568.13,179.0
568.2,185.0
568.26,179.0
568.32,176.0
568.39,153.0
568.45,168.0
568.51,177.0
568.57,174.0
568.64,170.0
568.7,176.0
568.76,162.0
568.83,149.0
568.89,143.0
568.95,142.0
569.02,160.0
569.08,158.0
569.14,149.0
569.2,153.0
569.27,154.0
569.33,158.0
569.39,145.0
569.46,143.0
569.52,165.0
569.58,146.0
569.65,132.0
569.71,130.0
569.77,135.0
569.83,134.0
569.9,128.0
569.96,134.0
570.02,139.0
570.09,142.0
570.15,146.0
570.21,148.0
570.28,142.0
570.34,139.0
570.4,137.0
570.46,151.0
570.53,167.0
570.59,163.0
570.65,161.0
570.72,167.0
570.78,171.0
570.84,164.0
570.91,171.0
570.97,171.0
571.03,183.0
571.09,181.0
571.16,163.0
571.22,175.0
571.28,181.0
571.35,191.0
571.41,193.0
571.47,193.0
571.54,210.0
571.6,196.0
571.66,200.0
571.72,212.0
571.79,219.0
571.85,208.0
571.91,220.0
571.98,236.0
572.04,235.0
572.1,233.0
572.17,224.0
572.23,238.0
572.29,239.0
572.35,237.0
572.42,215.0
572.48,209.0
572.54,198.0
572.61,230.0
572.67,241.0
572.73,242.0
572.8,215.0
572.86,212.0
572.92,216.0
572.98,210.0
573.05,222.0
573.11,242.0
573.17,230.0
573.24,203.0
573.3,176.0
573.36,182.0
573.43,196.0
573.49,190.0
573.55,187.0
573.61,197.0
573.68,198.0
573.74,217.0
573.8,223.0
573.87,211.0
573.93,206.0
573.99,208.0
574.06,210.0
574.12,234.0
574.18,238.0
574.24,224.0
574.31,209.0
574.37,215.0
574.43,220.0
574.5,212.0
574.56,213.0
574.62,207.0
574.69,208.0
574.75,190.0
574.81,186.0
574.87,194.0
574.94,178.0
575.0,200.0
575.06,201.0
575.13,188.0
575.19,204.0
575.25,188.0
575.32,175.0
575.38,190.0
575.44,185.0
575.5,184.0
575.57,179.0
575.63,190.0
575.69,207.0
575.76,201.0
575.82,186.0
575.88,176.0
575.95,173.0
576.01,148.0
576.07,151.0
576.13,135.0
576.2,150.0
576.26,168.0
576.32,151.0
576.39,152.0
576.45,144.0
576.51,149.0
576.58,142.0
576.64,147.0
576.7,149.0
576.76,142.0
576.83,151.0
576.89,134.0
576.95,137.0
577.02,116.0
577.08,118.0
577.14,99.0
577.21,98.0
577.27,95.0
577.33,101.0
577.39,94.0
577.46,79.0
577.52,61.0
577.58,63.0
577.65,63.0
577.71,55.0
577.77,64.0
577.84,68.0
577.9,70.0
577.96,74.0
578.02,88.0
578.09,78.0
578.15,52.0
578.21,55.0
578.28,48.0
578.34,71.0
578.4,69.0
578.47,60.0
578.53,47.0
578.59,53.0
578.65,39.0
578.72,27.0
578.78,18.0
578.84,47.0
578.91,44.0
578.97,21.0
579.03,30.0
579.1,16.0
579.16,29.0
579.22,29.0
579.28,23.0
579.35,57.0
579.41,52.0
579.47,68.0
579.54,54.0
579.6,54.0
579.66,47.0
579.73,48.0
579.79,57.0
579.85,58.0
579.91,58.0
579.98,47.0
580.04,47.0
580.1,51.0
580.17,63.0
580.23,74.0
580.29,62.0
580.36,57.0
580.42,56.0
580.48,58.0
580.54,58.0
580.61,43.0
580.67,48.0
580.73,57.0
580.8,66.0
580.86,50.0
580.92,52.0
580.99,73.0
581.05,63.0
581.11,54.0
581.17,55.0
581.24,44.0
581.3,48.0
581.36,61.0
581.43,69.0
581.49,59.0
581.55,54.0
581.62,58.0
581.68,52.0
581.74,67.0
581.8,48.0
581.87,60.0
581.93,74.0
581.99,58.0
582.06,65.0
582.12,60.0
582.18,80.0
582.25,72.0
582.31,94.0
582.37,74.0
582.43,91.0
582.5,98.0
582.56,102.0
582.62,83.0
582.69,87.0
582.75,81.0
582.81,80.0
582.88,100.0
582.94,84.0
583.0,99.0
583.06,88.0
583.13,107.0
583.19,81.0
583.25,101.0
583.32,106.0
583.38,82.0
583.44,98.0
583.51,101.0
583.57,93.0
583.63,86.0
583.69,85.0
583.76,96.0
583.82,82.0
583.88,80.0
583.95,78.0
584.01,63.0
584.07,99.0
584.14,96.0
584.2,103.0
584.26,89.0
584.32,77.0
584.39,97.0
584.45,70.0
584.51,95.0
584.58,91.0
584.64,88.0
584.7,101.0
584.77,74.0
584.83,86.0
584.89,93.0
584.95,92.0
585.02,95.0
585.08,94.0
585.14,90.0
585.21,96.0
585.27,87.0
585.33,72.0
585.4,69.0
585.46,81.0
585.52,84.0
585.58,86.0
585.65,76.0
585.71,89.0
585.77,89.0
585.84,75.0
585.9,95.0
585.96,100.0
586.03,123.0
586.09,128.0
586.15,130.0
586.21,120.0
586.28,139.0
586.34,117.0
586.4,130.0
586.47,131.0
586.53,138.0
586.59,127.0
586.66,119.0
586.72,137.0
586.78,120.0
586.84,118.0
586.91,118.0
586.97,113.0
587.03,114.0
587.1,125.0
587.16,125.0
587.22,134.0
587.29,147.0
587.35,147.0
587.41,151.0
587.47,162.0
587.54,162.0
587.6,157.0
587.66,173.0
587.73,158.0
587.79,172.0
587.85,176.0
587.92,195.0
587.98,192.0
588.04,193.0
588.1,193.0
588.17,190.0
588.23,175.0
588.29,169.0
588.36,185.0
588.42,189.0
588.48,171.0
588.55,177.0
588.61,183.0
588.67,188.0
588.73,178.0
588.8,154.0
588.86,159.0
588.92,182.0
588.99,179.0
589.05,164.0
589.11,151.0
589.18,182.0
589.24,192.0
589.3,187.0
589.36,190.0
589.43,192.0
589.49,187.0
589.55,187.0
589.62,185.0
589.68,186.0
589.74,191.0
589.81,222.0
589.87,219.0
589.93,212.0
589.99,230.0
590.06,234.0
590.12,252.0
590.18,237.0
590.25,244.0
590.31,249.0
590.37,237.0
590.44,248.0
590.5,256.0
590.56,258.0
590.62,250.0
590.69,259.0
590.75,278.0
590.81,256.0
590.88,238.0
590.94,260.0
591.0,243.0
591.07,265.0
591.13,286.0
591.19,267.0
591.25,260.0
591.32,285.0
591.38,253.0
591.44,264.0
591.51,267.0
591.57,269.0
591.63,260.0
591.7,262.0
591.76,267.0
591.82,245.0
591.88,250.0
591.95,271.0
592.01,258.0
592.07,254.0
592.14,266.0
592.2,250.0
592.26,244.0
592.33,231.0
592.39,241.0
592.45,238.0
592.51,226.0
592.58,248.0
592.64,239.0
592.7,233.0
592.77,242.0
592.83,225.0
592.89,213.0
592.96,221.0
593.02,231.0
593.08,215.0
593.14,201.0
593.21,212.0
593.27,186.0
593.33,194.0
593.4,183.0
593.46,204.0
593.52,191.0
593.59,176.0
593.65,179.0
593.71,188.0
593.77,165.0
593.84,149.0
593.9,175.0
593.96,164.0
594.03,148.0
594.09,148.0
594.15,163.0
594.22,161.0
594.28,166.0
594.34,172.0
594.4,134.0
594.47,135.0
594.53,124.0
594.59,124.0
594.66,104.0
594.72,96.0
594.78,93.0
594.85,71.0
594.91,65.0
594.97,65.0
595.03,69.0
595.1,86.0
595.16,79.0
595.22,91.0
595.29,76.0
595.35,62.0
595.41,72.0
595.48,69.0
595.54,62.0
595.6,67.0
595.66,80.0
595.73,69.0
595.79,94.0
595.85,98.0
595.92,100.0
595.98,93.0
596.04,97.0
596.11,98.0
596.17,84.0
596.23,91.0
596.29,76.0
596.36,83.0
596.42,73.0
596.48,73.0
596.55,77.0
596.61,81.0
596.67,68.0
596.74,76.0
596.8,91.0
596.86,82.0
596.92,100.0
596.99,76.0
597.05,83.0
597.11,98.0
597.18,91.0
597.24,90.0
597.3,105.0
597.37,108.0
597.43,99.0
597.49,107.0
597.55,148.0
597.62,129.0
597.68,125.0
597.74,139.0
597.81,120.0
597.87,121.0
597.93,134.0
598.0,130.0
598.06,120.0
598.12,117.0
598.18,108.0
598.25,118.0
598.31,128.0
598.37,117.0
598.44,121.0
598.5,135.0
598.56,126.0
598.63,123.0
598.69,122.0
598.75,125.0
598.81,129.0
598.88,113.0
598.94,100.0
599.0,89.0
599.07,136.0
599.13,134.0
599.19,142.0
599.26,138.0
599.32,124.0
599.38,134.0
599.44,128.0
599.51,138.0
599.57,121.0
599.63,120.0
599.7,135.0
599.76,139.0
599.82,136.0
599.89,137.0
599.95,137.0
600.01,141.0
600.07,172.0
600.14,151.0
600.2,146.0
600.26,154.0
600.33,150.0
600.39,135.0
600.45,120.0
600.52,121.0
600.58,127.0
600.64,144.0
600.7,135.0
600.77,109.0
600.83,118.0
600.89,124.0
600.96,129.0
601.02,128.0
601.08,102.0
601.15,135.0
601.21,131.0
601.27,115.0
601.33,104.0
601.4,105.0
601.46,93.0
601.52,102.0
601.59,115.0
601.65,115.0
601.71,113.0
601.78,124.0
601.84,121.0
601.9,118.0
601.96,105.0
602.03,119.0
602.09,112.0
602.15,87.0
602.22,117.0
602.28,99.0
602.34,105.0
602.41,102.0
602.47,114.0
602.53,104.0
602.59,93.0
602.66,102.0
602.72,78.0
602.78,91.0
602.85,84.0
602.91,75.0
602.97,95.0
603.04,102.0
603.1,94.0
603.16,63.0
603.22,70.0
603.29,69.0
603.35,77.0
603.41,76.0
603.48,63.0
603.54,83.0
603.6,80.0
603.67,59.0
603.73,57.0
603.79,58.0
603.85,44.0
603.92,71.0
603.98,63.0
604.04,65.0
604.11,69.0
604.17,64.0
604.23,74.0
604.3,69.0
604.36,87.0
604.42,58.0
604.48,60.0
604.55,80.0
604.61,72.0
604.67,114.0
604.74,107.0
604.8,96.0
604.86,104.0
604.93,92.0
604.99,119.0
605.05,105.0
605.11,122.0
605.18,118.0
605.24,122.0
605.3,134.0
605.37,131.0
605.43,132.0
605.49,127.0
605.56,146.0
605.62,162.0
605.68,160.0
605.74,157.0
605.81,145.0
605.87,139.0
605.93,135.0
606.0,119.0
606.06,136.0
606.12,146.0
606.19,139.0
606.25,123.0
606.31,143.0
606.37,134.0
606.44,139.0
606.5,138.0
606.56,134.0
606.63,146.0
606.69,152.0
606.75,159.0
606.82,160.0
606.88,148.0
606.94,149.0
607.0,124.0
607.07,135.0
607.13,149.0
607.19,143.0
607.26,117.0
607.32,131.0
607.38,127.0
607.45,128.0
607.51,137.0
607.57,121.0
607.63,116.0
607.7,140.0
607.76,142.0
607.82,129.0
607.89,139.0
607.95,142.0
608.01,149.0
608.08,131.0
608.14,140.0
608.2,149.0
608.26,148.0
608.33,146.0
608.39,135.0
608.45,155.0
608.52,134.0
608.58,120.0
608.64,139.0
608.71,138.0
608.77,127.0
608.83,146.0
608.89,119.0
608.96,123.0
609.02,128.0
609.08,113.0
609.15,121.0
609.21,106.0
609.27,103.0
609.34,106.0
609.4,107.0
609.46,111.0
609.52,99.0
609.59,93.0
609.65,112.0
609.71,108.0
609.78,127.0
609.84,124.0
609.9,119.0
609.97,117.0
610.03,87.0
610.09,102.0
610.15,97.0
610.22,109.0
610.28,106.0
610.34,114.0
610.41,117.0
610.47,132.0
610.53,118.0
610.6,109.0
610.66,137.0
610.72,140.0
610.78,117.0
610.85,106.0
610.91,104.0
610.97,96.0
611.04,91.0
611.1,89.0
611.16,82.0
611.23,67.0
611.29,54.0
611.35,82.0
611.41,73.0
611.48,94.0
611.54,76.0
611.6,90.0
611.67,87.0
611.73,54.0
611.79,53.0
611.86,65.0
611.92,63.0
611.98,63.0
612.04,63.0
612.11,69.0
612.17,61.0
612.23,61.0
612.3,76.0
612.36,66.0
612.42,78.0
612.49,68.0
612.55,62.0
612.61,79.0
612.67,86.0
612.74,74.0
612.8,70.0
612.86,82.0
612.93,105.0
612.99,109.0
613.05,93.0
613.12,87.0
613.18,97.0
613.24,88.0
613.3,88.0
613.37,90.0
613.43,93.0
613.49,110.0
613.56,91.0
613.62,115.0
613.68,113.0
613.75,102.0
613.81,87.0
613.87,91.0
613.93,85.0
614.0,115.0
614.06,117.0
614.12,116.0
614.19,126.0
614.25,123.0
614.31,131.0
614.38,142.0
614.44,142.0
614.5,155.0
614.56,132.0
614.63,133.0
614.69,149.0
614.75,152.0
614.82,154.0
614.88,147.0
614.94,141.0
615.01,156.0
615.07,162.0
615.13,150.0
615.19,152.0
615.26,143.0
615.32,159.0
615.38,167.0
615.45,163.0
615.51,190.0
615.57,164.0
615.64,169.0
615.7,183.0
615.76,183.0
615.82,187.0
615.89,201.0
615.95,205.0
616.01,236.0
616.08,211.0
616.14,208.0
616.2,228.0
616.27,218.0
616.33,222.0
616.39,238.0
616.45,229.0
616.52,252.0
616.58,233.0
616.64,252.0
616.71,250.0
616.77,248.0
616.83,264.0
616.9,270.0
616.96,278.0
617.02,279.0
617.08,266.0
617.15,276.0
617.21,277.0
617.27,268.0
617.34,263.0
617.4,271.0
617.46,266.0
617.53,261.0
617.59,260.0
617.65,257.0
617.71,250.0
617.78,270.0
617.84,250.0
617.9,254.0
617.97,230.0
618.03,237.0
618.09,264.0
618.16,259.0
618.22,259.0
618.28,257.0
618.34,277.0
618.41,256.0
618.47,244.0
618.53,259.0
618.6,255.0
618.66,249.0
618.72,250.0
618.79,252.0
618.85,242.0
618.91,223.0
618.97,238.0
619.04,219.0
619.1,248.0
619.16,251.0
619.23,256.0
619.29,241.0
619.35,240.0
619.42,248.0
619.48,234.0
619.54,219.0
619.6,205.0
619.67,201.0
619.73,208.0
619.79,193.0
619.86,213.0
619.92,206.0
619.98,214.0
620.05,206.0
620.11,187.0
620.17,194.0
620.23,203.0
620.3,209.0
620.36,197.0
620.42,203.0
620.49,203.0
620.55,201.0
620.61,204.0
620.68,184.0
620.74,181.0
620.8,195.0
620.86,193.0
620.93,184.0
620.99,202.0
621.05,194.0
621.12,179.0
621.18,180.0
621.24,168.0
621.31,184.0
621.37,171.0
621.43,159.0
621.49,179.0
621.56,173.0
621.62,168.0
621.68,178.0
621.75,168.0
621.81,184.0
621.87,176.0
621.94,181.0
622.0,185.0
622.06,164.0
622.12,159.0
622.19,159.0
622.25,168.0
622.31,186.0
622.38,179.0
622.44,175.0
622.5,166.0
622.57,200.0
622.63,171.0
622.69,164.0
622.75,153.0
622.82,154.0
622.88,175.0
622.94,162.0
623.01,154.0
623.07,179.0
623.13,180.0
623.2,172.0
623.26,159.0
623.32,162.0
623.38,156.0
623.45,142.0
623.51,142.0
623.57,132.0
623.64,140.0
623.7,131.0
623.76,129.0
623.83,144.0
623.89,148.0
623.95,139.0
624.01,138.0
624.08,135.0
624.14,123.0
624.2,135.0
624.27,135.0
624.33,120.0
624.39,104.0
624.46,121.0
624.52,111.0
624.58,123.0
624.64,120.0
624.71,119.0
624.77,109.0
624.83,109.0
624.9,124.0
624.96,116.0
625.02,116.0
625.09,115.0
625.15,106.0
625.21,95.0
625.27,98.0
625.34,113.0
625.4,106.0
625.46,91.0
625.53,72.0
625.59,99.0
625.65,98.0
625.72,90.0
625.78,107.0
625.84,95.0
625.9,113.0
625.97,97.0
626.03,84.0
626.09,83.0
626.16,82.0
626.22,90.0
626.28,76.0
626.35,60.0
626.41,68.0
626.47,65.0
626.53,66.0
626.6,90.0
626.66,89.0
626.72,78.0
626.79,80.0
626.85,55.0
626.91,64.0
626.98,85.0
627.04,87.0
627.1,104.0
627.16,85.0
627.23,77.0
627.29,87.0
627.35,98.0
627.42,96.0
627.48,78.0
627.54,90.0
627.61,100.0
627.67,99.0
627.73,98.0
627.79,84.0
627.86,91.0
627.92,84.0
627.98,82.0
628.05,80.0
628.11,80.0
628.17,82.0
628.24,88.0
628.3,76.0
628.36,86.0
628.42,88.0
628.49,87.0
628.55,79.0
628.61,91.0
628.68,87.0
628.74,82.0
628.8,83.0
628.87,75.0
628.93,63.0
628.99,58.0
629.05,59.0
629.12,74.0
629.18,74.0
629.24,76.0
629.31,68.0
629.37,65.0
629.43,66.0
629.5,64.0
629.56,55.0
629.62,86.0
629.68,74.0
629.75,65.0
629.81,52.0
629.87,82.0
629.94,83.0
630.0,76.0
630.06,74.0
630.13,65.0
630.19,54.0
630.25,50.0
630.31,63.0
630.38,63.0
630.44,75.0
630.5,88.0
630.57,101.0
630.63,94.0
630.69,86.0
630.76,96.0
630.82,109.0
630.88,104.0
630.94,106.0
631.01,118.0
631.07,128.0
631.13,107.0
631.2,114.0
631.26,125.0
631.32,146.0
631.39,159.0
631.45,183.0
631.51,155.0
631.57,152.0
631.64,154.0
631.7,132.0
631.76,161.0
631.83,146.0
631.89,149.0
631.95,141.0
632.02,175.0
632.08,161.0
632.14,181.0
632.2,175.0
632.27,160.0
632.33,168.0
632.39,171.0
632.46,159.0
632.52,153.0
632.58,157.0
632.65,143.0
632.71,159.0
632.77,153.0
632.83,165.0
632.9,151.0
632.96,152.0
633.02,164.0
633.09,162.0
633.15,183.0
633.21,202.0
633.28,185.0
633.34,181.0
633.4,201.0
633.46,184.0
633.53,193.0
633.59,201.0
633.65,178.0
633.72,180.0
633.78,188.0
633.84,188.0
633.91,168.0
633.97,159.0
634.03,165.0
634.09,174.0
634.16,148.0
634.22,164.0
634.28,173.0
634.35,179.0
634.41,175.0
634.47,164.0
634.54,183.0
634.6,166.0
634.66,157.0
634.72,156.0
634.79,172.0
634.85,162.0
634.91,150.0
634.98,154.0
635.04,158.0
635.1,167.0
635.17,141.0
635.23,140.0
635.29,122.0
635.35,143.0
635.42,138.0
635.48,148.0
635.54,139.0
635.61,137.0
635.67,147.0
635.73,144.0
635.8,117.0
635.86,116.0
635.92,112.0
635.98,104.0
636.05,113.0
636.11,99.0
636.17,120.0
636.24,114.0
636.3,106.0
636.36,103.0
636.43,100.0
636.49,108.0
636.55,104.0
636.61,117.0
636.68,105.0
636.74,116.0
636.8,101.0
636.87,107.0
636.93,88.0
636.99,95.0
637.06,82.0
637.12,76.0
637.18,92.0
637.24,87.0
637.31,87.0
637.37,86.0
637.43,87.0
637.5,80.0
637.56,93.0
637.62,71.0
637.69,80.0
637.75,101.0
637.81,79.0
637.87,75.0
637.94,88.0
638.0,93.0
638.06,94.0
638.13,92.0
638.19,76.0
638.25,108.0
638.32,113.0
638.38,109.0
638.44,124.0
638.5,119.0
638.57,124.0
638.63,120.0
638.69,126.0
638.76,109.0
638.82,102.0
638.88,126.0
638.95,128.0
639.01,123.0
639.07,101.0
639.13,119.0
639.2,117.0
639.26,101.0
639.32,134.0
639.39,107.0
639.45,105.0
639.51,134.0
639.58,115.0
639.64,115.0
639.7,106.0
639.76,124.0
639.83,140.0
639.89,113.0
639.95,112.0
640.02,115.0
640.08,126.0
640.14,132.0
640.21,135.0
640.27,127.0
640.33,123.0
640.39,131.0
640.46,113.0
640.52,109.0
640.58,109.0
640.65,120.0
640.71,154.0
640.77,130.0
640.84,149.0
640.9,134.0
640.96,119.0
641.02,140.0
641.09,145.0
641.15,146.0
641.21,154.0
641.28,150.0
641.34,146.0
641.4,172.0
641.47,165.0
641.53,170.0
641.59,158.0
641.65,143.0
641.72,157.0
641.78,159.0
641.84,167.0
641.91,181.0
641.97,183.0
642.03,188.0
642.1,196.0
642.16,178.0
642.22,183.0
642.28,187.0
642.35,188.0
642.41,197.0
642.47,184.0
642.54,190.0
642.6,191.0
642.66,199.0
642.73,176.0
642.79,178.0
642.85,199.0
642.91,200.0
642.98,212.0
643.04,202.0
643.1,196.0
643.17,194.0
643.23,203.0
643.29,198.0
643.36,193.0
643.42,202.0
643.48,199.0
643.54,198.0
643.61,211.0
643.67,193.0
643.73,197.0
643.8,200.0
643.86,191.0
643.92,208.0
643.99,186.0
644.05,179.0
644.11,188.0
644.17,177.0
644.24,164.0
644.3,169.0
644.36,175.0
644.43,159.0
644.49,170.0
644.55,163.0
644.62,161.0
644.68,157.0
644.74,171.0
644.8,155.0
644.87,156.0
644.93,155.0
644.99,135.0
645.06,155.0
645.12,148.0
645.18,146.0
645.25,142.0
645.31,145.0
645.37,143.0
645.43,166.0
645.5,161.0
645.56,171.0
645.62,143.0
645.69,124.0
645.75,141.0
645.81,136.0
645.88,150.0
645.94,146.0
646.0,161.0
646.06,159.0
646.13,153.0
646.19,166.0
646.25,154.0
646.32,131.0
646.38,144.0
646.44,145.0
646.51,146.0
646.57,147.0
646.63,139.0
646.69,129.0
646.76,135.0
646.82,150.0
646.88,148.0
646.95,126.0
647.01,145.0
647.07,135.0
647.14,148.0
647.2,165.0
647.26,168.0
647.32,155.0
647.39,151.0
647.45,166.0
647.51,164.0
647.58,163.0
647.64,165.0
647.7,157.0
647.77,167.0
647.83,169.0
647.89,166.0
647.95,175.0
648.02,154.0
648.08,151.0
648.14,161.0
648.21,173.0
648.27,183.0
648.33,150.0
648.4,148.0
648.46,163.0
648.52,136.0
648.58,154.0
648.65,184.0
648.71,165.0
648.77,165.0
648.84,171.0
648.9,176.0
648.96,182.0
649.03,162.0
649.09,150.0
649.15,157.0
649.21,159.0
649.28,180.0
649.34,171.0
649.4,172.0
649.47,196.0
649.53,189.0
649.59,175.0
649.66,182.0
649.72,183.0
649.78,202.0
649.84,199.0
649.91,185.0
649.97,192.0
650.03,195.0
650.1,192.0
650.16,196.0
650.22,211.0
650.29,197.0
650.35,192.0
650.41,176.0
650.47,185.0
650.54,168.0
650.6,168.0
650.66,174.0
650.73,162.0
650.79,175.0
650.85,168.0
650.92,163.0
650.98,164.0
651.04,161.0
651.1,155.0
651.17,147.0
651.23,147.0
651.29,134.0
651.36,137.0
651.42,140.0
651.48,120.0
651.55,129.0
651.61,129.0
651.67,126.0
651.73,139.0
651.8,136.0
651.86,146.0
651.92,127.0
651.99,132.0
652.05,119.0
652.11,119.0
652.18,116.0
652.24,129.0
652.3,127.0
652.36,123.0
652.43,101.0
652.49,109.0
652.55,94.0
652.62,82.0
652.68,98.0
652.74,102.0
652.81,97.0
652.87,108.0
652.93,93.0
652.99,92.0
653.06,104.0
653.12,95.0
653.18,93.0
653.25,98.0
653.31,90.0
653.37,83.0
653.44,78.0
653.5,77.0
653.56,95.0
653.62,87.0
653.69,80.0
653.75,87.0
653.81,62.0
653.88,85.0
653.94,83.0
654.0,92.0
654.07,89.0
654.13,77.0
654.19,66.0
654.25,63.0
654.32,67.0
654.38,51.0
654.44,60.0
654.51,60.0
654.57,46.0
654.63,45.0
654.7,56.0
654.76,41.0
654.82,55.0
654.88,80.0
654.95,47.0
655.01,73.0
655.07,79.0
655.14,74.0
655.2,86.0
655.26,54.0
655.33,74.0
655.39,85.0
655.45,63.0
655.51,90.0
655.58,80.0
655.64,81.0
655.7,72.0
655.77,66.0
655.83,76.0
655.89,80.0
655.96,82.0
656.02,84.0
656.08,60.0
656.14,75.0
656.21,101.0
656.27,85.0
656.33,78.0
656.4,64.0
656.46,65.0
656.52,82.0
656.59,57.0
656.65,93.0
656.71,91.0
656.77,85.0
656.84,105.0
656.9,96.0
656.96,99.0
657.03,101.0
657.09,131.0
657.15,105.0
657.22,115.0
657.28,113.0
657.34,92.0
657.4,104.0
657.47,113.0
657.53,131.0
657.59,124.0
657.66,116.0
657.72,109.0
657.78,121.0
657.85,113.0
657.91,120.0
657.97,128.0
658.03,122.0
658.1,119.0
658.16,127.0
658.22,133.0
658.29,150.0
658.35,138.0
658.41,128.0
658.48,137.0
658.54,125.0
658.6,128.0
658.66,157.0
658.73,144.0
658.79,150.0
658.85,153.0
658.92,146.0
658.98,168.0
659.04,161.0
659.11,178.0
659.17,172.0
659.23,176.0
659.29,194.0
659.36,183.0
659.42,176.0
659.48,175.0
659.55,170.0
659.61,169.0
659.67,175.0
659.74,167.0
659.8,196.0
659.86,188.0
659.92,186.0
659.99,212.0
660.05,175.0
660.11,182.0
660.18,180.0
660.24,178.0
660.3,187.0
660.37,176.0
660.43,179.0
660.49,188.0
660.55,192.0
660.62,210.0
660.68,212.0
660.74,193.0
660.81,188.0
660.87,211.0
660.93,197.0
661.0,219.0
661.06,208.0
661.12,211.0
661.18,209.0
661.25,210.0
661.31,215.0
661.37,196.0
661.44,211.0
661.5,176.0
661.56,183.0
661.63,166.0
661.69,166.0
661.75,177.0
661.81,168.0
661.88,165.0
661.94,127.0
662.0,155.0
662.07,151.0
662.13,158.0
662.19,169.0
662.26,135.0
662.32,150.0
662.38,142.0
662.44,130.0
662.51,142.0
662.57,126.0
662.63,151.0
662.7,146.0
662.76,128.0
662.82,122.0
662.89,113.0
662.95,124.0
663.01,116.0
663.07,126.0
663.14,120.0
663.2,140.0
663.26,118.0
663.33,112.0
663.39,115.0
663.45,121.0
663.52,112.0
663.58,117.0
663.64,132.0
663.7,109.0
663.77,88.0
663.83,99.0
663.89,120.0
663.96,122.0
664.02,134.0
664.08,139.0
664.15,131.0
664.21,149.0
664.27,152.0
664.33,148.0
664.4,147.0
664.46,129.0
664.52,133.0
664.59,157.0
664.65,174.0
664.71,166.0
664.78,184.0
664.84,167.0
664.9,168.0
664.96,166.0
665.03,157.0
665.09,156.0
665.15,145.0
665.22,156.0
665.28,158.0
665.34,157.0
665.41,145.0
665.47,142.0
665.53,149.0
665.59,140.0
665.66,131.0
665.72,126.0
665.78,134.0
665.85,106.0
665.91,137.0
665.97,134.0
666.04,109.0
666.1,117.0
666.16,131.0
666.22,140.0
666.29,146.0
666.35,138.0
666.41,135.0
666.48,142.0
666.54,141.0
666.6,154.0
666.67,152.0
666.73,158.0
666.79,154.0
666.85,128.0
666.92,112.0
666.98,124.0
667.04,131.0
667.11,121.0
667.17,118.0
667.23,129.0
667.3,148.0
667.36,137.0
667.42,127.0
667.48,139.0
667.55,126.0
667.61,131.0
667.67,148.0
667.74,159.0
667.8,158.0
667.86,151.0
667.93,161.0
667.99,157.0
668.05,143.0
668.11,124.0
668.18,148.0
668.24,130.0
668.3,149.0
668.37,134.0
668.43,134.0
668.49,152.0
668.56,153.0
668.62,140.0
668.68,135.0
668.74,147.0
668.81,137.0
668.87,151.0
668.93,140.0
669.0,139.0
669.06,140.0
669.12,140.0
669.19,155.0
669.25,139.0
669.31,138.0
669.37,142.0
669.44,129.0
669.5,137.0
669.56,140.0
669.63,131.0
669.69,133.0
669.75,128.0
669.82,126.0
669.88,124.0
669.94,113.0
670.0,94.0
670.07,108.0
670.13,124.0
670.19,118.0
670.26,116.0
670.32,115.0
670.38,124.0
670.45,119.0
670.51,112.0
670.57,123.0
670.63,110.0
670.7,116.0
670.76,96.0
670.82,102.0
670.89,107.0
670.95,124.0
671.01,126.0
671.08,104.0
671.14,115.0
671.2,134.0
671.26,123.0
671.33,134.0
671.39,123.0
671.45,121.0
671.52,142.0
671.58,138.0
671.64,138.0
671.71,139.0
671.77,136.0
671.83,148.0
671.89,157.0
671.96,157.0
672.02,172.0
672.08,159.0
672.15,155.0
672.21,171.0
672.27,162.0
672.34,170.0
672.4,178.0
672.46,196.0
672.52,195.0
672.59,170.0
672.65,184.0
672.71,176.0
672.78,153.0
672.84,146.0
672.9,157.0
672.97,180.0
673.03,181.0
673.09,173.0
673.15,162.0
673.22,161.0
673.28,170.0
673.34,170.0
673.41,169.0
673.47,175.0
673.53,174.0
673.6,175.0
673.66,180.0
673.72,183.0
673.78,186.0
673.85,183.0
673.91,190.0
673.97,210.0
674.04,181.0
674.1,172.0
674.16,199.0
674.23,201.0
674.29,222.0
674.35,208.0
674.41,216.0
674.48,197.0
674.54,201.0
674.6,219.0
674.67,201.0
674.73,186.0
674.79,196.0
674.86,190.0
674.92,188.0
674.98,188.0
675.04,193.0
675.11,191.0
675.17,196.0
675.23,193.0
675.3,186.0
675.36,199.0
675.42,193.0
675.49,192.0
675.55,205.0
675.61,215.0
675.67,214.0
675.74,206.0
675.8,209.0
675.86,180.0
675.93,208.0
675.99,198.0
676.05,190.0
676.12,194.0
676.18,208.0
676.24,223.0
676.3,211.0
676.37,212.0
676.43,227.0
676.49,217.0
676.56,222.0
676.62,226.0
676.68,238.0
676.75,216.0
676.81,232.0
676.87,216.0
676.93,203.0
677.0,194.0
677.06,188.0
677.12,167.0
677.19,189.0
677.25,202.0
677.31,194.0
677.38,198.0
677.44,200.0
677.5,185.0
677.56,191.0
677.63,190.0
677.69,200.0
677.75,195.0
677.82,186.0
677.88,172.0
677.94,175.0
678.01,190.0
678.07,187.0
678.13,181.0
678.19,155.0
678.26,154.0
678.32,173.0
678.38,158.0
678.45,148.0
678.51,131.0
678.57,113.0
678.64,124.0
678.7,114.0
678.76,101.0
678.82,95.0
678.89,90.0
678.95,92.0
679.01,99.0
679.08,85.0
679.14,88.0
679.2,92.0
679.27,69.0
679.33,71.0
679.39,75.0
679.45,79.0
679.52,72.0
679.58,62.0
679.64,67.0
679.71,85.0
679.77,69.0
679.83,70.0
679.9,75.0
679.96,81.0
680.02,68.0
680.08,68.0
680.15,83.0
680.21,76.0
680.27,66.0
680.34,69.0
680.4,75.0
680.46,76.0
680.53,77.0
680.59,64.0
680.65,79.0
680.71,70.0
680.78,54.0
680.84,65.0
680.9,57.0
680.97,50.0
681.03,33.0
681.09,37.0
681.16,37.0
681.22,42.0
681.28,35.0
681.34,47.0
681.41,41.0
681.47,25.0
681.53,26.0
681.6,9.0
681.66,19.0
681.72,23.0
681.79,11.0
681.85,36.0
681.91,35.0
681.97,46.0
682.04,38.0
682.1,39.0
682.16,45.0
682.23,50.0
682.29,48.0
682.35,51.0
682.42,63.0
682.48,59.0
682.54,69.0
682.6,69.0
682.67,65.0
682.73,61.0
682.79,71.0
682.86,63.0
682.92,54.0
682.98,55.0
683.05,53.0
683.11,63.0
683.17,72.0
683.23,82.0
683.3,65.0
683.36,86.0
683.42,104.0
683.49,76.0
683.55,80.0
683.61,90.0
683.68,115.0
683.74,75.0
683.8,82.0
683.86,105.0
683.93,113.0
683.99,100.0
684.05,104.0
684.12,123.0
684.18,104.0
684.24,111.0
684.31,110.0
684.37,122.0
684.43,112.0
684.49,100.0
684.56,107.0
684.62,122.0
684.68,95.0
684.75,91.0
684.81,73.0
684.87,85.0
684.94,78.0
685.0,88.0
685.06,76.0
685.12,65.0
685.19,71.0
685.25,60.0
685.31,53.0
685.38,63.0
685.44,60.0
685.5,66.0
685.57,57.0
685.63,78.0
685.69,79.0
685.75,64.0
685.82,62.0
685.88,62.0
685.94,61.0
686.01,80.0
686.07,86.0
686.13,79.0
686.2,89.0
686.26,63.0
686.32,58.0
686.38,64.0
686.45,68.0
686.51,85.0
686.57,74.0
686.64,87.0
686.7,70.0
686.76,80.0
686.83,87.0
686.89,65.0
686.95,83.0
687.01,88.0
687.08,76.0
687.14,98.0
687.2,84.0
687.27,94.0
687.33,73.0
687.39,73.0
687.46,61.0
687.52,74.0
687.58,67.0
687.64,58.0
687.71,62.0
687.77,68.0
687.83,78.0
687.9,71.0
687.96,77.0
688.02,85.0
688.09,91.0
688.15,90.0
688.21,101.0
688.27,90.0
688.34,107.0
688.4,116.0
688.46,110.0
688.53,107.0
688.59,124.0
688.65,107.0
688.72,106.0
688.78,116.0
688.84,102.0
688.9,108.0
688.97,121.0
689.03,138.0
689.09,149.0
689.16,163.0
689.22,156.0
689.28,156.0
689.35,165.0
689.41,162.0
689.47,176.0
689.53,164.0
689.6,169.0
689.66,179.0
689.72,183.0
689.79,185.0
689.85,181.0
689.91,184.0
689.98,186.0
690.04,181.0
690.1,169.0
690.16,172.0
690.23,197.0
690.29,204.0
690.35,190.0
690.42,194.0
690.48,209.0
690.54,204.0
690.61,197.0
690.67,208.0
690.73,212.0
690.79,215.0
690.86,195.0
690.92,179.0
690.98,199.0
691.05,204.0
691.11,190.0
691.17,196.0
691.24,200.0
691.3,204.0
691.36,188.0
691.42,207.0
691.49,223.0
691.55,219.0
691.61,210.0
691.68,229.0
691.74,211.0
691.8,228.0
691.87,219.0
691.93,242.0
691.99,228.0
692.05,205.0
692.12,233.0
692.18,251.0
692.24,229.0
692.31,251.0
692.37,241.0
692.43,244.0
692.5,257.0
692.56,255.0
692.62,257.0
692.68,248.0
692.75,247.0
692.81,228.0
692.87,227.0
692.94,228.0
693.0,224.0
693.06,257.0
693.13,247.0
693.19,253.0
693.25,245.0
693.31,246.0
693.38,275.0
693.44,267.0
693.5,253.0
693.57,265.0
693.63,265.0
693.69,258.0
693.76,275.0
693.82,277.0
693.88,269.0
693.94,287.0
694.01,296.0
694.07,284.0
694.13,284.0
694.2,281.0
694.26,260.0
694.32,248.0
694.39,244.0
694.45,261.0
694.51,280.0
694.57,274.0
694.64,285.0
694.7,264.0
694.76,255.0
694.83,258.0
694.89,232.0
694.95,246.0
695.02,258.0
695.08,237.0
695.14,234.0
695.2,241.0
695.27,228.0
695.33,228.0
695.39,217.0
695.46,222.0
695.52,203.0
695.58,198.0
695.65,209.0
695.71,215.0
695.77,189.0
695.83,175.0
695.9,190.0
695.96,195.0
696.02,183.0
696.09,172.0
696.15,165.0
696.21,153.0
696.28,144.0
696.34,160.0
696.4,163.0
696.46,157.0
696.53,170.0
696.59,157.0
696.65,167.0
696.72,152.0
696.78,168.0
696.84,177.0
696.91,146.0
696.97,143.0
697.03,128.0
697.09,137.0
697.16,125.0
697.22,113.0
697.28,141.0
697.35,146.0
697.41,135.0
697.47,134.0
697.54,123.0
697.6,120.0
697.66,129.0
697.72,124.0
697.79,117.0
697.85,136.0
697.91,143.0
697.98,144.0
698.04,167.0
698.1,161.0
698.17,178.0
698.23,160.0
698.29,157.0
698.35,157.0
698.42,166.0
698.48,176.0
698.54,178.0
698.61,184.0
698.67,201.0
698.73,180.0
698.8,162.0
698.86,167.0
698.92,197.0
698.98,188.0
699.05,189.0
699.11,197.0
699.17,190.0
699.24,191.0
699.3,186.0
699.36,190.0
699.43,184.0
699.49,199.0
699.55,179.0
699.61,187.0
699.68,174.0
699.74,180.0
699.8,180.0
699.87,186.0
699.93,186.0
699.99,186.0
700.06,183.0
700.12,164.0
700.18,194.0
700.24,179.0
700.31,178.0
700.37,186.0
700.43,199.0
700.5,197.0
700.56,201.0
700.62,193.0
700.69,185.0
700.75,190.0
700.81,195.0
700.87,193.0
700.94,202.0
701.0,195.0
701.06,175.0
701.13,187.0
701.19,191.0
701.25,199.0
701.32,190.0
701.38,184.0
701.44,198.0
701.5,198.0
701.57,190.0
701.63,181.0
701.69,195.0
701.76,182.0
701.82,196.0
701.88,204.0
701.95,187.0
702.01,205.0
702.07,192.0
702.13,179.0
702.2,198.0
702.26,173.0
702.32,187.0
702.39,167.0
702.45,167.0
702.51,187.0
702.58,183.0
702.64,180.0
702.7,185.0
702.76,175.0
702.83,161.0
702.89,167.0
702.95,157.0
703.02,146.0
703.08,150.0
703.14,156.0
703.21,182.0
703.27,157.0
703.33,151.0
703.39,143.0
703.46,148.0
703.52,123.0
703.58,133.0
703.65,118.0
703.71,135.0
703.77,141.0
703.84,127.0
703.9,141.0
703.96,124.0
704.02,124.0
704.09,124.0
704.15,115.0
704.21,115.0
704.28,138.0
704.34,127.0
704.4,130.0
704.47,150.0
704.53,120.0
704.59,102.0
704.65,122.0
704.72,145.0
704.78,139.0
704.84,137.0
704.91,141.0
704.97,131.0
705.03,137.0
705.1,109.0
705.16,113.0
705.22,127.0
705.28,126.0
705.35,135.0
705.41,142.0
705.47,124.0
705.54,114.0
705.6,113.0
705.66,133.0
705.73,146.0
705.79,136.0
705.85,131.0
705.91,131.0
705.98,139.0
706.04,153.0
706.1,113.0
706.17,130.0
706.23,136.0
706.29,140.0
706.36,148.0
706.42,132.0
706.48,131.0
706.54,124.0
706.61,127.0
706.67,143.0
706.73,138.0
706.8,146.0
706.86,140.0
706.92,166.0
706.99,153.0
707.05,126.0
707.11,126.0
707.17,134.0
707.24,140.0
707.3,157.0
707.36,162.0
707.43,144.0
707.49,132.0
707.55,154.0
707.62,159.0
707.68,157.0
707.74,137.0
707.8,136.0
707.87,137.0
707.93,138.0
707.99,115.0
708.06,123.0
708.12,125.0
708.18,108.0
708.25,91.0
708.31,93.0
708.37,98.0
708.43,88.0
708.5,83.0
708.56,74.0
708.62,110.0
708.69,111.0
708.75,92.0
708.81,123.0
708.88,115.0
708.94,106.0
709.0,120.0
709.06,118.0
709.13,119.0
709.19,122.0
709.25,127.0
709.32,117.0
709.38,132.0
709.44,135.0
709.51,125.0
709.57,144.0
709.63,156.0
709.69,151.0
709.76,141.0
709.82,138.0
709.88,115.0
709.95,125.0
710.01,113.0
710.07,111.0
710.14,102.0
710.2,110.0
710.26,115.0
710.32,109.0
710.39,103.0
710.45,109.0
710.51,99.0
710.58,109.0
710.64,93.0
710.7,66.0
710.77,96.0
710.83,93.0
710.89,102.0
710.95,95.0
711.02,98.0
711.08,106.0
711.14,115.0
711.21,107.0
711.27,91.0
711.33,94.0
711.4,81.0
711.46,98.0
711.52,104.0
711.58,81.0
711.65,72.0
711.71,61.0
711.77,58.0
711.84,64.0
711.9,40.0
711.96,40.0
712.03,56.0
712.09,42.0
712.15,36.0
712.21,37.0
712.28,17.0
712.34,43.0
712.4,35.0
712.47,17.0
712.53,21.0
712.59,42.0
712.66,36.0
712.72,40.0
712.78,34.0
712.84,18.0
712.91,-4.0
712.97,21.0
713.03,50.0
713.1,41.0
713.16,35.0
713.22,37.0
713.29,6.0
713.35,18.0
713.41,35.0
713.47,10.0
713.54,3.0
713.6,14.0
713.66,35.0
713.73,44.0
713.79,26.0
713.85,19.0
713.92,19.0
713.98,33.0
714.04,32.0
714.1,26.0
714.17,15.0
714.23,15.0
714.29,4.0
714.36,11.0
714.42,17.0
714.48,22.0
714.55,20.0
714.61,23.0
714.67,10.0
714.73,17.0
714.8,35.0
714.86,31.0
714.92,28.0
714.99,25.0
715.05,39.0
715.11,30.0
715.18,27.0
715.24,37.0
715.3,57.0
715.36,63.0
715.43,41.0
715.49,57.0
715.55,48.0
715.62,47.0
715.68,58.0
715.74,57.0
715.81,76.0
715.87,82.0
715.93,65.0
715.99,63.0
716.06,68.0
716.12,71.0
716.18,101.0
716.25,97.0
716.31,92.0
716.37,102.0
716.44,82.0
716.5,75.0
716.56,69.0
716.62,77.0
716.69,93.0
716.75,96.0
716.81,69.0
716.88,73.0
716.94,83.0
717.0,72.0
717.07,102.0
717.13,90.0
717.19,90.0
717.25,104.0
717.32,105.0
717.38,117.0
717.44,126.0
717.51,134.0
717.57,124.0
717.63,115.0
717.7,115.0
717.76,117.0
717.82,104.0
717.88,110.0
717.95,113.0
718.01,125.0
718.07,144.0
718.14,141.0
718.2,142.0
718.26,128.0
718.33,134.0
718.39,129.0
718.45,141.0
718.51,146.0
718.58,149.0
718.64,170.0
718.7,149.0
718.77,149.0
718.83,154.0
718.89,145.0
718.96,146.0
719.02,138.0
719.08,148.0
719.14,124.0
719.21,141.0
719.27,168.0
719.33,174.0
719.4,155.0
719.46,163.0
719.52,193.0
719.59,159.0
719.65,178.0
719.71,156.0
719.77,151.0
719.84,154.0
719.9,149.0
719.96,154.0
720.03,168.0
720.09,137.0
720.15,132.0
720.22,124.0
720.28,134.0
720.34,153.0
720.4,135.0
720.47,144.0
720.53,157.0
720.59,151.0
720.66,160.0
720.72,149.0
720.78,151.0
720.85,138.0
720.91,120.0
720.97,146.0
721.03,143.0
721.1,123.0
721.16,132.0
721.22,119.0
721.29,134.0
721.35,137.0
721.41,127.0
721.48,157.0
721.54,144.0
721.6,145.0
721.66,142.0
721.73,144.0
721.79,141.0
721.85,137.0
721.92,165.0
721.98,156.0
722.04,164.0
722.11,179.0
722.17,167.0
722.23,159.0
722.29,165.0
722.36,170.0
722.42,162.0
722.48,152.0
722.55,145.0
722.61,173.0
722.67,152.0
722.74,156.0
722.8,136.0
722.86,129.0
722.92,134.0
722.99,134.0
723.05,156.0
723.11,146.0
723.18,145.0
723.24,118.0
723.3,126.0
723.37,112.0
723.43,167.0
723.49,151.0
723.55,148.0
723.62,153.0
723.68,149.0
723.74,159.0
723.81,143.0
723.87,145.0
723.93,152.0
724.0,149.0
724.06,162.0
724.12,180.0
724.18,167.0
724.25,170.0
724.31,174.0
724.37,173.0
724.44,167.0
724.5,183.0
724.56,195.0
724.63,182.0
724.69,167.0
724.75,189.0
724.81,172.0
724.88,162.0
724.94,160.0
725.0,167.0
725.07,162.0
725.13,169.0
725.19,192.0
725.26,179.0
725.32,191.0
725.38,164.0
725.44,169.0
725.51,173.0
725.57,177.0
725.63,181.0
725.7,169.0
725.76,174.0
725.82,169.0
725.89,189.0
725.95,171.0
726.01,164.0
726.07,181.0
726.14,151.0
726.2,151.0
726.26,147.0
726.33,143.0
726.39,175.0
726.45,160.0
726.52,156.0
726.58,172.0
726.64,149.0
726.7,167.0
726.77,171.0
726.83,180.0
726.89,174.0
726.96,175.0
727.02,166.0
727.08,168.0
727.15,163.0
727.21,151.0
727.27,162.0
727.33,164.0
727.4,180.0
727.46,179.0
727.52,190.0
727.59,181.0
727.65,178.0
727.71,171.0
727.78,180.0
727.84,194.0
727.9,207.0
727.96,208.0
728.03,196.0
728.09,194.0
728.15,189.0
728.22,196.0
728.28,189.0
728.34,171.0
728.41,165.0
728.47,178.0
728.53,171.0
728.59,197.0
728.66,166.0
728.72,140.0
728.78,145.0
728.85,157.0
728.91,164.0
728.97,159.0
729.04,151.0
729.1,124.0
729.16,139.0
729.22,141.0
729.29,135.0
729.35,133.0
729.41,147.0
729.48,132.0
729.54,112.0
729.6,112.0
729.67,112.0
729.73,148.0
729.79,123.0
729.85,116.0
729.92,125.0
729.98,126.0
730.04,120.0
730.11,108.0
730.17,126.0
730.23,119.0
730.3,114.0
730.36,132.0
730.42,139.0
730.48,128.0
730.55,110.0
730.61,108.0
730.67,121.0
730.74,131.0
730.8,120.0
730.86,129.0
730.93,139.0
730.99,135.0
731.05,125.0
731.11,122.0
731.18,120.0
731.24,131.0
731.3,131.0
731.37,116.0
731.43,135.0
731.49,138.0
731.56,146.0
731.62,158.0
731.68,142.0
731.74,120.0
731.81,138.0
731.87,141.0
731.93,133.0
732.0,126.0
732.06,121.0
732.12,145.0
732.19,148.0
732.25,157.0
732.31,158.0
732.37,175.0
732.44,155.0
732.5,150.0
732.56,165.0
732.63,165.0
732.69,165.0
732.75,149.0
732.82,161.0
732.88,166.0
732.94,179.0
733.0,170.0
733.07,161.0
733.13,138.0
733.19,153.0
733.26,158.0
733.32,145.0
733.38,164.0
733.45,157.0
733.51,159.0
733.57,166.0
733.63,166.0
733.7,155.0
733.76,149.0
733.82,155.0
733.89,167.0
733.95,158.0
734.01,159.0
734.08,163.0
734.14,162.0
734.2,154.0
734.26,163.0
734.33,171.0
734.39,151.0
734.45,149.0
734.52,147.0
734.58,160.0
734.64,161.0
734.71,141.0
734.77,138.0
734.83,156.0
734.89,156.0
734.96,171.0
735.02,177.0
735.08,174.0
735.15,189.0
735.21,160.0
735.27,173.0
735.34,184.0
735.4,171.0
735.46,178.0
735.52,179.0
735.59,152.0
735.65,163.0
735.71,164.0
735.78,192.0
735.84,178.0
735.9,181.0
735.97,182.0
736.03,169.0
736.09,170.0
736.15,186.0
736.22,174.0
736.28,185.0
736.34,188.0
736.41,159.0
736.47,164.0
736.53,167.0
736.6,152.0
736.66,135.0
736.72,170.0
736.78,155.0
736.85,128.0
736.91,124.0
736.97,132.0
737.04,128.0
737.1,114.0
737.16,120.0
737.23,117.0
737.29,130.0
737.35,113.0
737.41,119.0
737.48,124.0
737.54,118.0
737.6,96.0
737.67,87.0
737.73,90.0
737.79,102.0
737.86,100.0
737.92,108.0
737.98,108.0
738.04,94.0
738.11,94.0
738.17,94.0
738.23,85.0
738.3,83.0
738.36,96.0
738.42,91.0
738.49,109.0
738.55,118.0
738.61,100.0
738.67,101.0
738.74,107.0
738.8,105.0
738.86,112.0
738.93,113.0
738.99,89.0
739.05,120.0
739.12,104.0
739.18,112.0
739.24,83.0
739.3,123.0
739.37,123.0
739.43,112.0
739.49,102.0
739.56,110.0
739.62,107.0
739.68,109.0
739.75,113.0
739.81,104.0
739.87,114.0
739.93,99.0
740.0,119.0
740.06,118.0
740.12,95.0
740.19,113.0
740.25,118.0
740.31,129.0
740.38,113.0
740.44,126.0
740.5,126.0
740.56,115.0
740.63,119.0
740.69,115.0
740.75,122.0
740.82,118.0
740.88,104.0
740.94,105.0
741.01,113.0
741.07,116.0
741.13,115.0
741.19,123.0
741.26,140.0
741.32,113.0
741.38,116.0
741.45,110.0
741.51,97.0
741.57,117.0
741.64,115.0
741.7,120.0
741.76,115.0
741.82,131.0
741.89,126.0
741.95,124.0
742.01,138.0
742.08,102.0
742.14,111.0
742.2,113.0
742.27,124.0
742.33,139.0
742.39,123.0
742.45,105.0
742.52,114.0
742.58,115.0
742.64,121.0
742.71,151.0
742.77,123.0
742.83,133.0
742.9,159.0
742.96,157.0
743.02,157.0
743.08,168.0
743.15,189.0
743.21,176.0
743.27,182.0
743.34,190.0
743.4,189.0
743.46,167.0
743.53,160.0
743.59,176.0
743.65,167.0
743.71,193.0
743.78,184.0
743.84,171.0
743.9,201.0
743.97,202.0
744.03,208.0
744.09,200.0
744.16,189.0
744.22,191.0
744.28,185.0
744.34,199.0
744.41,184.0
744.47,181.0
744.53,171.0
744.6,184.0
744.66,183.0
744.72,189.0
744.79,167.0
744.85,162.0
744.91,164.0
744.97,175.0
745.04,181.0
745.1,169.0
745.16,175.0
745.23,176.0
745.29,167.0
745.35,184.0
745.42,176.0
745.48,178.0
745.54,176.0
745.6,160.0
745.67,175.0
745.73,182.0
745.79,177.0
745.86,161.0
745.92,179.0
745.98,177.0
746.05,157.0
746.11,186.0
746.17,180.0
746.23,157.0
746.3,159.0
746.36,171.0
746.42,153.0
746.49,150.0
746.55,136.0
746.61,152.0
746.68,165.0
746.74,159.0
746.8,162.0
746.86,164.0
746.93,155.0
746.99,176.0
747.05,171.0
747.12,158.0
747.18,171.0
747.24,170.0
747.31,159.0
747.37,166.0
747.43,190.0
747.49,170.0
747.56,165.0
747.62,165.0
747.68,156.0
747.75,177.0
747.81,172.0
747.87,182.0
747.94,191.0
748.0,171.0
748.06,168.0
748.12,177.0
748.19,169.0
748.25,171.0
748.31,167.0
748.38,166.0
748.44,189.0
748.5,180.0
748.57,186.0
748.63,189.0
748.69,184.0
748.75,173.0
748.82,183.0
748.88,192.0
748.94,162.0
749.01,193.0
749.07,199.0
749.13,182.0
749.2,192.0
749.26,183.0
749.32,180.0
749.38,192.0
749.45,182.0
749.51,190.0
749.57,187.0
749.64,197.0
749.7,186.0
749.76,173.0
749.83,196.0
749.89,201.0
749.95,204.0
750.01,192.0
750.08,201.0
750.14,190.0
750.2,188.0
750.27,196.0
750.33,191.0
750.39,193.0
750.46,197.0
750.52,194.0
750.58,195.0
750.64,198.0
750.71,201.0
750.77,209.0
750.83,211.0
750.9,208.0
750.96,192.0
751.02,178.0
751.09,186.0
751.15,188.0
751.21,175.0
751.27,177.0
751.34,176.0
751.4,182.0
751.46,179.0
751.53,184.0
751.59,178.0
751.65,195.0
751.72,186.0
751.78,182.0
751.84,178.0
751.9,181.0
751.97,172.0
752.03,192.0
752.09,191.0
752.16,198.0
752.22,207.0
752.28,160.0
752.35,154.0
752.41,171.0
752.47,186.0
752.53,155.0
752.6,168.0
752.66,156.0
752.72,176.0
752.79,190.0
752.85,182.0
752.91,192.0
752.98,178.0
753.04,178.0
753.1,182.0
753.16,172.0
753.23,173.0
753.29,187.0
753.35,175.0
753.42,177.0
753.48,178.0
753.54,157.0
753.61,168.0
753.67,158.0
753.73,154.0
753.79,150.0
753.86,163.0
753.92,157.0
753.98,140.0
754.05,156.0
754.11,146.0
754.17,145.0
754.24,124.0
754.3,144.0
754.36,148.0
754.42,145.0
754.49,153.0
754.55,130.0
754.61,148.0
754.68,138.0
754.74,145.0
754.8,145.0
754.87,107.0
754.93,129.0
754.99,115.0
755.05,96.0
755.12,120.0
755.18,111.0
755.24,113.0
755.31,142.0
755.37,128.0
755.43,117.0
755.5,116.0
755.56,124.0
755.62,127.0
755.68,120.0
755.75,131.0
755.81,121.0
755.87,112.0
755.94,119.0
756.0,137.0
756.06,110.0
756.13,142.0
756.19,124.0
756.25,111.0
756.31,127.0
756.38,118.0
756.44,109.0
756.5,126.0
756.57,109.0
756.63,111.0
756.69,129.0
756.76,109.0
756.82,101.0
756.88,96.0
756.94,72.0
757.01,82.0
757.07,97.0
757.13,93.0
757.2,87.0
757.26,97.0
757.32,93.0
757.39,104.0
757.45,128.0
757.51,101.0
757.57,102.0
757.64,109.0
757.7,112.0
757.76,116.0
757.83,102.0
757.89,105.0
757.95,116.0
758.02,117.0
758.08,107.0
758.14,112.0
758.2,103.0
758.27,109.0
758.33,115.0
758.39,127.0
758.46,150.0
758.52,161.0
758.58,146.0
758.65,132.0
758.71,138.0
758.77,142.0
758.83,139.0
758.9,145.0
758.96,149.0
759.02,156.0
759.09,143.0
759.15,146.0
759.21,155.0
759.28,159.0
759.34,150.0
759.4,152.0
759.46,142.0
759.53,149.0
759.59,170.0
759.65,163.0
759.72,154.0
759.78,173.0
759.84,193.0
759.91,171.0
759.97,176.0
760.03,171.0
760.09,186.0
760.16,182.0
760.22,169.0
760.28,145.0
760.35,173.0
760.41,177.0
760.47,167.0
760.54,178.0
760.6,177.0
760.66,187.0
760.72,187.0
760.79,174.0
760.85,189.0
760.91,204.0
760.98,205.0
761.04,188.0
761.1,205.0
761.17,182.0
761.23,204.0
761.29,209.0
761.35,194.0
761.42,191.0
761.48,194.0
761.54,198.0
761.61,185.0
761.67,194.0
761.73,183.0
761.8,185.0
761.86,192.0
761.92,193.0
761.98,182.0
762.05,174.0
762.11,190.0
762.17,187.0
762.24,174.0
762.3,200.0
762.36,182.0
762.43,170.0
762.49,167.0
762.55,162.0
762.61,182.0
762.68,167.0
762.74,169.0
762.8,160.0
762.87,172.0
762.93,171.0
762.99,181.0
763.06,167.0
763.12,170.0
763.18,181.0
763.24,180.0
763.31,144.0
763.37,155.0
763.43,145.0
763.5,141.0
763.56,156.0
763.62,165.0
763.69,191.0
763.75,164.0
763.81,167.0
763.87,159.0
763.94,146.0
764.0,136.0
764.06,144.0
764.13,156.0
764.19,136.0
764.25,135.0
764.32,141.0
764.38,132.0
764.44,132.0
764.5,148.0
764.57,124.0
764.63,132.0
764.69,145.0
764.76,157.0
764.82,132.0
764.88,142.0
764.95,156.0
765.01,165.0
765.07,158.0
765.13,138.0
765.2,155.0
765.26,158.0
765.32,156.0
765.39,145.0
765.45,142.0
765.51,170.0
765.58,170.0
765.64,170.0
765.7,174.0
765.76,186.0
765.83,171.0
765.89,169.0
765.95,152.0
766.02,165.0
766.08,168.0
766.14,164.0
766.21,158.0
766.27,168.0
766.33,172.0
766.39,162.0
766.46,167.0
766.52,172.0
766.58,160.0
766.65,154.0
766.71,149.0
766.77,162.0
766.84,160.0
766.9,152.0
766.96,138.0
767.02,142.0
767.09,151.0
767.15,154.0
767.21,151.0
767.28,158.0
767.34,152.0
767.4,136.0
767.47,126.0
767.53,134.0
767.59,140.0
767.65,137.0
767.72,112.0
767.78,141.0
767.84,146.0
767.91,145.0
767.97,138.0
768.03,149.0
768.1,125.0
768.16,136.0
768.22,116.0
768.28,119.0
768.35,129.0
768.41,115.0
768.47,114.0
768.54,129.0
768.6,115.0
768.66,87.0
768.73,90.0
768.79,99.0
768.85,86.0
768.91,93.0
768.98,94.0
769.04,87.0
769.1,81.0
769.17,79.0
769.23,88.0
769.29,94.0
769.36,88.0
769.42,93.0
769.48,65.0
769.54,68.0
769.61,89.0
769.67,71.0
769.73,55.0
769.8,60.0
769.86,79.0
769.92,93.0
769.99,96.0
770.05,97.0
770.11,102.0
770.17,97.0
770.24,82.0
770.3,97.0
770.36,91.0
770.43,98.0
770.49,79.0
770.55,81.0
770.62,52.0
770.68,44.0
770.74,64.0
770.8,67.0
770.87,45.0
770.93,60.0
770.99,57.0
771.06,60.0
771.12,62.0
771.18,72.0
771.25,82.0
771.31,71.0
771.37,78.0
771.43,66.0
771.5,46.0
771.56,77.0
771.62,82.0
771.69,75.0
771.75,74.0
771.81,75.0
771.88,71.0
771.94,72.0
772.0,64.0
772.06,62.0
772.13,55.0
772.19,66.0
772.25,68.0
772.32,88.0
772.38,91.0
772.44,86.0
772.51,86.0
772.57,83.0
772.63,82.0
772.69,85.0
772.76,58.0
772.82,77.0
772.88,92.0
772.95,82.0
773.01,86.0
773.07,67.0
773.14,80.0
773.2,53.0
773.26,54.0
773.32,40.0
773.39,56.0
773.45,57.0
773.51,53.0
773.58,66.0
773.64,47.0
773.7,53.0
773.77,64.0
773.83,68.0
773.89,63.0
773.95,61.0
774.02,60.0
774.08,68.0
774.14,79.0
774.21,63.0
774.27,57.0
774.33,60.0
774.4,65.0
774.46,74.0
774.52,70.0
774.58,92.0
774.65,101.0
774.71,94.0
774.77,87.0
774.84,83.0
774.9,102.0
774.96,91.0
775.03,105.0
775.09,105.0
775.15,101.0
775.21,110.0
775.28,116.0
775.34,121.0
775.4,132.0
775.47,120.0
775.53,131.0
775.59,149.0
775.66,157.0
775.72,159.0
775.78,156.0
775.84,154.0
775.91,136.0
775.97,148.0
776.03,155.0
776.1,165.0
776.16,145.0
776.22,130.0
776.29,139.0
776.35,142.0
776.41,155.0
776.47,141.0
776.54,125.0
776.6,130.0
776.66,153.0
776.73,151.0
776.79,167.0
776.85,152.0
776.92,153.0
776.98,149.0
777.04,160.0
777.1,170.0
777.17,155.0
777.23,166.0
777.29,179.0
777.36,200.0
777.42,203.0
777.48,225.0
777.55,226.0
777.61,215.0
777.67,215.0
777.73,217.0
777.8,225.0
777.86,222.0
777.92,230.0
777.99,231.0
778.05,241.0
778.11,259.0
778.18,252.0
778.24,246.0
778.3,255.0
778.36,260.0
778.43,279.0
778.49,273.0
778.55,269.0
778.62,268.0
778.68,260.0
778.74,249.0
778.81,250.0
778.87,244.0
778.93,245.0
778.99,252.0
779.06,222.0
779.12,205.0
779.18,213.0
779.25,212.0
779.31,229.0
779.37,223.0
779.44,226.0
779.5,248.0
779.56,241.0
779.62,231.0
779.69,226.0
779.75,220.0
779.81,224.0
779.88,222.0
779.94,222.0
780.0,232.0
780.07,213.0
780.13,211.0
780.19,200.0
780.25,203.0
780.32,197.0
780.38,204.0
780.44,197.0
780.51,188.0
780.57,190.0
780.63,182.0
780.7,192.0
780.76,177.0
780.82,185.0
780.88,184.0
780.95,187.0
781.01,193.0
781.07,172.0
781.14,187.0
781.2,184.0
781.26,205.0
781.33,192.0
781.39,179.0
781.45,181.0
781.51,182.0
781.58,185.0
781.64,184.0
781.7,176.0
781.77,187.0
781.83,171.0
781.89,170.0
781.96,160.0
782.02,171.0
782.08,180.0
782.14,174.0
782.21,191.0
782.27,178.0
782.33,191.0
782.4,189.0
782.46,171.0
782.52,179.0
782.59,171.0
782.65,168.0
782.71,163.0
782.77,153.0
782.84,195.0
782.9,181.0
782.96,166.0
783.03,184.0
783.09,178.0
783.15,175.0
783.22,161.0
783.28,164.0
783.34,180.0
783.4,171.0
783.47,152.0
783.53,167.0
783.59,172.0
783.66,163.0
783.72,166.0
783.78,166.0
783.85,156.0
783.91,154.0
783.97,177.0
784.03,174.0
784.1,171.0
784.16,170.0
784.22,142.0
784.29,167.0
784.35,160.0
784.41,167.0
784.48,144.0
784.54,144.0
784.6,141.0
784.66,131.0
784.73,138.0
784.79,119.0
784.85,116.0
784.92,120.0
784.98,121.0
785.04,116.0
785.11,110.0
785.17,123.0
785.23,127.0
785.29,105.0
785.36,99.0
785.42,115.0
785.48,110.0
785.55,108.0
785.61,87.0
785.67,100.0
785.74,108.0
785.8,119.0
785.86,91.0
785.92,100.0
785.99,117.0
786.05,133.0
786.11,103.0
786.18,113.0
786.24,116.0
786.3,105.0
786.37,105.0
786.43,104.0
786.49,97.0
786.55,76.0
786.62,83.0
786.68,66.0
786.74,66.0
786.81,52.0
786.87,65.0
786.93,61.0
787.0,43.0
787.06,64.0
787.12,47.0
787.18,53.0
787.25,51.0
787.31,60.0
787.37,57.0
787.44,56.0
787.5,71.0
787.56,72.0
787.63,64.0
787.69,56.0
787.75,60.0
787.81,57.0
787.88,51.0
787.94,58.0
788.0,53.0
788.07,74.0
788.13,58.0
788.19,52.0
788.26,52.0
788.32,50.0
788.38,75.0
788.44,76.0
788.51,57.0
788.57,43.0
788.63,47.0
788.7,60.0
788.76,45.0
788.82,44.0
788.89,35.0
788.95,48.0
789.01,41.0
789.07,50.0
789.14,53.0
789.2,37.0
789.26,36.0
789.33,56.0
789.39,68.0
789.45,61.0
789.52,68.0
789.58,66.0
789.64,61.0
789.7,75.0
789.77,67.0
789.83,54.0
789.89,54.0
789.96,65.0
790.02,53.0
790.08,68.0
790.15,62.0
790.21,78.0
790.27,71.0
790.33,72.0
790.4,68.0
790.46,67.0
790.52,81.0
790.59,74.0
790.65,78.0
790.71,67.0
790.78,79.0
790.84,68.0
790.9,69.0
790.96,74.0
791.03,63.0
791.09,68.0
791.15,82.0
791.22,86.0
791.28,103.0
791.34,97.0
791.41,101.0
791.47,101.0
791.53,96.0
791.59,115.0
791.66,91.0
791.72,104.0
791.78,98.0
791.85,102.0
791.91,109.0
791.97,100.0
792.04,105.0
792.1,127.0
792.16,123.0
792.22,125.0
792.29,141.0
792.35,129.0
792.41,153.0
792.48,148.0
792.54,144.0
792.6,139.0
792.67,155.0
792.73,147.0
792.79,172.0
792.85,164.0
792.92,151.0
792.98,175.0
793.04,186.0
793.11,157.0
793.17,169.0
793.23,167.0
793.3,180.0
793.36,179.0
793.42,181.0
793.48,184.0
793.55,177.0
793.61,178.0
793.67,173.0
793.74,197.0
793.8,211.0
793.86,189.0
793.93,178.0
793.99,209.0
794.05,208.0
794.11,193.0
794.18,202.0
794.24,198.0
794.3,191.0
794.37,199.0
794.43,197.0
794.49,178.0
794.56,192.0
794.62,204.0
794.68,208.0
794.74,221.0
794.81,221.0
794.87,209.0
794.93,196.0
795.0,190.0
795.06,189.0
795.12,196.0
795.19,191.0
795.25,189.0
795.31,192.0
795.37,202.0
795.44,195.0
795.5,213.0
795.56,216.0
795.63,211.0
795.69,187.0
795.75,172.0
795.82,171.0
795.88,190.0
795.94,186.0
796.0,174.0
796.07,191.0
796.13,185.0
796.19,193.0
796.26,218.0
796.32,190.0
796.38,179.0
796.45,182.0
796.51,175.0
796.57,162.0
796.63,165.0
796.7,181.0
796.76,162.0
796.82,149.0
796.89,149.0
796.95,170.0
797.01,169.0
797.08,175.0
797.14,157.0
797.2,173.0
797.26,182.0
797.33,173.0
797.39,163.0
797.45,140.0
797.52,159.0
797.58,157.0
797.64,159.0
797.71,156.0
797.77,169.0
797.83,164.0
797.89,158.0
797.96,137.0
798.02,145.0
798.08,143.0
798.15,140.0
798.21,156.0
798.27,154.0
798.34,153.0
798.4,163.0
798.46,150.0
798.52,138.0
798.59,135.0
798.65,147.0
798.71,153.0
798.78,152.0
798.84,152.0
798.9,152.0
798.97,145.0
799.03,129.0
799.09,168.0
799.15,151.0
799.22,152.0
799.28,158.0
799.34,141.0
799.41,147.0
799.47,163.0
799.53,176.0
799.6,167.0
799.66,183.0
799.72,192.0
799.78,171.0
799.85,174.0
799.91,177.0
799.97,185.0
800.04,178.0
800.1,185.0
800.16,182.0
800.23,164.0
800.29,167.0
800.35,170.0
800.41,159.0
800.48,173.0
800.54,169.0
800.6,170.0
800.67,188.0
800.73,171.0
800.79,175.0
800.86,158.0
800.92,163.0
800.98,173.0
801.04,153.0
801.11,168.0
801.17,168.0
801.23,155.0
801.3,164.0
801.36,156.0
801.42,160.0
801.49,163.0
801.55,158.0
801.61,160.0
801.67,152.0
801.74,158.0
801.8,163.0
801.86,138.0
801.93,134.0
801.99,163.0
802.05,162.0
802.12,140.0
802.18,159.0
802.24,161.0
802.3,149.0
802.37,159.0
802.43,167.0
802.49,182.0
802.56,182.0
802.62,189.0
802.68,190.0
802.75,175.0
802.81,176.0
802.87,164.0
802.93,164.0
803.0,166.0
803.06,167.0
803.12,169.0
803.19,185.0
803.25,175.0
803.31,152.0
803.38,150.0
803.44,156.0
803.5,169.0
803.56,181.0
803.63,165.0
803.69,167.0
803.75,191.0
803.82,182.0
803.88,188.0
803.94,175.0
804.01,197.0
804.07,187.0
804.13,160.0
804.19,168.0
804.26,162.0
804.32,155.0
804.38,169.0
804.45,155.0
804.51,152.0
804.57,146.0
804.64,152.0
804.7,146.0
804.76,154.0
804.82,148.0
804.89,138.0
804.95,141.0
805.01,157.0
805.08,145.0
805.14,138.0
805.2,159.0
805.27,153.0
805.33,130.0
805.39,142.0
805.45,146.0
805.52,147.0
805.58,157.0
805.64,150.0
805.71,170.0
805.77,146.0
805.83,141.0
805.9,159.0
805.96,134.0
806.02,135.0
806.08,138.0
806.15,142.0
806.21,167.0
806.27,173.0
806.34,182.0
806.4,182.0
806.46,188.0
806.53,186.0
806.59,174.0
806.65,150.0
806.71,152.0
806.78,157.0
806.84,160.0
806.9,174.0
806.97,155.0
807.03,166.0
807.09,181.0
807.16,171.0
807.22,170.0
807.28,173.0
807.34,164.0
807.41,167.0
807.47,160.0
807.53,154.0
807.6,146.0
807.66,154.0
807.72,184.0
807.79,166.0
807.85,154.0
807.91,166.0
807.97,154.0
808.04,148.0
808.1,149.0
808.16,171.0
808.23,161.0
808.29,131.0
808.35,137.0
808.42,135.0
808.48,113.0
808.54,126.0
808.6,131.0
808.67,145.0
808.73,151.0
808.79,140.0
808.86,158.0
808.92,170.0
808.98,171.0
809.05,164.0
809.11,150.0
809.17,173.0
809.23,151.0
809.3,164.0
809.36,159.0
809.42,147.0
809.49,158.0
809.55,151.0
809.61,160.0
809.68,155.0
809.74,162.0
809.8,167.0
809.86,169.0
809.93,165.0
809.99,162.0
810.05,174.0
810.12,167.0
810.18,172.0
810.24,193.0
810.31,175.0
810.37,179.0
810.43,155.0
810.49,149.0
810.56,171.0
810.62,184.0
810.68,190.0
810.75,200.0
810.81,209.0
810.87,196.0
810.94,193.0
811.0,187.0
811.06,196.0
811.12,187.0
811.19,196.0
811.25,210.0
811.31,218.0
811.38,211.0
811.44,220.0
811.5,225.0
811.57,212.0
811.63,187.0
811.69,204.0
811.75,198.0
811.82,201.0
811.88,201.0
811.94,197.0
812.01,192.0
812.07,171.0
812.13,185.0
812.2,179.0
812.26,188.0
812.32,181.0
812.38,172.0
812.45,176.0
812.51,164.0
812.57,148.0
812.64,161.0
812.7,170.0
812.76,139.0
812.83,119.0
812.89,133.0
812.95,145.0
813.01,138.0
813.08,145.0
813.14,159.0
813.2,139.0
813.27,138.0
813.33,129.0
813.39,133.0
813.46,143.0
813.52,149.0
813.58,146.0
813.64,145.0
813.71,135.0
813.77,114.0
813.83,115.0
813.9,120.0
813.96,114.0
814.02,112.0
814.09,121.0
814.15,89.0
814.21,94.0
814.27,99.0
814.34,98.0
814.4,100.0
814.46,103.0
814.53,90.0
814.59,91.0
814.65,121.0
814.72,83.0
814.78,101.0
814.84,103.0
814.9,98.0
814.97,111.0
815.03,104.0
815.09,99.0
815.16,104.0
815.22,109.0
815.28,126.0
815.35,125.0
815.41,93.0
815.47,107.0
815.53,106.0
815.6,80.0
815.66,77.0
815.72,72.0
815.79,71.0
815.85,50.0
815.91,63.0
815.98,80.0
816.04,57.0
816.1,51.0
816.16,67.0
816.23,91.0
816.29,82.0
816.35,65.0
816.42,78.0
816.48,63.0
816.54,57.0
816.61,55.0
816.67,60.0
816.73,54.0
816.79,62.0
816.86,60.0
816.92,53.0
816.98,81.0
817.05,57.0
817.11,76.0
817.17,76.0
817.24,70.0
817.3,48.0
817.36,80.0
817.42,88.0
817.49,84.0
817.55,77.0
817.61,81.0
817.68,86.0
817.74,84.0
817.8,99.0
817.87,101.0
817.93,92.0
817.99,88.0
818.05,82.0
818.12,65.0
818.18,64.0
818.24,47.0
818.31,61.0
818.37,71.0
818.43,55.0
818.5,59.0
818.56,54.0
818.62,47.0
818.68,42.0
818.75,47.0
818.81,28.0
818.87,33.0
818.94,43.0
819.0,35.0
819.06,37.0
819.13,24.0
819.19,39.0
819.25,41.0
819.31,21.0
819.38,27.0
819.44,11.0
819.5,28.0
819.57,17.0
819.63,28.0
819.69,44.0
819.76,49.0
819.82,46.0
819.88,32.0
819.94,57.0
820.01,30.0
820.07,26.0
820.13,51.0
820.2,38.0
820.26,47.0
820.32,31.0
820.39,69.0
820.45,70.0
820.51,50.0
820.57,73.0
820.64,49.0
820.7,57.0
820.76,65.0
820.83,42.0
820.89,72.0
820.95,41.0
821.02,55.0
821.08,66.0
821.14,60.0
821.2,70.0
821.27,78.0
821.33,79.0
821.39,73.0
821.46,64.0
821.52,82.0
821.58,67.0
821.65,68.0
821.71,57.0
821.77,71.0
821.83,64.0
821.9,66.0
821.96,59.0
822.02,85.0
822.09,91.0
822.15,64.0
822.21,77.0
822.28,79.0
822.34,105.0
822.4,83.0
822.46,97.0
822.53,90.0
822.59,102.0
822.65,102.0
822.72,104.0
822.78,130.0
822.84,114.0
822.91,109.0
822.97,94.0
823.03,122.0
823.09,117.0
823.16,109.0
823.22,129.0
823.28,108.0
823.35,130.0
823.41,142.0
823.47,149.0
823.54,149.0
823.6,151.0
823.66,135.0
823.72,141.0
823.79,142.0
823.85,139.0
823.91,162.0
823.98,135.0
824.04,158.0
824.1,151.0
824.17,160.0
824.23,160.0
824.29,143.0
824.35,150.0
824.42,133.0
824.48,131.0
824.54,123.0
824.61,145.0
824.67,134.0
824.73,119.0
824.8,142.0
824.86,156.0
824.92,147.0
824.98,152.0
825.05,156.0
825.11,167.0
825.17,166.0
825.24,165.0
825.3,181.0
825.36,181.0
825.43,156.0
825.49,168.0
825.55,178.0
825.61,188.0
825.68,177.0
825.74,160.0
825.8,167.0
825.87,173.0
825.93,148.0
825.99,137.0
826.06,149.0
826.12,155.0
826.18,156.0
826.24,170.0
826.31,165.0
826.37,166.0
826.43,184.0
826.5,190.0
826.56,184.0
826.62,192.0
826.69,197.0
826.75,183.0
826.81,210.0
826.87,224.0
826.94,238.0
827.0,225.0
827.06,216.0
827.13,231.0
827.19,225.0
827.25,218.0
827.32,242.0
827.38,236.0
827.44,242.0
827.5,241.0
827.57,222.0
827.63,239.0
827.69,252.0
827.76,257.0
827.82,256.0
827.88,262.0
827.95,266.0
828.01,265.0
828.07,247.0
828.13,259.0
828.2,260.0
828.26,262.0
828.32,264.0
828.39,279.0
828.45,262.0
828.51,244.0
828.58,240.0
828.64,256.0
828.7,245.0
828.76,251.0
828.83,248.0
828.89,239.0
828.95,260.0
829.02,266.0
829.08,253.0
829.14,240.0
829.21,255.0
829.27,257.0
829.33,251.0
829.39,240.0
829.46,250.0
829.52,250.0
829.58,251.0
829.65,248.0
829.71,259.0
829.77,253.0
829.84,248.0
829.9,235.0
829.96,216.0
830.02,233.0
830.09,236.0
830.15,234.0
830.21,239.0
830.28,220.0
830.34,215.0
830.4,228.0
830.47,229.0
830.53,230.0
830.59,224.0
830.65,223.0
830.72,217.0
830.78,233.0
830.84,215.0
830.91,211.0
830.97,220.0
831.03,206.0
831.1,231.0
831.16,229.0
831.22,226.0
831.28,234.0
831.35,225.0
831.41,240.0
831.47,226.0
831.54,219.0
831.6,226.0
831.66,257.0
831.73,240.0
831.79,235.0
831.85,245.0
831.91,227.0
831.98,233.0
832.04,221.0
832.1,224.0
832.17,236.0
832.23,230.0
832.29,237.0
832.36,232.0
832.42,229.0
832.48,221.0
832.54,235.0
832.61,248.0
832.67,252.0
832.73,237.0
832.8,250.0
832.86,229.0
832.92,219.0
832.99,229.0
833.05,227.0
833.11,227.0
833.17,227.0
833.24,206.0
833.3,221.0
833.36,224.0
833.43,226.0
833.49,207.0
833.55,220.0
833.62,247.0
833.68,245.0
833.74,217.0
833.8,214.0
833.87,221.0
833.93,220.0
833.99,206.0
834.06,213.0
834.12,221.0
834.18,217.0
834.25,219.0
834.31,213.0
834.37,213.0
834.43,198.0
834.5,204.0
834.56,219.0
834.62,211.0
834.69,207.0
834.75,189.0
834.81,202.0
834.88,221.0
834.94,202.0
835.0,202.0
835.06,204.0
835.13,194.0
835.19,195.0
835.25,203.0
835.32,221.0
835.38,199.0
835.44,172.0
835.51,195.0
835.57,207.0
835.63,199.0
835.69,178.0
835.76,166.0
835.82,172.0
835.88,189.0
835.95,181.0
836.01,179.0
836.07,196.0
836.14,183.0
836.2,158.0
836.26,163.0
836.32,167.0
836.39,167.0
836.45,148.0
836.51,156.0
836.58,160.0
836.64,144.0
836.7,128.0
836.77,134.0
836.83,137.0
836.89,138.0
836.95,139.0
837.02,136.0
837.08,123.0
837.14,123.0
837.21,142.0
837.27,123.0
837.33,118.0
837.4,126.0
837.46,127.0
837.52,99.0
837.58,105.0
837.65,116.0
837.71,126.0
837.77,103.0
837.84,103.0
837.9,116.0
837.96,93.0
838.03,107.0
838.09,93.0
838.15,98.0
838.21,61.0
838.28,89.0
838.34,93.0
838.4,108.0
838.47,110.0
838.53,88.0
838.59,85.0
838.66,88.0
838.72,89.0
838.78,71.0
838.84,89.0
838.91,89.0
838.97,77.0
839.03,72.0
839.1,52.0
839.16,66.0
839.22,90.0
839.29,61.0
839.35,88.0
839.41,90.0
839.47,74.0
839.54,74.0
839.6,79.0
839.66,77.0
839.73,87.0
839.79,79.0
839.85,56.0
839.92,52.0
839.98,51.0
840.04,52.0
840.1,66.0
840.17,53.0
840.23,50.0
840.29,63.0
840.36,65.0
840.42,70.0
840.48,73.0
840.55,50.0
840.61,60.0
840.67,87.0
840.73,66.0
840.8,62.0
840.86,72.0
840.92,49.0
840.99,39.0
841.05,53.0
841.11,60.0
841.18,38.0
841.24,52.0
841.3,46.0
841.36,30.0
841.43,37.0
841.49,51.0
841.55,63.0
841.62,61.0
841.68,44.0
841.74,52.0
841.81,59.0
841.87,46.0
841.93,65.0
841.99,71.0
842.06,70.0
842.12,54.0
842.18,54.0
842.25,61.0
842.31,64.0
842.37,79.0
842.44,74.0
842.5,87.0
842.56,57.0
842.62,82.0
842.69,90.0
842.75,95.0
842.81,99.0
842.88,116.0
842.94,112.0
843.0,123.0
843.07,127.0
843.13,99.0
843.19,111.0
843.25,105.0
843.32,85.0
843.38,101.0
843.44,101.0
843.51,101.0
843.57,86.0
843.63,82.0
843.7,101.0
843.76,101.0
843.82,126.0
843.88,117.0
843.95,105.0
844.01,110.0
844.07,134.0
844.14,117.0
844.2,119.0
844.26,110.0
844.33,143.0
844.39,134.0
844.45,145.0
844.51,170.0
844.58,159.0
844.64,149.0
844.7,141.0
844.77,141.0
844.83,138.0
844.89,154.0
844.96,162.0
845.02,144.0
845.08,146.0
845.14,154.0
845.21,140.0
845.27,149.0
845.33,143.0
845.4,156.0
845.46,148.0
845.52,135.0
845.59,142.0
845.65,140.0
845.71,158.0
845.77,160.0
845.84,144.0
845.9,158.0
845.96,147.0
846.03,134.0
846.09,165.0
846.15,150.0
846.22,149.0
846.28,149.0
846.34,151.0
846.4,149.0
846.47,138.0
846.53,143.0
846.59,140.0
846.66,119.0
846.72,123.0
846.78,130.0
846.85,142.0
846.91,139.0
846.97,135.0
847.03,143.0
847.1,159.0
847.16,148.0
847.22,150.0
847.29,174.0
847.35,148.0
847.41,155.0
847.48,163.0
847.54,160.0
847.6,155.0
847.66,160.0
847.73,167.0
847.79,176.0
847.85,181.0
847.92,179.0
847.98,156.0
848.04,151.0
848.11,162.0
848.17,186.0
848.23,191.0
848.29,183.0
848.36,181.0
848.42,200.0
848.48,184.0
848.55,208.0
848.61,189.0
848.67,171.0
848.74,190.0
848.8,214.0
848.86,205.0
848.92,188.0
848.99,194.0
849.05,209.0
849.11,187.0
849.18,181.0
849.24,190.0
849.3,192.0
849.37,179.0
849.43,182.0
849.49,160.0
849.55,186.0
849.62,171.0
849.68,157.0
849.74,171.0
849.81,171.0
849.87,171.0
849.93,174.0
850.0,178.0
850.06,177.0
850.12,189.0
850.18,165.0
850.25,161.0
850.31,170.0
850.37,177.0
850.44,189.0
850.5,154.0
850.56,178.0
850.63,173.0
850.69,164.0
850.75,166.0
850.81,160.0
850.88,187.0
850.94,201.0
851.0,189.0
851.07,195.0
851.13,202.0
851.19,198.0
851.26,192.0
851.32,176.0
851.38,179.0
851.44,185.0
851.51,187.0
851.57,173.0
851.63,155.0
851.7,178.0
851.76,151.0
851.82,177.0
851.89,168.0
851.95,146.0
852.01,153.0
852.07,154.0
852.14,151.0
852.2,148.0
852.26,149.0
852.33,142.0
852.39,155.0
852.45,149.0
852.52,130.0
852.58,139.0
852.64,156.0
852.7,158.0
852.77,159.0
852.83,165.0
852.89,161.0
852.96,130.0
853.02,148.0
853.08,151.0
853.15,152.0
853.21,146.0
853.27,146.0
853.33,173.0
853.4,154.0
853.46,137.0
853.52,148.0
853.59,138.0
853.65,138.0
853.71,161.0
853.78,151.0
853.84,137.0
853.9,168.0
853.96,154.0
854.03,169.0
854.09,170.0
854.15,163.0
854.22,184.0
854.28,173.0
854.34,149.0
854.41,185.0
854.47,168.0
854.53,173.0
854.59,160.0
854.66,167.0
854.72,157.0
854.78,137.0
854.85,157.0
854.91,155.0
854.97,167.0
855.04,152.0
855.1,162.0
855.16,148.0
855.22,153.0
855.29,173.0
855.35,156.0
855.41,141.0
855.48,152.0
855.54,154.0
855.6,155.0
855.67,131.0
855.73,131.0
855.79,160.0
855.85,150.0
855.92,132.0
855.98,129.0
856.04,133.0
856.11,120.0
856.17,118.0
856.23,148.0
856.3,129.0
856.36,117.0
856.42,121.0
856.48,123.0
856.55,116.0
856.61,127.0
856.67,126.0
856.74,119.0
856.8,126.0
856.86,95.0
856.93,114.0
856.99,100.0
857.05,100.0
857.11,123.0
857.18,119.0
857.24,119.0
857.3,118.0
857.37,115.0
857.43,121.0
857.49,123.0
857.56,119.0
857.62,125.0
857.68,113.0
857.74,124.0
857.81,92.0
857.87,79.0
857.93,97.0
858.0,91.0
858.06,81.0
858.12,82.0
858.19,92.0
858.25,105.0
858.31,104.0
858.37,95.0
858.44,92.0
858.5,97.0
858.56,86.0
858.63,102.0
858.69,101.0
858.75,90.0
858.82,104.0
858.88,95.0
858.94,90.0
859.0,101.0
859.07,113.0
859.13,110.0
859.19,114.0
859.26,117.0
859.32,115.0
859.38,117.0
859.45,100.0
859.51,118.0
859.57,117.0
859.63,113.0
859.7,123.0
859.76,136.0
859.82,138.0
859.89,126.0
859.95,119.0
860.01,120.0
860.08,149.0
860.14,115.0
860.2,107.0
860.26,83.0
860.33,97.0
860.39,103.0
860.45,83.0
860.52,99.0
860.58,124.0
860.64,110.0
860.71,119.0
860.77,123.0
860.83,134.0
860.89,138.0
860.96,105.0
861.02,123.0
861.08,128.0
861.15,123.0
861.21,127.0
861.27,121.0
861.34,118.0
861.4,94.0
861.46,105.0
861.52,109.0
861.59,123.0
861.65,118.0
861.71,140.0
861.78,145.0
861.84,148.0
861.9,132.0
861.97,154.0
862.03,167.0
862.09,167.0
862.15,158.0
862.22,163.0
862.28,152.0
862.34,175.0
862.41,180.0
862.47,160.0
862.53,177.0
862.6,177.0
862.66,162.0
862.72,175.0
862.78,184.0
862.85,194.0
862.91,163.0
862.97,170.0
863.04,178.0
863.1,201.0
863.16,194.0
863.23,189.0
863.29,179.0
863.35,172.0
863.41,176.0
863.48,176.0
863.54,193.0
863.6,188.0
863.67,185.0
863.73,178.0
863.79,172.0
863.86,182.0
863.92,199.0
863.98,189.0
864.04,197.0
864.11,191.0
864.17,190.0
864.23,174.0
864.3,183.0
864.36,173.0
864.42,184.0
864.49,184.0
864.55,163.0
864.61,184.0
864.67,182.0
864.74,193.0
864.8,191.0
864.86,180.0
864.93,210.0
864.99,207.0
865.05,198.0
865.12,190.0
865.18,200.0
865.24,185.0
865.3,181.0
865.37,199.0
865.43,183.0
865.49,214.0
865.56,207.0
865.62,194.0
865.68,193.0
865.75,198.0
865.81,190.0
865.87,171.0
865.93,186.0
866.0,184.0
866.06,178.0
866.12,148.0
866.19,170.0
866.25,145.0
866.31,148.0
866.38,137.0
866.44,132.0
866.5,145.0
866.56,138.0
866.63,143.0
866.69,157.0
866.75,142.0
866.82,132.0
866.88,154.0
866.94,137.0
867.01,143.0
867.07,144.0
867.13,159.0
867.19,144.0
867.26,127.0
867.32,135.0
867.38,147.0
867.45,146.0
867.51,142.0
867.57,160.0
867.64,153.0
867.7,159.0
867.76,153.0
867.82,157.0
867.89,143.0
867.95,113.0
868.01,123.0
868.08,127.0
868.14,123.0
868.2,136.0
868.27,131.0
868.33,126.0
868.39,123.0
868.45,113.0
868.52,106.0
868.58,124.0
868.64,100.0
868.71,70.0
868.77,78.0
868.83,87.0
868.9,97.0
868.96,95.0
869.02,96.0
869.08,90.0
869.15,123.0
869.21,119.0
869.27,100.0
869.34,82.0
869.4,94.0
869.46,107.0
869.53,122.0
869.59,127.0
869.65,113.0
869.71,88.0
869.78,99.0
869.84,100.0
869.9,108.0
869.97,75.0
870.03,92.0
870.09,103.0
870.16,80.0
870.22,60.0
870.28,63.0
870.34,72.0
870.41,71.0
870.47,69.0
870.53,68.0
870.6,59.0
870.66,49.0
870.72,44.0
870.79,50.0
870.85,55.0
870.91,54.0
870.97,61.0
871.04,74.0
871.1,37.0
871.16,34.0
871.23,52.0
871.29,45.0
871.35,43.0
871.42,33.0
871.48,30.0
871.54,17.0
871.6,19.0
871.67,19.0
871.73,25.0
871.79,13.0
871.86,9.0
871.92,13.0
871.98,12.0
872.05,6.0
872.11,0.0
872.17,20.0
872.23,23.0
872.3,1.0
872.36,0.0
872.42,19.0
872.49,13.0
872.55,13.0
872.61,20.0
872.68,8.0
872.74,9.0
872.8,24.0
872.86,4.0
872.93,10.0
872.99,29.0
873.05,10.0
873.12,33.0
873.18,20.0
873.24,38.0
873.31,32.0
873.37,21.0
873.43,28.0
873.49,28.0
873.56,24.0
873.62,-1.0
873.68,21.0
873.75,27.0
873.81,38.0
873.87,44.0
873.94,3.0
874.0,7.0
874.06,25.0
874.12,9.0
874.19,12.0
874.25,19.0
874.31,25.0
874.38,19.0
874.44,5.0
874.5,8.0
874.57,16.0
874.63,5.0
874.69,-7.0
874.75,-7.0
874.82,-10.0
874.88,-4.0
874.94,-2.0
875.01,-6.0
875.07,-12.0
875.13,15.0
875.2,22.0
875.26,15.0
875.32,12.0
875.38,5.0
875.45,-7.0
875.51,8.0
875.57,26.0
875.64,36.0
875.7,10.0
875.76,27.0
875.83,29.0
875.89,30.0
875.95,28.0
876.01,39.0
876.08,35.0
876.14,20.0
876.2,22.0
876.27,38.0
876.33,55.0
876.39,43.0
876.46,32.0
876.52,71.0
876.58,88.0
876.64,65.0
876.71,66.0
876.77,69.0
876.83,72.0
876.9,76.0
876.96,82.0
877.02,80.0
877.09,99.0
877.15,91.0
877.21,110.0
877.27,107.0
877.34,110.0
877.4,112.0
877.46,103.0
877.53,84.0
877.59,107.0
877.65,99.0
877.72,96.0
877.78,96.0
877.84,126.0
877.9,111.0
877.97,125.0
878.03,128.0
878.09,132.0
878.16,136.0
878.22,129.0
878.28,120.0
878.35,145.0
878.41,158.0
878.47,162.0
878.53,153.0
878.6,155.0
878.66,174.0
878.72,164.0
878.79,172.0
878.85,186.0
878.91,191.0
878.98,192.0
879.04,189.0
879.1,188.0
879.16,167.0
879.23,187.0
879.29,212.0
879.35,190.0
879.42,194.0
879.48,199.0
879.54,194.0
879.61,205.0
879.67,210.0
879.73,215.0
879.79,202.0
879.86,227.0
879.92,224.0
879.98,221.0
880.05,229.0
880.11,214.0
880.17,230.0
880.24,251.0
880.3,243.0
880.36,226.0
880.42,239.0
880.49,245.0
880.55,240.0
880.61,241.0
880.68,233.0
880.74,241.0
880.8,238.0
880.87,232.0
880.93,245.0
880.99,244.0
881.05,253.0
881.12,255.0
881.18,242.0
881.24,240.0
881.31,261.0
881.37,238.0
881.43,242.0
881.5,259.0
881.56,248.0
881.62,228.0
881.68,241.0
881.75,240.0
881.81,253.0
881.87,223.0
881.94,238.0
882.0,239.0
882.06,249.0
882.13,232.0
882.19,228.0
882.25,241.0
882.31,228.0
882.38,231.0
882.44,224.0
882.5,217.0
882.57,230.0
882.63,233.0
882.69,225.0
882.76,229.0
882.82,222.0
882.88,239.0
882.94,240.0
883.01,259.0
883.07,252.0
883.13,247.0
883.2,249.0
883.26,247.0
883.32,262.0
883.39,256.0
883.45,260.0
883.51,258.0
883.57,241.0
883.64,242.0
883.7,263.0
883.76,264.0
883.83,245.0
883.89,259.0
883.95,263.0
884.02,244.0
884.08,257.0
884.14,272.0
884.2,277.0
884.27,260.0
884.33,275.0
884.39,278.0
884.46,268.0
884.52,266.0
884.58,252.0
884.65,254.0
884.71,261.0
884.77,271.0
884.83,269.0
884.9,237.0
884.96,243.0
885.02,249.0
885.09,247.0
885.15,235.0
885.21,235.0
885.28,238.0
885.34,242.0
885.4,239.0
885.46,226.0
885.53,220.0
885.59,223.0
885.65,221.0
885.72,228.0
885.78,213.0
885.84,213.0
885.91,224.0
885.97,204.0
886.03,201.0
886.09,206.0
886.16,211.0
886.22,210.0
886.28,172.0
886.35,191.0
886.41,185.0
886.47,203.0
886.54,189.0
886.6,186.0
886.66,189.0
886.72,191.0
886.79,190.0
886.85,189.0
886.91,190.0
886.98,179.0
887.04,170.0
887.1,179.0
887.17,169.0
887.23,175.0
887.29,176.0
887.35,191.0
887.42,180.0
887.48,182.0
887.54,192.0
887.61,198.0
887.67,192.0
887.73,198.0
887.8,190.0
887.86,197.0
887.92,184.0
887.98,181.0
888.05,185.0
888.11,178.0
888.17,178.0
888.24,157.0
888.3,154.0
888.36,184.0
888.43,156.0
888.49,167.0
888.55,147.0
888.61,149.0
888.68,136.0
888.74,158.0
888.8,150.0
888.87,128.0
888.93,119.0
888.99,127.0
889.06,135.0
889.12,124.0
889.18,139.0
889.24,129.0
889.31,130.0
889.37,108.0
889.43,118.0
889.5,114.0
889.56,125.0
889.62,137.0
889.69,138.0
889.75,148.0
889.81,120.0
889.87,124.0
889.94,131.0
890.0,123.0
890.06,135.0
890.13,141.0
890.19,125.0
890.25,156.0
890.32,141.0
890.38,110.0
890.44,121.0
890.5,106.0
890.57,88.0
890.63,77.0
890.69,87.0
890.76,99.0
890.82,88.0
890.88,77.0
890.95,93.0
891.01,75.0
891.07,72.0
891.13,73.0
891.2,64.0
891.26,75.0
891.32,75.0
891.39,72.0
891.45,84.0
891.51,81.0
891.58,97.0
891.64,99.0
891.7,75.0
891.76,94.0
891.83,95.0
891.89,85.0
891.95,81.0
892.02,102.0
892.08,113.0
892.14,101.0
892.21,102.0
892.27,102.0
892.33,107.0
892.39,114.0
892.46,93.0
892.52,94.0
892.58,110.0
892.65,117.0
892.71,134.0
892.77,113.0
892.84,99.0
892.9,115.0
892.96,121.0
893.02,102.0
893.09,93.0
893.15,107.0
893.21,110.0
893.28,135.0
893.34,109.0
893.4,108.0
893.47,95.0
893.53,104.0
893.59,113.0
893.65,106.0
893.72,114.0
893.78,115.0
893.84,113.0
893.91,110.0
893.97,123.0
894.03,128.0
894.1,119.0
894.16,118.0
894.22,110.0
894.28,133.0
894.35,148.0
894.41,155.0
894.47,150.0
894.54,150.0
894.6,141.0
894.66,164.0
894.73,175.0
894.79,171.0
894.85,176.0
894.91,183.0
894.98,181.0
895.04,183.0
895.1,187.0
895.17,176.0
895.23,184.0
895.29,180.0
895.36,147.0
895.42,172.0
895.48,181.0
895.54,186.0
895.61,188.0
895.67,195.0
895.73,208.0
895.8,196.0
895.86,250.0
895.92,221.0
895.99,210.0
896.05,203.0
896.11,205.0
896.17,204.0
896.24,212.0
896.3,192.0
896.36,212.0
896.43,207.0
896.49,211.0
896.55,230.0
896.62,224.0
896.68,209.0
896.74,207.0
896.8,198.0
896.87,187.0
896.93,184.0
896.99,184.0
897.06,182.0
897.12,181.0
897.18,169.0
897.25,183.0
897.31,174.0
897.37,165.0
897.43,168.0
897.5,143.0
897.56,164.0
897.62,169.0
897.69,164.0
897.75,160.0
897.81,156.0
897.88,161.0
897.94,162.0
898.0,190.0
898.06,184.0
898.13,155.0
898.19,172.0
898.25,151.0
898.32,180.0
898.38,194.0
898.44,173.0
898.51,194.0
898.57,177.0
898.63,202.0
898.69,175.0
898.76,183.0
898.82,196.0
898.88,184.0
898.95,196.0
899.01,195.0
899.07,204.0
899.14,208.0
899.2,214.0
899.26,212.0
899.32,216.0
899.39,192.0
899.45,198.0
899.51,183.0
899.58,197.0
899.64,205.0
899.7,201.0
899.77,197.0
899.83,190.0
899.89,183.0
899.95,182.0
900.02,184.0
900.08,184.0
900.14,179.0
900.21,212.0
900.27,212.0
900.33,194.0
900.4,181.0
900.46,184.0
900.52,179.0
900.58,174.0
900.65,154.0
900.71,170.0
900.77,179.0
900.84,146.0
900.9,169.0
900.96,160.0
901.03,155.0
901.09,148.0
901.15,135.0
901.21,128.0
901.28,133.0
901.34,144.0
901.4,145.0
901.47,142.0
901.53,140.0
901.59,126.0
901.66,101.0
901.72,115.0
901.78,110.0
901.84,104.0
901.91,102.0
901.97,82.0
902.03,80.0
902.1,89.0
902.16,76.0
902.22,95.0
902.29,98.0
902.35,81.0
902.41,84.0
902.47,99.0
902.54,90.0
902.6,81.0
902.66,76.0
902.73,60.0
902.79,81.0
902.85,81.0
902.92,65.0
902.98,57.0
903.04,86.0
903.1,92.0
903.17,82.0
903.23,74.0
903.29,81.0
903.36,89.0
903.42,74.0
903.48,72.0
903.55,83.0
903.61,88.0
903.67,76.0
903.73,82.0
903.8,94.0
903.86,59.0
903.92,57.0
903.99,65.0
904.05,55.0
904.11,66.0
904.18,44.0
904.24,47.0
904.3,70.0
904.36,48.0
904.43,31.0
904.49,38.0
904.55,58.0
904.62,44.0
904.68,47.0
904.74,58.0
904.81,50.0
904.87,55.0
904.93,32.0
904.99,32.0
905.06,48.0
905.12,48.0
905.18,33.0
905.25,36.0
905.31,32.0
905.37,41.0
905.44,60.0
905.5,26.0
905.56,38.0
905.62,43.0
905.69,49.0
905.75,44.0
905.81,48.0
905.88,47.0
905.94,37.0
906.0,63.0
906.07,46.0
906.13,24.0
906.19,30.0
906.25,39.0
906.32,36.0
906.38,56.0
906.44,46.0
906.51,76.0
906.57,87.0
906.63,54.0
906.7,57.0
906.76,68.0
906.82,55.0
906.88,43.0
906.95,49.0
907.01,66.0
907.07,69.0
907.14,73.0
907.2,71.0
907.26,66.0
907.33,79.0
907.39,70.0
907.45,65.0
907.51,51.0
907.58,88.0
907.64,63.0
907.7,63.0
907.77,78.0
907.83,74.0
907.89,98.0
907.96,92.0
908.02,97.0
908.08,87.0
908.14,102.0
908.21,95.0
908.27,95.0
908.33,111.0
908.4,95.0
908.46,88.0
908.52,111.0
908.59,122.0
908.65,111.0
908.71,113.0
908.77,129.0
908.84,133.0
908.9,129.0
908.96,110.0
909.03,127.0
909.09,129.0
909.15,121.0
909.22,112.0
909.28,121.0
909.34,142.0
909.4,134.0
909.47,115.0
909.53,144.0
909.59,133.0
909.66,143.0
909.72,158.0
909.78,143.0
909.85,171.0
909.91,177.0
909.97,169.0
910.03,168.0
910.1,194.0
910.16,202.0
910.22,188.0
910.29,203.0
910.35,194.0
910.41,213.0
910.48,210.0
910.54,221.0
910.6,224.0
910.66,228.0
910.73,244.0
910.79,255.0
910.85,238.0
910.92,250.0
910.98,242.0
911.04,242.0
911.11,242.0
911.17,232.0
911.23,217.0
911.29,235.0
911.36,236.0
911.42,235.0
911.48,240.0
911.55,238.0
911.61,250.0
911.67,252.0
911.74,241.0
911.8,248.0
911.86,247.0
911.92,232.0
911.99,249.0
912.05,260.0
912.11,262.0
912.18,249.0
912.24,255.0
912.3,266.0
912.37,257.0
912.43,275.0
912.49,264.0
912.55,255.0
912.62,283.0
912.68,249.0
912.74,260.0
912.81,258.0
912.87,274.0
912.93,264.0
913.0,268.0
913.06,274.0
913.12,249.0
913.18,253.0
913.25,244.0
913.31,249.0
913.37,250.0
913.44,253.0
913.5,239.0
913.56,255.0
913.63,250.0
913.69,242.0
913.75,233.0
913.81,245.0
913.88,239.0
913.94,227.0
914.0,222.0
914.07,241.0
914.13,243.0
914.19,218.0
914.26,213.0
914.32,240.0
914.38,246.0
914.44,231.0
914.51,238.0
914.57,225.0
914.63,244.0
914.7,268.0
914.76,256.0
914.82,239.0
914.89,260.0
914.95,258.0
915.01,264.0
915.07,249.0
915.14,237.0
915.2,246.0
915.26,217.0
915.33,218.0
915.39,223.0
915.45,256.0
915.52,232.0
915.58,228.0
915.64,226.0
915.7,223.0
915.77,235.0
915.83,221.0
915.89,227.0
915.96,239.0
916.02,235.0
916.08,227.0
916.15,208.0
916.21,218.0
916.27,218.0
916.33,227.0
916.4,223.0
916.46,227.0
916.52,234.0
916.59,249.0
916.65,243.0
916.71,236.0
916.78,224.0
916.84,204.0
916.9,219.0
916.96,233.0
917.03,228.0
917.09,223.0
917.15,215.0
917.22,222.0
917.28,213.0
917.34,204.0
917.41,199.0
917.47,185.0
917.53,187.0
917.59,191.0
917.66,182.0
917.72,164.0
917.78,169.0
917.85,184.0
917.91,183.0
917.97,163.0
918.04,137.0
918.1,156.0
918.16,130.0
918.22,136.0
918.29,141.0
918.35,127.0
918.41,109.0
918.48,110.0
918.54,96.0
918.6,101.0
918.67,118.0
918.73,105.0
918.79,99.0
918.85,95.0
918.92,80.0
918.98,96.0
919.04,86.0
919.11,89.0
919.17,78.0
919.23,60.0
919.3,72.0
919.36,67.0
919.42,59.0
919.48,79.0
919.55,52.0
919.61,58.0
919.67,57.0
919.74,53.0
919.8,59.0
919.86,49.0
919.93,53.0
919.99,44.0
920.05,55.0
920.11,44.0
920.18,32.0
920.24,41.0
920.3,38.0
920.37,30.0
920.43,40.0
920.49,54.0
920.56,36.0
920.62,20.0
920.68,34.0
920.74,49.0
920.81,22.0
920.87,18.0
920.93,27.0
921.0,49.0
921.06,36.0
921.12,40.0
921.19,36.0
921.25,60.0
921.31,45.0
921.37,48.0
921.44,73.0
921.5,76.0
921.56,74.0
921.63,84.0
921.69,62.0
921.75,55.0
921.82,56.0
921.88,46.0
921.94,49.0
922.0,73.0
922.07,48.0
922.13,42.0
922.19,23.0
922.26,29.0
922.32,28.0
922.38,24.0
922.45,23.0
922.51,29.0
922.57,18.0
922.63,11.0
922.7,9.0
922.76,-8.0
922.82,7.0
922.89,5.0
922.95,1.0
923.01,2.0
923.08,-23.0
923.14,-9.0
923.2,-2.0
923.26,-7.0
923.33,-11.0
923.39,-9.0
923.45,-5.0
923.52,2.0
923.58,-13.0
923.64,-5.0
923.71,38.0
923.77,18.0
923.83,33.0
923.89,1.0
923.96,3.0
924.02,20.0
924.08,21.0
924.15,7.0
924.21,7.0
924.27,15.0
924.34,6.0
924.4,19.0
924.46,-14.0
924.52,22.0
924.59,22.0
924.65,17.0
924.71,12.0
924.78,11.0
924.84,14.0
924.9,29.0
924.97,33.0
925.03,6.0
925.09,14.0
925.15,15.0
925.22,22.0
925.28,17.0
925.34,20.0
925.41,44.0
925.47,44.0
925.53,39.0
925.6,33.0
925.66,36.0
925.72,62.0
925.78,70.0
925.85,63.0
925.91,58.0
925.97,51.0
926.04,65.0
926.1,75.0
926.16,72.0
926.23,66.0
926.29,63.0
926.35,81.0
926.41,76.0
926.48,83.0
926.54,80.0
926.6,60.0
926.67,85.0
926.73,78.0
926.79,58.0
926.86,46.0
926.92,73.0
926.98,65.0
927.04,58.0
927.11,99.0
927.17,98.0
927.23,110.0
927.3,80.0
927.36,74.0
927.42,100.0
927.49,77.0
927.55,96.0
927.61,85.0
927.67,66.0
927.74,93.0
927.8,96.0
927.86,80.0
927.93,99.0
927.99,87.0
928.05,85.0
928.12,88.0
928.18,86.0
928.24,76.0
928.3,89.0
928.37,79.0
928.43,91.0
928.49,111.0
928.56,89.0
928.62,96.0
928.68,108.0
928.75,109.0
928.81,108.0
928.87,106.0
928.93,99.0
929.0,97.0
929.06,96.0
929.12,96.0
929.19,96.0
929.25,97.0
929.31,106.0
929.38,104.0
929.44,96.0
929.5,113.0
929.56,96.0
929.63,90.0
929.69,98.0
929.75,110.0
929.82,125.0
929.88,129.0
929.94,114.0
930.01,121.0
930.07,124.0
930.13,121.0
930.19,117.0
930.26,132.0
930.32,139.0
930.38,144.0
930.45,155.0
930.51,137.0
930.57,135.0
930.64,141.0
930.7,148.0
930.76,146.0
930.82,145.0
930.89,121.0
930.95,117.0
931.01,120.0
931.08,117.0
931.14,140.0
931.2,158.0
931.27,136.0
931.33,148.0
931.39,168.0
931.45,168.0
931.52,162.0
931.58,156.0
931.64,162.0
931.71,154.0
931.77,168.0
931.83,174.0
931.9,179.0
931.96,175.0
932.02,172.0
932.08,173.0
932.15,164.0
932.21,190.0
932.27,183.0
932.34,176.0
932.4,170.0
932.46,165.0
932.53,172.0
932.59,149.0
932.65,175.0
932.71,178.0
932.78,148.0
932.84,151.0
932.9,159.0
932.97,154.0
933.03,161.0
933.09,156.0
933.16,151.0
933.22,198.0
933.28,191.0
933.34,202.0
933.41,187.0
933.47,184.0
933.53,176.0
933.6,195.0
933.66,184.0
933.72,185.0
933.79,181.0
933.85,182.0
933.91,179.0
933.97,192.0
934.04,176.0
934.1,190.0
934.16,201.0
934.23,187.0
934.29,194.0
934.35,185.0
934.42,180.0
934.48,179.0
934.54,175.0
934.6,164.0
934.67,160.0
934.73,168.0
934.79,180.0
934.86,189.0
934.92,193.0
934.98,175.0
935.05,170.0
935.11,164.0
935.17,150.0
935.23,163.0
935.3,170.0
935.36,168.0
935.42,157.0
935.49,158.0
935.55,157.0
935.61,155.0
935.68,153.0
935.74,157.0
935.8,154.0
935.86,147.0
935.93,159.0
935.99,162.0
936.05,161.0
936.12,161.0
936.18,157.0
936.24,154.0
936.31,171.0
936.37,169.0
936.43,175.0
936.49,164.0
936.56,152.0
936.62,168.0
936.68,151.0
936.75,177.0
936.81,166.0
936.87,155.0
936.94,188.0
937.0,195.0
937.06,183.0
937.12,163.0
937.19,168.0
937.25,175.0
937.31,175.0
937.38,170.0
937.44,174.0
937.5,180.0
937.57,173.0
937.63,179.0
937.69,178.0
937.75,173.0
937.82,173.0
937.88,177.0
937.94,178.0
938.01,173.0
938.07,164.0
938.13,158.0
938.2,172.0
938.26,184.0
938.32,172.0
938.38,172.0
938.45,186.0
938.51,176.0
938.57,153.0
938.64,145.0
938.7,150.0
938.76,169.0
938.83,165.0
938.89,159.0
938.95,152.0
939.01,161.0
939.08,172.0
939.14,156.0
939.2,161.0
939.27,151.0
939.33,145.0
939.39,140.0
939.46,141.0
939.52,161.0
939.58,150.0
939.64,151.0
939.71,134.0
939.77,134.0
939.83,156.0
939.9,139.0
939.96,155.0
940.02,143.0
940.09,150.0
940.15,158.0
940.21,161.0
940.27,172.0
940.34,157.0
940.4,176.0
940.46,185.0
940.53,165.0
940.59,167.0
940.65,163.0
940.72,151.0
940.78,165.0
940.84,159.0
940.9,150.0
940.97,152.0
941.03,153.0
941.09,137.0
941.16,150.0
941.22,143.0
941.28,153.0
941.35,139.0
941.41,135.0
941.47,151.0
941.53,145.0
941.6,145.0
941.66,151.0
941.72,163.0
941.79,155.0
941.85,176.0
941.91,173.0
941.98,164.0
942.04,168.0
942.1,154.0
942.16,167.0
942.23,159.0
942.29,168.0
942.35,156.0
942.42,165.0
942.48,188.0
942.54,189.0
942.61,187.0
942.67,184.0
942.73,193.0
942.79,192.0
942.86,177.0
942.92,183.0
942.98,181.0
943.05,168.0
943.11,174.0
943.17,174.0
943.24,178.0
943.3,168.0
943.36,183.0
943.42,190.0
943.49,172.0
943.55,195.0
943.61,195.0
943.68,206.0
943.74,189.0
943.8,201.0
943.87,191.0
943.93,212.0
943.99,206.0
944.05,208.0
944.12,216.0
944.18,204.0
944.24,183.0
944.31,165.0
944.37,182.0
944.43,185.0
944.5,176.0
944.56,159.0
944.62,189.0
944.68,206.0
944.75,203.0
944.81,230.0
944.87,216.0
944.94,209.0
945.0,195.0
945.06,189.0
945.13,212.0
945.19,190.0
945.25,190.0
945.31,208.0
945.38,212.0
945.44,224.0
945.5,217.0
945.57,216.0
945.63,213.0
945.69,195.0
945.76,198.0
945.82,209.0
945.88,206.0
945.94,196.0
946.01,204.0
946.07,205.0
946.13,196.0
946.2,208.0
946.26,201.0
946.32,190.0
946.39,179.0
946.45,178.0
946.51,187.0
946.57,178.0
946.64,182.0
946.7,179.0
946.76,191.0
946.83,193.0
946.89,208.0
946.95,200.0
947.02,197.0
947.08,229.0
947.14,227.0
947.2,213.0
947.27,219.0
947.33,226.0
947.39,192.0
947.46,200.0
947.52,201.0
947.58,217.0
947.65,221.0
947.71,223.0
947.77,209.0
947.83,201.0
947.9,202.0
947.96,208.0
948.02,208.0
948.09,221.0
948.15,218.0
948.21,202.0
948.28,228.0
948.34,207.0
948.4,200.0
948.46,214.0
948.53,176.0
948.59,183.0
948.65,195.0
948.72,197.0
948.78,169.0
948.84,179.0
948.91,190.0
948.97,187.0
949.03,175.0
949.09,165.0
949.16,170.0
949.22,183.0
949.28,172.0
949.35,172.0
949.41,169.0
949.47,186.0
949.54,175.0
949.6,168.0
949.66,158.0
949.72,165.0
949.79,177.0
949.85,181.0
949.91,188.0
949.98,190.0
950.04,192.0
950.1,192.0
950.17,187.0
950.23,203.0
950.29,174.0
950.35,170.0
950.42,195.0
950.48,186.0
950.54,207.0
950.61,182.0
950.67,191.0
950.73,201.0
950.8,203.0
950.86,207.0
950.92,201.0
950.98,210.0
951.05,200.0
951.11,209.0
951.17,231.0
951.24,226.0
951.3,205.0
951.36,215.0
951.43,198.0
951.49,199.0
951.55,211.0
951.61,211.0
951.68,193.0
951.74,208.0
951.8,222.0
951.87,196.0
951.93,184.0
951.99,186.0
952.06,187.0
952.12,195.0
952.18,200.0
952.24,204.0
952.31,196.0
952.37,177.0
952.43,178.0
952.5,152.0
952.56,151.0
952.62,155.0
952.69,154.0
952.75,157.0
952.81,148.0
952.87,150.0
952.94,142.0
953.0,142.0
953.06,134.0
953.13,125.0
953.19,124.0
953.25,124.0
953.32,117.0
953.38,113.0
953.44,134.0
953.5,136.0
953.57,131.0
953.63,139.0
953.69,120.0
953.76,131.0
953.82,124.0
953.88,114.0
953.95,109.0
954.01,115.0
954.07,132.0
954.13,122.0
954.2,115.0
954.26,128.0
954.32,118.0
954.39,115.0
954.45,128.0
954.51,128.0
954.58,126.0
954.64,118.0
954.7,140.0
954.76,127.0
954.83,131.0
954.89,149.0
954.95,150.0
955.02,140.0
955.08,125.0
955.14,132.0
955.21,115.0
955.27,111.0
955.33,137.0
955.39,131.0
955.46,123.0
955.52,123.0
955.58,135.0
955.65,126.0
955.71,117.0
955.77,128.0
955.84,125.0
955.9,128.0
955.96,128.0
956.02,142.0
956.09,120.0
956.15,117.0
956.21,108.0
956.28,103.0
956.34,128.0
956.4,130.0
956.47,128.0
956.53,113.0
956.59,115.0
956.65,104.0
956.72,129.0
956.78,118.0
956.84,99.0
956.91,106.0
956.97,109.0
957.03,121.0
957.1,129.0
957.16,147.0
957.22,152.0
957.28,132.0
957.35,139.0
957.41,146.0
957.47,128.0
957.54,128.0
957.6,116.0
957.66,139.0
957.73,158.0
957.79,140.0
957.85,153.0
957.91,126.0
957.98,155.0
958.04,155.0
958.1,166.0
958.17,174.0
958.23,143.0
958.29,165.0
958.36,149.0
958.42,157.0
958.48,167.0
958.54,165.0
958.61,153.0
958.67,163.0
958.73,170.0
958.8,137.0
958.86,141.0
958.92,150.0
958.99,153.0
959.05,158.0
959.11,156.0
959.17,145.0
959.24,169.0
959.3,152.0
959.36,124.0
959.43,145.0
959.49,175.0
959.55,169.0
959.62,160.0
959.68,151.0
959.74,156.0
959.8,154.0
959.87,144.0
959.93,159.0
959.99,144.0
960.06,155.0
960.12,147.0
960.18,158.0
960.25,180.0
960.31,158.0
960.37,191.0
960.43,179.0
960.5,190.0
960.56,173.0
960.62,156.0
960.69,186.0
960.75,178.0
960.81,180.0
960.88,187.0
960.94,173.0
961.0,194.0
961.06,173.0
961.13,169.0
961.19,174.0
961.25,161.0
961.32,158.0
961.38,161.0
961.44,198.0
961.51,186.0
961.57,188.0
961.63,206.0
961.69,194.0
961.76,176.0
961.82,191.0
961.88,181.0
961.95,194.0
962.01,211.0
962.07,197.0
962.14,202.0
962.2,175.0
962.26,186.0
962.32,185.0
962.39,192.0
962.45,203.0
962.51,220.0
962.58,213.0
962.64,217.0
962.7,224.0
962.77,220.0
962.83,202.0
962.89,203.0
962.95,201.0
963.02,192.0
963.08,183.0
963.14,196.0
963.21,197.0
963.27,190.0
963.33,197.0
963.4,178.0
963.46,194.0
963.52,182.0
963.58,172.0
963.65,179.0
963.71,164.0
963.77,157.0
963.84,167.0
963.9,169.0
963.96,136.0
964.03,156.0
964.09,151.0
964.15,156.0
964.21,159.0
964.28,133.0
964.34,147.0
964.4,134.0
964.47,140.0
964.53,137.0
964.59,136.0
964.66,130.0
964.72,170.0
964.78,162.0
964.84,135.0
964.91,158.0
964.97,134.0
965.03,143.0
965.1,155.0
965.16,169.0
965.22,174.0
965.29,184.0
965.35,168.0
965.41,171.0
965.47,164.0
965.54,170.0
965.6,182.0
965.66,184.0
965.73,172.0
965.79,195.0
965.85,167.0
965.92,175.0
965.98,180.0
966.04,141.0
966.1,172.0
966.17,174.0
966.23,181.0
966.29,204.0
966.36,198.0
966.42,182.0
966.48,187.0
966.55,198.0
966.61,208.0
966.67,221.0
966.73,233.0
966.8,219.0
966.86,217.0
966.92,225.0
966.99,231.0
967.05,242.0
967.11,225.0
967.18,229.0
967.24,253.0
967.3,226.0
967.36,235.0
967.43,231.0
967.49,230.0
967.55,245.0
967.62,235.0
967.68,230.0
967.74,208.0
967.81,217.0
967.87,216.0
967.93,212.0
967.99,222.0
968.06,224.0
968.12,225.0
968.18,227.0
968.25,231.0
968.31,227.0
968.37,211.0
968.44,216.0
968.5,220.0
968.56,202.0
968.62,202.0
968.69,221.0
968.75,203.0
968.81,191.0
968.88,183.0
968.94,187.0
969.0,181.0
969.07,175.0
969.13,153.0
969.19,148.0
969.25,154.0
969.32,137.0
969.38,141.0
969.44,128.0
969.51,114.0
969.57,137.0
969.63,136.0
969.7,142.0
969.76,128.0
969.82,130.0
969.88,143.0
969.95,124.0
970.01,141.0
970.07,151.0
970.14,123.0
970.2,140.0
970.26,138.0
970.33,131.0
970.39,158.0
970.45,129.0
970.51,125.0
970.58,144.0
970.64,139.0
970.7,121.0
970.77,125.0
970.83,126.0
970.89,106.0
970.96,100.0
971.02,120.0
971.08,121.0
971.14,118.0
971.21,114.0
971.27,116.0
971.33,107.0
971.4,101.0
971.46,100.0
971.52,90.0
971.59,77.0
971.65,84.0
971.71,63.0
971.77,82.0
971.84,79.0
971.9,85.0
971.96,87.0
972.03,79.0
972.09,79.0
972.15,96.0
972.22,73.0
972.28,99.0
972.34,96.0
972.4,92.0
972.47,79.0
972.53,77.0
972.59,81.0
972.66,66.0
972.72,74.0
972.78,81.0
972.85,84.0
972.91,63.0
972.97,68.0
973.03,77.0
973.1,99.0
973.16,106.0
973.22,104.0
973.29,98.0
973.35,104.0
973.41,109.0
973.48,129.0
973.54,114.0
973.6,106.0
973.66,94.0
973.73,110.0
973.79,94.0
973.85,73.0
973.92,87.0
973.98,98.0
974.04,85.0
974.11,93.0
974.17,102.0
974.23,96.0
974.29,95.0
974.36,88.0
974.42,67.0
974.48,99.0
974.55,92.0
974.61,90.0
974.67,90.0
974.74,103.0
974.8,71.0
974.86,64.0
974.92,75.0
974.99,70.0
975.05,63.0
975.11,58.0
975.18,67.0
975.24,52.0
975.3,48.0
975.37,43.0
975.43,43.0
975.49,48.0
975.55,47.0
975.62,63.0
975.68,51.0
975.74,59.0
975.81,73.0
975.87,53.0
975.93,61.0
976.0,50.0
976.06,51.0
976.12,95.0
976.18,88.0
976.25,74.0
976.31,62.0
976.37,84.0
976.44,63.0
976.5,89.0
976.56,76.0
976.63,48.0
976.69,56.0
976.75,51.0
976.81,60.0
976.88,49.0
976.94,47.0
977.0,55.0
977.07,46.0
977.13,45.0
977.19,54.0
977.26,73.0
977.32,84.0
977.38,71.0
977.44,106.0
977.51,84.0
977.57,75.0
977.63,61.0
977.7,56.0
977.76,64.0
977.82,83.0
977.89,85.0
977.95,78.0
978.01,63.0
978.07,66.0
978.14,59.0
978.2,59.0
978.26,67.0
978.33,55.0
978.39,55.0
978.45,59.0
978.52,64.0
978.58,43.0
978.64,55.0
978.7,61.0
978.77,62.0
978.83,63.0
978.89,74.0
978.96,79.0
979.02,64.0
979.08,66.0
979.15,45.0
979.21,39.0
979.27,61.0
979.33,57.0
979.4,80.0
979.46,80.0
979.52,72.0
979.59,71.0
979.65,57.0
979.71,59.0
979.78,61.0
979.84,72.0
979.9,63.0
979.96,53.0
980.03,84.0
980.09,52.0
980.15,62.0
980.22,56.0
980.28,57.0
980.34,53.0
980.41,35.0
980.47,56.0
980.53,44.0
980.59,40.0
980.66,38.0
980.72,54.0
980.78,57.0
980.85,46.0
980.91,69.0
980.97,60.0
981.04,51.0
981.1,35.0
981.16,35.0
981.22,35.0
981.29,35.0
981.35,51.0
981.41,44.0
981.48,44.0
981.54,38.0
981.6,46.0
981.67,57.0
981.73,54.0
981.79,60.0
981.85,73.0
981.92,72.0
981.98,70.0
982.04,59.0
982.11,57.0
982.17,34.0
982.23,38.0
982.3,52.0
982.36,60.0
982.42,56.0
982.48,70.0
982.55,88.0
982.61,85.0
982.67,77.0
982.74,49.0
982.8,81.0
982.86,74.0
982.93,74.0
982.99,89.0
983.05,93.0
983.11,85.0
983.18,82.0
983.24,99.0
983.3,96.0
983.37,105.0
983.43,109.0
983.49,131.0
983.56,121.0
983.62,128.0
983.68,137.0
983.74,128.0
983.81,132.0
983.87,136.0
983.93,141.0
984.0,144.0
984.06,137.0
984.12,136.0
984.19,134.0
984.25,148.0
984.31,144.0
984.37,139.0
984.44,143.0
984.5,148.0
984.56,146.0
984.63,171.0
984.69,180.0
984.75,175.0
984.82,164.0
984.88,194.0
984.94,194.0
985.0,194.0
985.07,178.0
985.13,187.0
985.19,183.0
985.26,184.0
985.32,187.0
985.38,158.0
985.45,145.0
985.51,154.0
985.57,136.0
985.63,132.0
985.7,165.0
985.76,164.0
985.82,158.0
985.89,180.0
985.95,173.0
986.01,153.0
986.08,172.0
986.14,180.0
986.2,177.0
986.26,165.0
986.33,151.0
986.39,157.0
986.45,145.0
986.52,148.0
986.58,137.0
986.64,163.0
986.71,193.0
986.77,157.0
986.83,154.0
986.89,149.0
986.96,152.0
987.02,132.0
987.08,137.0
987.15,133.0
987.21,129.0
987.27,121.0
987.34,127.0
987.4,132.0
987.46,111.0
987.52,113.0
987.59,117.0
987.65,110.0
987.71,119.0
987.78,113.0
987.84,118.0
987.9,128.0
987.97,119.0
988.03,118.0
988.09,146.0
988.15,121.0
988.22,121.0
988.28,128.0
988.34,110.0
988.41,106.0
988.47,104.0
988.53,111.0
988.6,117.0
988.66,114.0
988.72,117.0
988.78,109.0
988.85,147.0
988.91,121.0
988.97,132.0
989.04,117.0
989.1,133.0
989.16,140.0
989.23,125.0
989.29,139.0
989.35,110.0
989.41,120.0
989.48,123.0
989.54,123.0
989.6,141.0
989.67,146.0
989.73,150.0
989.79,150.0
989.86,138.0
989.92,140.0
989.98,146.0
990.04,145.0
990.11,161.0
990.17,153.0
990.23,134.0
990.3,129.0
990.36,136.0
990.42,140.0
990.49,134.0
990.55,141.0
990.61,150.0
990.67,136.0
990.74,127.0
990.8,109.0
990.86,114.0
990.93,103.0
990.99,111.0
991.05,119.0
991.12,129.0
991.18,146.0
991.24,134.0
991.3,135.0
991.37,121.0
991.43,128.0
991.49,118.0
991.56,129.0
991.62,138.0
991.68,157.0
991.75,142.0
991.81,154.0
991.87,170.0
991.93,153.0
992.0,170.0
992.06,165.0
992.12,168.0
992.19,161.0
992.25,171.0
992.31,183.0
992.38,180.0
992.44,171.0
992.5,176.0
992.56,169.0
992.63,175.0
992.69,179.0
992.75,180.0
992.82,198.0
992.88,183.0
992.94,187.0
993.01,172.0
993.07,179.0
993.13,191.0
993.19,219.0
993.26,192.0
993.32,200.0
993.38,203.0
993.45,194.0
993.51,192.0
993.57,196.0
993.64,202.0
993.7,219.0
993.76,225.0
993.82,224.0
993.89,241.0
993.95,231.0
994.01,227.0
994.08,250.0
994.14,239.0
994.2,233.0
994.27,233.0
994.33,245.0
994.39,258.0
994.45,228.0
994.52,209.0
994.58,231.0
994.64,223.0
994.71,211.0
994.77,223.0
994.83,216.0
994.9,253.0
994.96,228.0
995.02,238.0
995.08,258.0
995.15,243.0
995.21,226.0
995.27,206.0
995.34,213.0
995.4,236.0
995.46,232.0
995.53,227.0
995.59,244.0
995.65,237.0
995.71,239.0
995.78,226.0
995.84,246.0
995.9,245.0
995.97,229.0
996.03,265.0
996.09,258.0
996.16,246.0
996.22,242.0
996.28,228.0
996.34,264.0
996.41,250.0
996.47,262.0
996.53,239.0
996.6,246.0
996.66,231.0
996.72,249.0
996.79,227.0
996.85,228.0
996.91,231.0
996.97,234.0
997.04,234.0
997.1,236.0
997.16,212.0
997.23,222.0
997.29,231.0
997.35,209.0
997.42,213.0
997.48,229.0
997.54,212.0
997.6,211.0
997.67,220.0
997.73,222.0
997.79,207.0
997.86,195.0
997.92,192.0
997.98,192.0
998.05,197.0
998.11,207.0
998.17,208.0
998.23,225.0
998.3,225.0
998.36,219.0
998.42,223.0
998.49,209.0
998.55,200.0
998.61,217.0
998.68,212.0
998.74,212.0
998.8,201.0
998.86,210.0
998.93,205.0
998.99,189.0
999.05,212.0
999.12,203.0
999.18,191.0
999.24,205.0
999.31,199.0
999.37,214.0
999.43,209.0
999.49,203.0
999.56,199.0
999.62,202.0
999.68,224.0
999.75,217.0
999.81,212.0
999.87,200.0
