timestamp,intensity
0,-254.0
0.06,-257.0
0.13,-268.0
0.19,-269.0
0.25,-255.0
0.32,-265.0
0.38,-256.0
0.44,-261.0
0.5,-264.0
0.57,-262.0
0.63,-276.0
0.69,-270.0
0.76,-277.0
0.82,-269.0
0.88,-274.0
0.94,-283.0
1.01,-281.0
1.07,-245.0
1.13,-251.0
1.2,-279.0
1.26,-290.0
1.32,-270.0
1.39,-278.0
1.45,-269.0
1.51,-257.0
1.57,-247.0
1.64,-256.0
1.7,-281.0
1.76,-265.0
1.83,-290.0
1.89,-289.0
1.95,-282.0
2.02,-307.0
2.08,-298.0
2.14,-274.0
2.2,-290.0
2.27,-283.0
2.33,-267.0
2.39,-280.0
2.46,-267.0
2.52,-267.0
2.58,-281.0
2.65,-287.0
2.71,-278.0
2.77,-278.0
2.84,-260.0
2.9,-292.0
2.96,-291.0
3.02,-270.0
3.09,-274.0
3.15,-268.0
3.21,-279.0
3.28,-281.0
3.34,-271.0
3.4,-295.0
3.47,-291.0
3.53,-277.0
3.59,-266.0
3.65,-291.0
3.72,-288.0
3.78,-274.0
3.84,-298.0
3.91,-305.0
3.97,-296.0
4.03,-281.0
4.1,-284.0
4.16,-276.0
4.22,-287.0
4.28,-275.0
4.35,-273.0
4.41,-293.0
4.47,-269.0
4.54,-278.0
4.6,-296.0
4.66,-279.0
4.73,-271.0
4.79,-298.0
4.85,-286.0
4.91,-278.0
4.98,-294.0
5.04,-275.0
5.1,-292.0
5.17,-300.0
5.23,-294.0
5.29,-307.0
5.35,-293.0
5.42,-275.0
5.48,-295.0
5.54,-289.0
5.61,-286.0
5.67,-285.0
5.73,-269.0
5.8,-288.0
5.86,-301.0
5.92,-268.0
5.98,-296.0
6.05,-283.0
6.11,-287.0
6.17,-300.0
6.24,-256.0
6.3,-274.0
6.36,-264.0
6.43,-266.0
6.49,-256.0
6.55,-272.0
6.61,-266.0
6.68,-269.0
6.74,-260.0
6.8,-256.0
6.87,-257.0
6.93,-258.0
6.99,-283.0
7.06,-262.0
7.12,-273.0
7.18,-301.0
7.24,-296.0
7.31,-322.0
7.37,-327.0
7.43,-338.0
7.5,-323.0
7.56,-336.0
7.62,-310.0
7.69,-304.0
7.75,-350.0
7.81,-306.0
7.87,-340.0
7.94,-328.0
8.0,-356.0
8.06,-342.0
8.13,-334.0
8.19,-334.0
8.25,-347.0
8.32,-342.0
8.38,-325.0
8.44,-327.0
8.5,-317.0
8.57,-317.0
8.63,-348.0
8.69,-343.0
8.76,-362.0
8.82,-362.0
8.88,-359.0
8.95,-344.0
9.01,-350.0
9.07,-360.0
9.13,-325.0
9.2,-313.0
9.26,-321.0
9.32,-345.0
9.39,-330.0
9.45,-333.0
9.51,-324.0
9.58,-323.0
9.64,-322.0
9.7,-315.0
9.77,-325.0
9.83,-321.0
9.89,-330.0
9.95,-313.0
10.02,-308.0
10.08,-304.0
10.14,-275.0
10.21,-286.0
10.27,-284.0
10.33,-272.0
10.4,-254.0
10.46,-268.0
10.52,-251.0
10.58,-228.0
10.65,-253.0
10.71,-256.0
10.77,-223.0
10.84,-214.0
10.9,-221.0
10.96,-210.0
11.03,-199.0
11.09,-205.0
11.15,-202.0
11.21,-198.0
11.28,-190.0
11.34,-205.0
11.4,-207.0
11.47,-208.0
11.53,-178.0
11.59,-181.0
11.66,-191.0
11.72,-161.0
11.78,-164.0
11.84,-169.0
11.91,-158.0
11.97,-157.0
12.03,-149.0
12.1,-150.0
12.16,-165.0
12.22,-157.0
12.29,-136.0
12.35,-136.0
12.41,-139.0
12.47,-143.0
12.54,-116.0
12.6,-107.0
12.66,-119.0
12.73,-104.0
12.79,-126.0
12.85,-118.0
12.92,-104.0
12.98,-94.0
13.04,-98.0
13.1,-113.0
13.17,-106.0
13.23,-103.0
13.29,-107.0
13.36,-79.0
13.42,-76.0
13.48,-86.0
13.55,-75.0
13.61,-56.0
13.67,-46.0
13.73,-64.0
13.8,-78.0
13.86,-70.0
13.92,-71.0
13.99,-69.0
14.05,-73.0
14.11,-91.0
14.18,-86.0
14.24,-91.0
14.3,-92.0
14.36,-89.0
14.43,-101.0
14.49,-81.0
14.55,-70.0
14.62,-81.0
14.68,-73.0
14.74,-36.0
14.81,-47.0
14.87,-63.0
14.93,-66.0
14.99,-73.0
15.06,-56.0
15.12,-67.0
15.18,-77.0
15.25,-69.0
15.31,-91.0
15.37,-93.0
15.44,-89.0
15.5,-74.0
15.56,-91.0
15.62,-104.0
15.69,-108.0
15.75,-142.0
15.81,-119.0
15.88,-124.0
15.94,-135.0
16.0,-137.0
16.07,-143.0
16.13,-152.0
16.19,-132.0
16.25,-146.0
16.32,-167.0
16.38,-139.0
16.44,-147.0
16.51,-131.0
16.57,-163.0
16.63,-148.0
16.7,-131.0
16.76,-141.0
16.82,-121.0
16.88,-106.0
16.95,-128.0
17.01,-114.0
17.07,-120.0
17.14,-125.0
17.2,-125.0
17.26,-124.0
17.33,-120.0
17.39,-116.0
17.45,-119.0
17.51,-111.0
17.58,-139.0
17.64,-131.0
17.7,-133.0
17.77,-144.0
17.83,-140.0
17.89,-151.0
17.96,-152.0
18.02,-155.0
18.08,-156.0
18.14,-171.0
18.21,-153.0
18.27,-138.0
18.33,-128.0
18.4,-141.0
18.46,-132.0
18.52,-149.0
18.59,-131.0
18.65,-146.0
18.71,-161.0
18.77,-155.0
18.84,-153.0
18.9,-157.0
18.96,-152.0
19.03,-137.0
19.09,-137.0
19.15,-147.0
19.22,-152.0
19.28,-164.0
19.34,-163.0
19.4,-173.0
19.47,-160.0
19.53,-162.0
19.59,-162.0
19.66,-160.0
19.72,-174.0
19.78,-151.0
19.84,-154.0
19.91,-156.0
19.97,-167.0
20.03,-166.0
20.1,-165.0
20.16,-177.0
20.22,-177.0
20.29,-174.0
20.35,-178.0
20.41,-184.0
20.47,-189.0
20.54,-180.0
20.6,-178.0
20.66,-189.0
20.73,-182.0
20.79,-183.0
20.85,-191.0
20.92,-212.0
20.98,-162.0
21.04,-151.0
21.1,-170.0
21.17,-183.0
21.23,-173.0
21.29,-167.0
21.36,-158.0
21.42,-163.0
21.48,-162.0
21.55,-147.0
21.61,-152.0
21.67,-171.0
21.73,-163.0
21.8,-153.0
21.86,-165.0
21.92,-151.0
21.99,-167.0
22.05,-152.0
22.11,-158.0
22.18,-173.0
22.24,-160.0
22.3,-202.0
22.36,-173.0
22.43,-177.0
22.49,-197.0
22.55,-178.0
22.62,-177.0
22.68,-183.0
22.74,-190.0
22.81,-168.0
22.87,-185.0
22.93,-182.0
22.99,-199.0
23.06,-197.0
23.12,-193.0
23.18,-201.0
23.25,-211.0
23.31,-236.0
23.37,-230.0
23.44,-204.0
23.5,-219.0
23.56,-240.0
23.62,-227.0
23.69,-237.0
23.75,-240.0
23.81,-255.0
23.88,-258.0
23.94,-246.0
24.0,-234.0
24.07,-235.0
24.13,-242.0
24.19,-262.0
24.25,-277.0
24.32,-276.0
24.38,-262.0
24.44,-246.0
24.51,-250.0
24.57,-250.0
24.63,-266.0
24.7,-278.0
24.76,-257.0
24.82,-254.0
24.88,-270.0
24.95,-271.0
25.01,-270.0
25.07,-272.0
25.14,-296.0
25.2,-299.0
25.26,-263.0
25.33,-297.0
25.39,-297.0
25.45,-307.0
25.51,-303.0
25.58,-292.0
25.64,-298.0
25.7,-312.0
25.77,-325.0
25.83,-324.0
25.89,-310.0
25.96,-300.0
26.02,-286.0
26.08,-277.0
26.14,-290.0
26.21,-293.0
26.27,-300.0
26.33,-269.0
26.4,-292.0
26.46,-307.0
26.52,-278.0
26.59,-268.0
26.65,-266.0
26.71,-264.0
26.77,-271.0
26.84,-259.0
26.9,-265.0
26.96,-274.0
27.03,-265.0
27.09,-277.0
27.15,-263.0
27.22,-248.0
27.28,-257.0
27.34,-275.0
27.4,-263.0
27.47,-257.0
27.53,-243.0
27.59,-250.0
27.66,-260.0
27.72,-260.0
27.78,-251.0
27.85,-254.0
27.91,-255.0
27.97,-245.0
28.03,-232.0
28.1,-236.0
28.16,-225.0
28.22,-240.0
28.29,-231.0
28.35,-229.0
28.41,-222.0
28.48,-222.0
28.54,-235.0
28.6,-208.0
28.66,-218.0
28.73,-214.0
28.79,-217.0
28.85,-203.0
28.92,-216.0
28.98,-202.0
29.04,-189.0
29.11,-197.0
29.17,-207.0
29.23,-214.0
29.29,-226.0
29.36,-232.0
29.42,-215.0
29.48,-202.0
29.55,-184.0
29.61,-203.0
29.67,-182.0
29.74,-182.0
29.8,-166.0
29.86,-177.0
29.92,-182.0
29.99,-178.0
30.05,-182.0
30.11,-155.0
30.18,-182.0
30.24,-169.0
30.3,-174.0
30.37,-163.0
30.43,-159.0
30.49,-141.0
30.55,-161.0
30.62,-149.0
30.68,-162.0
30.74,-164.0
30.81,-154.0
30.87,-143.0
30.93,-131.0
31.0,-159.0
31.06,-148.0
31.12,-134.0
31.18,-141.0
31.25,-133.0
31.31,-134.0
31.37,-137.0
31.44,-137.0
31.5,-159.0
31.56,-154.0
31.63,-161.0
31.69,-191.0
31.75,-167.0
31.81,-147.0
31.88,-158.0
31.94,-162.0
32.0,-143.0
32.07,-159.0
32.13,-163.0
32.19,-164.0
32.26,-170.0
32.32,-153.0
32.38,-155.0
32.44,-148.0
32.51,-146.0
32.57,-135.0
32.63,-143.0
32.7,-138.0
32.76,-127.0
32.82,-121.0
32.89,-132.0
32.95,-133.0
33.01,-139.0
33.07,-148.0
33.14,-149.0
33.2,-141.0
33.26,-148.0
33.33,-161.0
33.39,-165.0
33.45,-164.0
33.52,-152.0
33.58,-173.0
33.64,-156.0
33.7,-159.0
33.77,-156.0
33.83,-148.0
33.89,-164.0
33.96,-159.0
34.02,-157.0
34.08,-144.0
34.15,-138.0
34.21,-155.0
34.27,-154.0
34.33,-158.0
34.4,-176.0
34.46,-168.0
34.52,-149.0
34.59,-153.0
34.65,-143.0
34.71,-152.0
34.78,-165.0
34.84,-169.0
34.9,-164.0
34.96,-155.0
35.03,-145.0
35.09,-140.0
35.15,-150.0
35.22,-152.0
35.28,-145.0
35.34,-143.0
35.41,-154.0
35.47,-168.0
35.53,-159.0
35.59,-156.0
35.66,-146.0
35.72,-144.0
35.78,-166.0
35.85,-144.0
35.91,-150.0
35.97,-157.0
36.04,-141.0
36.1,-138.0
36.16,-135.0
36.22,-137.0
36.29,-124.0
36.35,-113.0
36.41,-117.0
36.48,-140.0
36.54,-108.0
36.6,-113.0
36.67,-104.0
36.73,-82.0
36.79,-96.0
36.85,-102.0
36.92,-97.0
36.98,-68.0
37.04,-73.0
37.11,-98.0
37.17,-78.0
37.23,-107.0
37.3,-117.0
37.36,-120.0
37.42,-106.0
37.48,-99.0
37.55,-97.0
37.61,-109.0
37.67,-116.0
37.74,-126.0
37.8,-115.0
37.86,-123.0
37.93,-104.0
37.99,-103.0
38.05,-111.0
38.12,-107.0
38.18,-99.0
38.24,-112.0
38.3,-93.0
38.37,-112.0
38.43,-115.0
38.49,-92.0
38.56,-98.0
38.62,-111.0
38.68,-93.0
38.75,-95.0
38.81,-94.0
38.87,-88.0
38.93,-106.0
39.0,-92.0
39.06,-100.0
39.12,-83.0
39.19,-75.0
39.25,-90.0
39.31,-67.0
39.38,-75.0
39.44,-77.0
39.5,-77.0
39.56,-86.0
39.63,-94.0
39.69,-94.0
39.75,-87.0
39.82,-89.0
39.88,-104.0
39.94,-91.0
40.01,-72.0
40.07,-75.0
40.13,-84.0
40.19,-88.0
40.26,-72.0
40.32,-81.0
40.38,-97.0
40.45,-70.0
40.51,-85.0
40.57,-87.0
40.64,-64.0
40.7,-83.0
40.76,-89.0
40.82,-94.0
40.89,-100.0
40.95,-91.0
41.01,-111.0
41.08,-79.0
41.14,-89.0
41.2,-103.0
41.27,-91.0
41.33,-103.0
41.39,-101.0
41.45,-115.0
41.52,-107.0
41.58,-110.0
41.64,-116.0
41.71,-113.0
41.77,-110.0
41.83,-127.0
41.9,-131.0
41.96,-133.0
42.02,-147.0
42.08,-139.0
42.15,-129.0
42.21,-121.0
42.27,-129.0
42.34,-121.0
42.4,-146.0
42.46,-141.0
42.53,-130.0
42.59,-160.0
42.65,-147.0
42.71,-154.0
42.78,-150.0
42.84,-185.0
42.9,-172.0
42.97,-152.0
43.03,-179.0
43.09,-157.0
43.16,-152.0
43.22,-174.0
43.28,-142.0
43.34,-145.0
43.41,-155.0
43.47,-156.0
43.53,-148.0
43.6,-134.0
43.66,-159.0
43.72,-174.0
43.79,-151.0
43.85,-137.0
43.91,-151.0
43.97,-145.0
44.04,-135.0
44.1,-145.0
44.16,-123.0
44.23,-98.0
44.29,-106.0
44.35,-104.0
44.42,-122.0
44.48,-100.0
44.54,-109.0
44.6,-108.0
44.67,-95.0
44.73,-109.0
44.79,-75.0
44.86,-89.0
44.92,-82.0
44.98,-76.0
45.05,-92.0
45.11,-88.0
45.17,-86.0
45.23,-94.0
45.3,-95.0
45.36,-96.0
45.42,-95.0
45.49,-90.0
45.55,-94.0
45.61,-90.0
45.68,-89.0
45.74,-83.0
45.8,-49.0
45.86,-58.0
45.93,-65.0
45.99,-79.0
46.05,-99.0
46.12,-88.0
46.18,-95.0
46.24,-85.0
46.31,-86.0
46.37,-88.0
46.43,-69.0
46.49,-76.0
46.56,-65.0
46.62,-57.0
46.68,-70.0
46.75,-80.0
46.81,-82.0
46.87,-75.0
46.94,-69.0
47.0,-73.0
47.06,-85.0
47.12,-91.0
47.19,-81.0
47.25,-89.0
47.31,-86.0
47.38,-77.0
47.44,-81.0
47.5,-63.0
47.57,-44.0
47.63,-56.0
47.69,-54.0
47.75,-63.0
47.82,-54.0
47.88,-63.0
47.94,-60.0
48.01,-56.0
48.07,-60.0
48.13,-49.0
48.2,-62.0
48.26,-42.0
48.32,-43.0
48.38,-42.0
48.45,-50.0
48.51,-64.0
48.57,-75.0
48.64,-49.0
48.7,-72.0
48.76,-74.0
48.83,-49.0
48.89,-81.0
48.95,-66.0
49.01,-52.0
49.08,-65.0
49.14,-69.0
49.2,-62.0
49.27,-73.0
49.33,-66.0
49.39,-72.0
49.46,-69.0
49.52,-93.0
49.58,-71.0
49.64,-85.0
49.71,-80.0
49.77,-71.0
49.83,-103.0
49.9,-90.0
49.96,-95.0
50.02,-90.0
50.09,-90.0
50.15,-83.0
50.21,-84.0
50.27,-73.0
50.34,-83.0
50.4,-97.0
50.46,-98.0
50.53,-108.0
50.59,-103.0
50.65,-105.0
50.72,-112.0
50.78,-106.0
50.84,-118.0
50.9,-113.0
50.97,-90.0
51.03,-86.0
51.09,-108.0
51.16,-116.0
51.22,-97.0
51.28,-93.0
51.35,-105.0
51.41,-94.0
51.47,-83.0
51.53,-78.0
51.6,-93.0
51.66,-88.0
51.72,-88.0
51.79,-93.0
51.85,-88.0
51.91,-96.0
51.98,-86.0
52.04,-93.0
52.1,-78.0
52.16,-71.0
52.23,-64.0
52.29,-57.0
52.35,-66.0
52.42,-85.0
52.48,-71.0
52.54,-78.0
52.61,-75.0
52.67,-78.0
52.73,-70.0
52.79,-87.0
52.86,-79.0
52.92,-67.0
52.98,-80.0
53.05,-69.0
53.11,-71.0
53.17,-87.0
53.24,-80.0
53.3,-75.0
53.36,-77.0
53.42,-48.0
53.49,-53.0
53.55,-74.0
53.61,-64.0
53.68,-34.0
53.74,-40.0
53.8,-36.0
53.87,-46.0
53.93,-43.0
53.99,-51.0
54.05,-59.0
54.12,-58.0
54.18,-37.0
54.24,-44.0
54.31,-51.0
54.37,-51.0
54.43,-45.0
54.5,-33.0
54.56,-15.0
54.62,-34.0
54.68,-18.0
54.75,-40.0
54.81,-40.0
54.87,-55.0
54.94,-50.0
55.0,-48.0
55.06,-42.0
55.13,-32.0
55.19,-21.0
55.25,-40.0
55.31,-42.0
55.38,-31.0
55.44,-42.0
55.5,-28.0
55.57,-28.0
55.63,-23.0
55.69,-30.0
55.76,-24.0
55.82,-38.0
55.88,-25.0
55.94,-31.0
56.01,-49.0
56.07,-72.0
56.13,-58.0
56.2,-34.0
56.26,-69.0
56.32,-58.0
56.39,-56.0
56.45,-44.0
56.51,-57.0
56.57,-29.0
56.64,-38.0
56.7,-76.0
56.76,-52.0
56.83,-48.0
56.89,-64.0
56.95,-56.0
57.02,-58.0
57.08,-54.0
57.14,-54.0
57.2,-54.0
57.27,-72.0
57.33,-88.0
57.39,-80.0
57.46,-73.0
57.52,-89.0
57.58,-98.0
57.65,-114.0
57.71,-127.0
57.77,-121.0
57.83,-119.0
57.9,-109.0
57.96,-99.0
58.02,-111.0
58.09,-101.0
58.15,-104.0
58.21,-125.0
58.28,-92.0
58.34,-97.0
58.4,-107.0
58.46,-101.0
58.53,-89.0
58.59,-88.0
58.65,-97.0
58.72,-84.0
58.78,-110.0
58.84,-102.0
58.91,-89.0
58.97,-88.0
59.03,-67.0
59.09,-74.0
59.16,-78.0
59.22,-102.0
59.28,-117.0
59.35,-101.0
59.41,-86.0
59.47,-94.0
59.54,-112.0
59.6,-87.0
59.66,-89.0
59.72,-78.0
59.79,-86.0
59.85,-90.0
59.91,-88.0
59.98,-91.0
60.04,-87.0
60.1,-85.0
60.17,-91.0
60.23,-84.0
60.29,-73.0
60.35,-95.0
60.42,-79.0
60.48,-71.0
60.54,-75.0
60.61,-58.0
60.67,-65.0
60.73,-72.0
60.8,-80.0
60.86,-94.0
60.92,-87.0
60.98,-89.0
61.05,-73.0
61.11,-70.0
61.17,-71.0
61.24,-61.0
61.3,-65.0
61.36,-51.0
61.43,-35.0
61.49,-41.0
61.55,-28.0
61.61,-35.0
61.68,-26.0
61.74,-18.0
61.8,-12.0
61.87,6.0
61.93,13.0
61.99,3.0
62.06,28.0
62.12,11.0
62.18,24.0
62.24,40.0
62.31,37.0
62.37,43.0
62.43,7.0
62.5,22.0
62.56,30.0
62.62,36.0
62.69,58.0
62.75,55.0
62.81,39.0
62.87,21.0
62.94,32.0
63.0,26.0
63.06,53.0
63.13,52.0
63.19,49.0
63.25,29.0
63.32,30.0
63.38,33.0
63.44,17.0
63.5,33.0
63.57,17.0
63.63,36.0
63.69,28.0
63.76,22.0
63.82,50.0
63.88,49.0
63.95,44.0
64.01,49.0
64.07,44.0
64.13,39.0
64.2,49.0
64.26,46.0
64.32,55.0
64.39,61.0
64.45,60.0
64.51,54.0
64.58,72.0
64.64,61.0
64.7,66.0
64.76,69.0
64.83,65.0
64.89,63.0
64.95,78.0
65.02,73.0
65.08,67.0
65.14,72.0
65.21,83.0
65.27,89.0
65.33,86.0
65.39,69.0
65.46,75.0
65.52,83.0
65.58,86.0
65.65,82.0
65.71,85.0
65.77,91.0
65.84,82.0
65.9,101.0
65.96,100.0
66.02,81.0
66.09,64.0
66.15,88.0
66.21,96.0
66.28,105.0
66.34,86.0
66.4,80.0
66.47,88.0
66.53,104.0
66.59,74.0
66.65,70.0
66.72,66.0
66.78,61.0
66.84,64.0
66.91,55.0
66.97,82.0
67.03,68.0
67.1,61.0
67.16,53.0
67.22,71.0
67.28,64.0
67.35,67.0
67.41,81.0
67.47,73.0
67.54,72.0
67.6,56.0
67.66,58.0
67.73,46.0
67.79,61.0
67.85,47.0
67.91,46.0
67.98,50.0
68.04,49.0
68.1,59.0
68.17,46.0
68.23,42.0
68.29,36.0
68.36,44.0
68.42,36.0
68.48,39.0
68.54,47.0
68.61,53.0
68.67,34.0
68.73,58.0
68.8,43.0
68.86,49.0
68.92,55.0
68.99,35.0
69.05,46.0
69.11,54.0
69.17,46.0
69.24,56.0
69.3,63.0
69.36,47.0
69.43,51.0
69.49,59.0
69.55,58.0
69.62,43.0
69.68,90.0
69.74,70.0
69.8,69.0
69.87,70.0
69.93,68.0
69.99,72.0
70.06,56.0
70.12,57.0
70.18,36.0
70.25,28.0
70.31,35.0
70.37,19.0
70.43,50.0
70.5,65.0
70.56,50.0
70.62,33.0
70.69,39.0
70.75,15.0
70.81,28.0
70.88,19.0
70.94,2.0
71.0,22.0
71.06,28.0
71.13,18.0
71.19,21.0
71.25,7.0
71.32,13.0
71.38,-1.0
71.44,-16.0
71.51,-3.0
71.57,-1.0
71.63,7.0
71.69,-2.0
71.76,-12.0
71.82,-23.0
71.88,-28.0
71.95,-39.0
72.01,-38.0
72.07,-44.0
72.14,-53.0
72.2,-45.0
72.26,-33.0
72.32,-21.0
72.39,-18.0
72.45,-31.0
72.51,-54.0
72.58,-45.0
72.64,-44.0
72.7,-17.0
72.77,-28.0
72.83,-41.0
72.89,-47.0
72.95,-60.0
73.02,-50.0
73.08,-25.0
73.14,-18.0
73.21,-35.0
73.27,-31.0
73.33,-10.0
73.4,-15.0
73.46,3.0
73.52,-8.0
73.58,-36.0
73.65,-34.0
73.71,-43.0
73.77,-41.0
73.84,-65.0
73.9,-78.0
73.96,-83.0
74.03,-74.0
74.09,-79.0
74.15,-81.0
74.21,-93.0
74.28,-89.0
74.34,-98.0
74.4,-122.0
74.47,-117.0
74.53,-119.0
74.59,-108.0
74.66,-117.0
74.72,-120.0
74.78,-125.0
74.84,-128.0
74.91,-113.0
74.97,-135.0
75.03,-117.0
75.1,-129.0
75.16,-128.0
75.22,-129.0
75.29,-131.0
75.35,-117.0
75.41,-111.0
75.47,-119.0
75.54,-100.0
75.6,-114.0
75.66,-108.0
75.73,-107.0
75.79,-125.0
75.85,-117.0
75.92,-117.0
75.98,-125.0
76.04,-101.0
76.1,-110.0
76.17,-97.0
76.23,-136.0
76.29,-118.0
76.36,-110.0
76.42,-108.0
76.48,-123.0
76.55,-135.0
76.61,-116.0
76.67,-106.0
76.73,-108.0
76.8,-101.0
76.86,-104.0
76.92,-104.0
76.99,-106.0
77.05,-106.0
77.11,-114.0
77.18,-126.0
77.24,-117.0
77.3,-100.0
77.36,-107.0
77.43,-93.0
77.49,-103.0
77.55,-109.0
77.62,-118.0
77.68,-109.0
77.74,-102.0
77.81,-105.0
77.87,-91.0
77.93,-91.0
77.99,-70.0
78.06,-77.0
78.12,-56.0
78.18,-54.0
78.25,-96.0
78.31,-73.0
78.37,-64.0
78.44,-68.0
78.5,-66.0
78.56,-47.0
78.62,-48.0
78.69,-32.0
78.75,-43.0
78.81,-53.0
78.88,-48.0
78.94,-56.0
79.0,-37.0
79.07,-49.0
79.13,-40.0
79.19,-28.0
79.25,-24.0
79.32,-22.0
79.38,-23.0
79.44,-16.0
79.51,-13.0
79.57,-3.0
79.63,-15.0
79.7,-10.0
79.76,-9.0
79.82,6.0
79.88,-2.0
79.95,-1.0
80.01,0.0
80.07,11.0
80.14,37.0
80.2,30.0
80.26,40.0
80.33,37.0
80.39,25.0
80.45,15.0
80.51,35.0
80.58,26.0
80.64,35.0
80.7,67.0
80.77,67.0
80.83,75.0
80.89,81.0
80.96,68.0
81.02,85.0
81.08,77.0
81.14,62.0
81.21,78.0
81.27,87.0
81.33,96.0
81.4,71.0
81.46,74.0
81.52,81.0
81.59,78.0
81.65,90.0
81.71,85.0
81.77,94.0
81.84,86.0
81.9,87.0
81.96,86.0
82.03,96.0
82.09,91.0
82.15,82.0
82.22,67.0
82.28,77.0
82.34,67.0
82.4,42.0
82.47,56.0
82.53,57.0
82.59,43.0
82.66,44.0
82.72,25.0
82.78,57.0
82.85,49.0
82.91,41.0
82.97,48.0
83.03,34.0
83.1,37.0
83.16,17.0
83.22,35.0
83.29,41.0
83.35,48.0
83.41,27.0
83.48,26.0
83.54,53.0
83.6,41.0
83.66,24.0
83.73,16.0
83.79,28.0
83.85,25.0
83.92,30.0
83.98,17.0
84.04,14.0
84.11,29.0
84.17,17.0
84.23,14.0
84.29,-5.0
84.36,-5.0
84.42,6.0
84.48,12.0
84.55,29.0
84.61,28.0
84.67,18.0
84.74,10.0
84.8,-4.0
84.86,-19.0
84.92,-9.0
84.99,17.0
85.05,21.0
85.11,28.0
85.18,18.0
85.24,0.0
85.3,-6.0
85.37,-6.0
85.43,-9.0
85.49,-23.0
85.55,-6.0
85.62,-19.0
85.68,-24.0
85.74,-18.0
85.81,-22.0
85.87,-21.0
85.93,-34.0
86.0,-41.0
86.06,-47.0
86.12,-40.0
86.18,-39.0
86.25,-49.0
86.31,-36.0
86.37,-49.0
86.44,-28.0
86.5,-18.0
86.56,-49.0
86.63,-34.0
86.69,-38.0
86.75,-44.0
86.81,-33.0
86.88,-42.0
86.94,-34.0
87.0,-37.0
87.07,-44.0
87.13,-33.0
87.19,-30.0
87.26,-29.0
87.32,-27.0
87.38,-35.0
87.44,-33.0
87.51,-24.0
87.57,-11.0
87.63,-14.0
87.7,-17.0
87.76,-16.0
87.82,-24.0
87.89,-36.0
87.95,-25.0
88.01,-34.0
88.07,-6.0
88.14,7.0
88.2,-9.0
88.26,-5.0
88.33,-12.0
88.39,-13.0
88.45,13.0
88.52,-6.0
88.58,-18.0
88.64,-15.0
88.7,-20.0
88.77,-5.0
88.83,-17.0
88.89,-13.0
88.96,0.0
89.02,-2.0
89.08,-17.0
89.15,-4.0
89.21,2.0
89.27,-15.0
89.33,-17.0
89.4,-29.0
89.46,-35.0
89.52,-22.0
89.59,-2.0
89.65,-30.0
89.71,-13.0
89.78,9.0
89.84,-1.0
89.9,-9.0
89.96,-6.0
90.03,15.0
90.09,6.0
90.15,24.0
90.22,0.0
90.28,-2.0
90.34,24.0
90.41,19.0
90.47,22.0
90.53,14.0
90.59,8.0
90.66,14.0
90.72,16.0
90.78,3.0
90.85,1.0
90.91,11.0
90.97,8.0
91.04,7.0
91.1,-1.0
91.16,-2.0
91.22,-16.0
91.29,-11.0
91.35,-7.0
91.41,-14.0
91.48,-14.0
91.54,-18.0
91.6,-22.0
91.67,-20.0
91.73,-19.0
91.79,-41.0
91.85,-52.0
91.92,-47.0
91.98,-37.0
92.04,-28.0
92.11,-13.0
92.17,-21.0
92.23,-17.0
92.3,-33.0
92.36,-44.0
92.42,-58.0
92.48,-42.0
92.55,-53.0
92.61,-38.0
92.67,-24.0
92.74,-9.0
92.8,-17.0
92.86,-15.0
92.93,-11.0
92.99,-28.0
93.05,-19.0
93.11,-17.0
93.18,-7.0
93.24,-2.0
93.3,-8.0
93.37,-9.0
93.43,-15.0
93.49,-23.0
93.56,-26.0
93.62,-14.0
93.68,-24.0
93.74,-9.0
93.81,-13.0
93.87,-19.0
93.93,-24.0
94.0,-12.0
94.06,0.0
94.12,-4.0
94.19,-3.0
94.25,2.0
94.31,2.0
94.37,24.0
94.44,37.0
94.5,39.0
94.56,38.0
94.63,48.0
94.69,43.0
94.75,51.0
94.82,49.0
94.88,39.0
94.94,28.0
95.0,43.0
95.07,47.0
95.13,58.0
95.19,57.0
95.26,68.0
95.32,59.0
95.38,62.0
95.45,83.0
95.51,78.0
95.57,92.0
95.63,88.0
95.7,102.0
95.76,105.0
95.82,125.0
95.89,123.0
95.95,113.0
96.01,117.0
96.08,123.0
96.14,119.0
96.2,112.0
96.26,117.0
96.33,118.0
96.39,137.0
96.45,136.0
96.52,125.0
96.58,116.0
96.64,114.0
96.71,102.0
96.77,113.0
96.83,133.0
96.89,117.0
96.96,112.0
97.02,131.0
97.08,130.0
97.15,126.0
97.21,131.0
97.27,131.0
97.34,117.0
97.4,108.0
97.46,112.0
97.52,123.0
97.59,112.0
97.65,107.0
97.71,105.0
97.78,109.0
97.84,108.0
97.9,95.0
97.97,119.0
98.03,127.0
98.09,123.0
98.15,98.0
98.22,89.0
98.28,107.0
98.34,85.0
98.41,86.0
98.47,95.0
98.53,109.0
98.6,98.0
98.66,119.0
98.72,103.0
98.78,118.0
98.85,107.0
98.91,95.0
98.97,112.0
99.04,103.0
99.1,108.0
99.16,112.0
99.23,112.0
99.29,108.0
99.35,106.0
99.41,107.0
99.48,99.0
99.54,97.0
99.6,94.0
99.67,97.0
99.73,100.0
99.79,91.0
99.86,84.0
99.92,94.0
99.98,108.0
100.04,112.0
100.11,109.0
100.17,105.0
100.23,122.0
100.3,120.0
100.36,124.0
100.42,111.0
100.49,114.0
100.55,117.0
100.61,106.0
100.67,101.0
100.74,112.0
100.8,104.0
100.86,98.0
100.93,96.0
100.99,92.0
101.05,83.0
101.12,70.0
101.18,76.0
101.24,75.0
101.3,62.0
101.37,68.0
101.43,76.0
101.49,55.0
101.56,65.0
101.62,68.0
101.68,50.0
101.75,51.0
101.81,62.0
101.87,42.0
101.93,48.0
102.0,54.0
102.06,53.0
102.12,62.0
102.19,43.0
102.25,52.0
102.31,54.0
102.38,55.0
102.44,58.0
102.5,45.0
102.56,45.0
102.63,57.0
102.69,54.0
102.75,60.0
102.82,54.0
102.88,48.0
102.94,53.0
103.01,61.0
103.07,65.0
103.13,70.0
103.19,58.0
103.26,64.0
103.32,53.0
103.38,48.0
103.45,63.0
103.51,58.0
103.57,50.0
103.64,29.0
103.7,34.0
103.76,46.0
103.82,64.0
103.89,59.0
103.95,49.0
104.01,64.0
104.08,60.0
104.14,57.0
104.2,71.0
104.27,78.0
104.33,68.0
104.39,72.0
104.45,44.0
104.52,63.0
104.58,59.0
104.64,22.0
104.71,53.0
104.77,53.0
104.83,42.0
104.9,47.0
104.96,40.0
105.02,29.0
105.08,2.0
105.15,0.0
105.21,13.0
105.27,25.0
105.34,21.0
105.4,11.0
105.46,17.0
105.53,24.0
105.59,24.0
105.65,34.0
105.71,19.0
105.78,25.0
105.84,28.0
105.9,13.0
105.97,17.0
106.03,6.0
106.09,10.0
106.16,23.0
106.22,21.0
106.28,27.0
106.34,25.0
106.41,0.0
106.47,31.0
106.53,42.0
106.6,-4.0
106.66,-2.0
106.72,22.0
106.79,3.0
106.85,9.0
106.91,13.0
106.97,13.0
107.04,1.0
107.1,17.0
107.16,18.0
107.23,18.0
107.29,22.0
107.35,-2.0
107.42,14.0
107.48,2.0
107.54,-5.0
107.6,8.0
107.67,-26.0
107.73,-13.0
107.79,-31.0
107.86,-30.0
107.92,-32.0
107.98,-48.0
108.05,-49.0
108.11,-51.0
108.17,-47.0
108.23,-38.0
108.3,-37.0
108.36,-26.0
108.42,-58.0
108.49,-56.0
108.55,-54.0
108.61,-76.0
108.68,-46.0
108.74,-38.0
108.8,-59.0
108.86,-43.0
108.93,-36.0
108.99,-65.0
109.05,-78.0
109.12,-74.0
109.18,-79.0
109.24,-96.0
109.31,-84.0
109.37,-54.0
109.43,-57.0
109.49,-63.0
109.56,-72.0
109.62,-59.0
109.68,-65.0
109.75,-71.0
109.81,-54.0
109.87,-60.0
109.94,-52.0
110.0,-53.0
110.06,-55.0
110.12,-45.0
110.19,-40.0
110.25,-25.0
110.31,-34.0
110.38,-25.0
110.44,-39.0
110.5,-46.0
110.57,-28.0
110.63,-25.0
110.69,-35.0
110.75,-11.0
110.82,-9.0
110.88,-39.0
110.94,-31.0
111.01,-22.0
111.07,-22.0
111.13,-18.0
111.2,-24.0
111.26,-9.0
111.32,5.0
111.38,12.0
111.45,8.0
111.51,5.0
111.57,15.0
111.64,4.0
111.7,20.0
111.76,22.0
111.83,17.0
111.89,27.0
111.95,39.0
112.01,42.0
112.08,27.0
112.14,12.0
112.2,23.0
112.27,41.0
112.33,43.0
112.39,28.0
112.46,39.0
112.52,60.0
112.58,63.0
112.64,55.0
112.71,75.0
112.77,71.0
112.83,67.0
112.9,71.0
112.96,58.0
113.02,59.0
113.09,63.0
113.15,37.0
113.21,55.0
113.27,57.0
113.34,41.0
113.4,77.0
113.46,74.0
113.53,64.0
113.59,67.0
113.65,85.0
113.72,67.0
113.78,43.0
113.84,66.0
113.9,88.0
113.97,63.0
114.03,55.0
114.09,60.0
114.16,85.0
114.22,81.0
114.28,64.0
114.35,73.0
114.41,83.0
114.47,85.0
114.53,91.0
114.6,89.0
114.66,92.0
114.72,104.0
114.79,84.0
114.85,91.0
114.91,102.0
114.98,85.0
115.04,108.0
115.1,107.0
115.16,86.0
115.23,103.0
115.29,111.0
115.35,121.0
115.42,117.0
115.48,132.0
115.54,128.0
115.61,140.0
115.67,129.0
115.73,140.0
115.79,130.0
115.86,121.0
115.92,135.0
115.98,129.0
116.05,136.0
116.11,157.0
116.17,139.0
116.24,149.0
116.3,164.0
116.36,166.0
116.42,157.0
116.49,155.0
116.55,136.0
116.61,144.0
116.68,139.0
116.74,168.0
116.8,155.0
116.87,165.0
116.93,173.0
116.99,170.0
117.05,192.0
117.12,174.0
117.18,187.0
117.24,173.0
117.31,179.0
117.37,177.0
117.43,165.0
117.5,177.0
117.56,174.0
117.62,172.0
117.68,166.0
117.75,166.0
117.81,180.0
117.87,189.0
117.94,184.0
118.0,187.0
118.06,176.0
118.13,172.0
118.19,162.0
118.25,162.0
118.31,157.0
118.38,196.0
118.44,182.0
118.5,192.0
118.57,195.0
118.63,190.0
118.69,178.0
118.76,172.0
118.82,191.0
118.88,161.0
118.94,143.0
119.01,145.0
119.07,140.0
119.13,130.0
119.2,136.0
119.26,155.0
119.32,150.0
119.39,139.0
119.45,147.0
119.51,143.0
119.57,141.0
119.64,149.0
119.7,142.0
119.76,125.0
119.83,151.0
119.89,162.0
119.95,141.0
120.02,162.0
120.08,157.0
120.14,153.0
120.2,160.0
120.27,168.0
120.33,151.0
120.39,162.0
120.46,170.0
120.52,148.0
120.58,152.0
120.65,138.0
120.71,153.0
120.77,141.0
120.83,137.0
120.9,133.0
120.96,149.0
121.02,151.0
121.09,151.0
121.15,138.0
121.21,152.0
121.28,146.0
121.34,145.0
121.4,148.0
121.46,144.0
121.53,156.0
121.59,170.0
121.65,181.0
121.72,150.0
121.78,162.0
121.84,158.0
121.91,140.0
121.97,157.0
122.03,120.0
122.09,120.0
122.16,126.0
122.22,151.0
122.28,143.0
122.35,144.0
122.41,148.0
122.47,151.0
122.54,145.0
122.6,141.0
122.66,144.0
122.72,123.0
122.79,146.0
122.85,143.0
122.91,122.0
122.98,121.0
123.04,117.0
123.1,116.0
123.17,111.0
123.23,101.0
123.29,98.0
123.35,83.0
123.42,89.0
123.48,93.0
123.54,75.0
123.61,61.0
123.67,54.0
123.73,65.0
123.8,52.0
123.86,37.0
123.92,41.0
123.98,42.0
124.05,37.0
124.11,41.0
124.17,15.0
124.24,28.0
124.3,17.0
124.36,11.0
124.43,25.0
124.49,-10.0
124.55,-26.0
124.61,9.0
124.68,12.0
124.74,7.0
124.8,17.0
124.87,19.0
124.93,-10.0
124.99,9.0
125.06,8.0
125.12,-5.0
125.18,-13.0
125.24,-3.0
125.31,-21.0
125.37,-20.0
125.43,-14.0
125.5,-20.0
125.56,-24.0
125.62,-22.0
125.69,-37.0
125.75,-23.0
125.81,-34.0
125.87,-15.0
125.94,-10.0
126.0,-18.0
126.06,-35.0
126.13,-28.0
126.19,-35.0
126.25,-21.0
126.32,-18.0
126.38,-12.0
126.44,-36.0
126.5,-55.0
126.57,-42.0
126.63,-28.0
126.69,-28.0
126.76,-52.0
126.82,-65.0
126.88,-49.0
126.95,-64.0
127.01,-73.0
127.07,-74.0
127.13,-85.0
127.2,-69.0
127.26,-89.0
127.32,-86.0
127.39,-95.0
127.45,-81.0
127.51,-80.0
127.58,-84.0
127.64,-102.0
127.7,-85.0
127.76,-91.0
127.83,-110.0
127.89,-69.0
127.95,-86.0
128.02,-80.0
128.08,-86.0
128.14,-73.0
128.21,-74.0
128.27,-65.0
128.33,-44.0
128.39,-54.0
128.46,-53.0
128.52,-50.0
128.58,-31.0
128.65,-38.0
128.71,-60.0
128.77,-52.0
128.84,-39.0
128.9,-38.0
128.96,-43.0
129.02,-38.0
129.09,-19.0
129.15,-8.0
129.21,1.0
129.28,18.0
129.34,16.0
129.4,16.0
129.47,-11.0
129.53,-8.0
129.59,4.0
129.65,-7.0
129.72,7.0
129.78,12.0
129.84,-6.0
129.91,5.0
129.97,19.0
130.03,32.0
130.1,38.0
130.16,33.0
130.22,15.0
130.28,25.0
130.35,21.0
130.41,38.0
130.47,57.0
130.54,65.0
130.6,46.0
130.66,48.0
130.73,37.0
130.79,44.0
130.85,33.0
130.91,52.0
130.98,40.0
131.04,41.0
131.1,53.0
131.17,54.0
131.23,49.0
131.29,59.0
131.36,65.0
131.42,61.0
131.48,59.0
131.54,89.0
131.61,84.0
131.67,73.0
131.73,81.0
131.8,65.0
131.86,55.0
131.92,76.0
131.99,61.0
132.05,51.0
132.11,62.0
132.17,66.0
132.24,66.0
132.3,78.0
132.36,73.0
132.43,70.0
132.49,87.0
132.55,79.0
132.62,82.0
132.68,82.0
132.74,103.0
132.8,97.0
132.87,101.0
132.93,125.0
132.99,107.0
133.06,131.0
133.12,127.0
133.18,122.0
133.25,98.0
133.31,105.0
133.37,103.0
133.43,117.0
133.5,115.0
133.56,96.0
133.62,114.0
133.69,99.0
133.75,112.0
133.81,103.0
133.88,107.0
133.94,109.0
134.0,95.0
134.06,101.0
134.13,100.0
134.19,83.0
134.25,93.0
134.32,94.0
134.38,81.0
134.44,63.0
134.51,54.0
134.57,55.0
134.63,67.0
134.69,72.0
134.76,61.0
134.82,75.0
134.88,52.0
134.95,70.0
135.01,89.0
135.07,74.0
135.14,96.0
135.2,114.0
135.26,98.0
135.32,87.0
135.39,81.0
135.45,83.0
135.51,96.0
135.58,86.0
135.64,84.0
135.7,80.0
135.77,71.0
135.83,76.0
135.89,76.0
135.95,86.0
136.02,68.0
136.08,70.0
136.14,63.0
136.21,72.0
136.27,66.0
136.33,67.0
136.4,85.0
136.46,86.0
136.52,76.0
136.58,88.0
136.65,102.0
136.71,87.0
136.77,91.0
136.84,88.0
136.9,82.0
136.96,93.0
137.03,87.0
137.09,89.0
137.15,94.0
137.21,107.0
137.28,92.0
137.34,101.0
137.4,97.0
137.47,81.0
137.53,71.0
137.59,82.0
137.66,73.0
137.72,87.0
137.78,92.0
137.84,84.0
137.91,88.0
137.97,95.0
138.03,90.0
138.1,79.0
138.16,81.0
138.22,76.0
138.29,60.0
138.35,57.0
138.41,60.0
138.47,96.0
138.54,83.0
138.6,74.0
138.66,71.0
138.73,56.0
138.79,77.0
138.85,62.0
138.92,66.0
138.98,77.0
139.04,64.0
139.1,67.0
139.17,74.0
139.23,71.0
139.29,70.0
139.36,62.0
139.42,60.0
139.48,62.0
139.55,74.0
139.61,54.0
139.67,89.0
139.73,65.0
139.8,54.0
139.86,66.0
139.92,81.0
139.99,74.0
140.05,64.0
140.11,46.0
140.18,50.0
140.24,76.0
140.3,49.0
140.36,58.0
140.43,47.0
140.49,44.0
140.55,33.0
140.62,46.0
140.68,65.0
140.74,63.0
140.81,57.0
140.87,38.0
140.93,41.0
140.99,42.0
141.06,32.0
141.12,27.0
141.18,36.0
141.25,36.0
141.31,21.0
141.37,43.0
141.44,49.0
141.5,40.0
141.56,29.0
141.62,27.0
141.69,26.0
141.75,1.0
141.81,18.0
141.88,24.0
141.94,35.0
142.0,28.0
142.07,29.0
142.13,23.0
142.19,20.0
142.25,1.0
142.32,5.0
142.38,15.0
142.44,5.0
142.51,2.0
142.57,5.0
142.63,-14.0
142.7,-16.0
142.76,-7.0
142.82,5.0
142.88,-7.0
142.95,-19.0
143.01,-24.0
143.07,-27.0
143.14,-21.0
143.2,-16.0
143.26,-20.0
143.33,-7.0
143.39,-12.0
143.45,-15.0
143.51,-23.0
143.58,-11.0
143.64,-26.0
143.7,-10.0
143.77,-36.0
143.83,-26.0
143.89,-13.0
143.96,8.0
144.02,4.0
144.08,6.0
144.14,-7.0
144.21,4.0
144.27,10.0
144.33,1.0
144.4,5.0
144.46,18.0
144.52,32.0
144.59,23.0
144.65,5.0
144.71,13.0
144.77,7.0
144.84,-6.0
144.9,9.0
144.96,11.0
145.03,31.0
145.09,27.0
145.15,41.0
145.22,38.0
145.28,23.0
145.34,44.0
145.4,52.0
145.47,41.0
145.53,40.0
145.59,49.0
145.66,57.0
145.72,66.0
145.78,64.0
145.85,64.0
145.91,58.0
145.97,56.0
146.03,61.0
146.1,64.0
146.16,69.0
146.22,71.0
146.29,77.0
146.35,58.0
146.41,57.0
146.47,55.0
146.54,46.0
146.6,47.0
146.66,66.0
146.73,68.0
146.79,51.0
146.85,52.0
146.92,56.0
146.98,59.0
147.04,48.0
147.1,47.0
147.17,48.0
147.23,59.0
147.29,63.0
147.36,62.0
147.42,51.0
147.48,52.0
147.55,61.0
147.61,50.0
147.67,42.0
147.73,41.0
147.8,53.0
147.86,51.0
147.92,63.0
147.99,64.0
148.05,60.0
148.11,85.0
148.18,98.0
148.24,103.0
148.3,101.0
148.36,116.0
148.43,117.0
148.49,120.0
148.55,125.0
148.62,141.0
148.68,145.0
148.74,121.0
148.81,121.0
148.87,136.0
148.93,129.0
148.99,138.0
149.06,120.0
149.12,119.0
149.18,144.0
149.25,128.0
149.31,116.0
149.37,102.0
149.44,87.0
149.5,116.0
149.56,123.0
149.62,124.0
149.69,106.0
149.75,94.0
149.81,111.0
149.88,122.0
149.94,115.0
150.0,134.0
150.07,119.0
150.13,109.0
150.19,110.0
150.25,92.0
150.32,99.0
150.38,112.0
150.44,107.0
150.51,120.0
150.57,120.0
150.63,119.0
150.7,105.0
150.76,101.0
150.82,101.0
150.88,104.0
150.95,118.0
151.01,112.0
151.07,123.0
151.14,125.0
151.2,151.0
151.26,136.0
151.33,132.0
151.39,126.0
151.45,123.0
151.51,128.0
151.58,131.0
151.64,118.0
151.7,122.0
151.77,118.0
151.83,126.0
151.89,140.0
151.96,139.0
152.02,132.0
152.08,114.0
152.14,130.0
152.21,151.0
152.27,129.0
152.33,132.0
152.4,133.0
152.46,135.0
152.52,133.0
152.59,139.0
152.65,122.0
152.71,111.0
152.77,128.0
152.84,134.0
152.9,133.0
152.96,132.0
153.03,136.0
153.09,151.0
153.15,127.0
153.22,137.0
153.28,165.0
153.34,187.0
153.4,139.0
153.47,152.0
153.53,153.0
153.59,140.0
153.66,145.0
153.72,145.0
153.78,121.0
153.85,121.0
153.91,162.0
153.97,154.0
154.03,143.0
154.1,144.0
154.16,149.0
154.22,139.0
154.29,146.0
154.35,140.0
154.41,147.0
154.48,142.0
154.54,147.0
154.6,157.0
154.66,173.0
154.73,165.0
154.79,164.0
154.85,169.0
154.92,178.0
154.98,147.0
155.04,130.0
155.11,139.0
155.17,167.0
155.23,158.0
155.29,168.0
155.36,148.0
155.42,157.0
155.48,157.0
155.55,151.0
155.61,155.0
155.67,140.0
155.74,134.0
155.8,147.0
155.86,131.0
155.92,131.0
155.99,142.0
156.05,167.0
156.11,133.0
156.18,127.0
156.24,123.0
156.3,133.0
156.37,131.0
156.43,131.0
156.49,135.0
156.55,127.0
156.62,129.0
156.68,128.0
156.74,127.0
156.81,108.0
156.87,93.0
156.93,97.0
157.0,85.0
157.06,78.0
157.12,80.0
157.18,63.0
157.25,57.0
157.31,49.0
157.37,46.0
157.44,57.0
157.5,63.0
157.56,57.0
157.63,70.0
157.69,63.0
157.75,62.0
157.81,65.0
157.88,48.0
157.94,41.0
158.0,37.0
158.07,42.0
158.13,81.0
158.19,66.0
158.26,53.0
158.32,30.0
158.38,18.0
158.44,24.0
158.51,43.0
158.57,25.0
158.63,20.0
158.7,34.0
158.76,27.0
158.82,28.0
158.89,52.0
158.95,46.0
159.01,29.0
159.07,5.0
159.14,-16.0
159.2,-13.0
159.26,-9.0
159.33,-1.0
159.39,5.0
159.45,16.0
159.52,2.0
159.58,8.0
159.64,7.0
159.7,0.0
159.77,3.0
159.83,12.0
159.89,4.0
159.96,13.0
160.02,3.0
160.08,13.0
160.15,23.0
160.21,11.0
160.27,7.0
160.33,10.0
160.4,15.0
160.46,24.0
160.52,6.0
160.59,1.0
160.65,-2.0
160.71,-2.0
160.78,0.0
160.84,4.0
160.9,18.0
160.96,19.0
161.03,6.0
161.09,-7.0
161.15,14.0
161.22,10.0
161.28,-1.0
161.34,-4.0
161.41,2.0
161.47,6.0
161.53,-7.0
161.59,-7.0
161.66,-16.0
161.72,18.0
161.78,25.0
161.85,36.0
161.91,44.0
161.97,18.0
162.04,22.0
162.1,35.0
162.16,58.0
162.22,55.0
162.29,44.0
162.35,53.0
162.41,44.0
162.48,40.0
162.54,38.0
162.6,52.0
162.67,63.0
162.73,53.0
162.79,50.0
162.85,34.0
162.92,37.0
162.98,40.0
163.04,24.0
163.11,57.0
163.17,43.0
163.23,48.0
163.3,46.0
163.36,41.0
163.42,47.0
163.48,38.0
163.55,54.0
163.61,51.0
163.67,53.0
163.74,41.0
163.8,46.0
163.86,72.0
163.93,72.0
163.99,70.0
164.05,34.0
164.11,47.0
164.18,40.0
164.24,13.0
164.3,57.0
164.37,57.0
164.43,57.0
164.49,35.0
164.56,54.0
164.62,30.0
164.68,46.0
164.74,32.0
164.81,25.0
164.87,63.0
164.93,38.0
165.0,52.0
165.06,45.0
165.12,49.0
165.19,44.0
165.25,29.0
165.31,80.0
165.37,63.0
165.44,26.0
165.5,40.0
165.56,44.0
165.63,48.0
165.69,52.0
165.75,49.0
165.82,76.0
165.88,59.0
165.94,66.0
166.0,57.0
166.07,63.0
166.13,64.0
166.19,80.0
166.26,68.0
166.32,78.0
166.38,104.0
166.45,98.0
166.51,85.0
166.57,90.0
166.63,105.0
166.7,95.0
166.76,88.0
166.82,112.0
166.89,104.0
166.95,101.0
167.01,119.0
167.08,111.0
167.14,116.0
167.2,105.0
167.26,87.0
167.33,92.0
167.39,114.0
167.45,132.0
167.52,100.0
167.58,97.0
167.64,106.0
167.71,90.0
167.77,94.0
167.83,91.0
167.89,84.0
167.96,96.0
168.02,98.0
168.08,109.0
168.15,80.0
168.21,83.0
168.27,71.0
168.34,68.0
168.4,81.0
168.46,70.0
168.52,70.0
168.59,78.0
168.65,67.0
168.71,65.0
168.78,63.0
168.84,65.0
168.9,66.0
168.97,68.0
169.03,55.0
169.09,63.0
169.15,66.0
169.22,66.0
169.28,74.0
169.34,90.0
169.41,85.0
169.47,84.0
169.53,86.0
169.6,82.0
169.66,93.0
169.72,85.0
169.78,78.0
169.85,99.0
169.91,85.0
169.97,84.0
170.04,97.0
170.1,114.0
170.16,101.0
170.23,89.0
170.29,105.0
170.35,104.0
170.41,83.0
170.48,103.0
170.54,103.0
170.6,112.0
170.67,110.0
170.73,101.0
170.79,103.0
170.86,114.0
170.92,95.0
170.98,109.0
171.04,121.0
171.11,115.0
171.17,118.0
171.23,129.0
171.3,113.0
171.36,126.0
171.42,129.0
171.49,139.0
171.55,112.0
171.61,123.0
171.67,127.0
171.74,133.0
171.8,127.0
171.86,134.0
171.93,126.0
171.99,138.0
172.05,133.0
172.12,137.0
172.18,142.0
172.24,136.0
172.3,148.0
172.37,137.0
172.43,117.0
172.49,136.0
172.56,154.0
172.62,150.0
172.68,131.0
172.75,172.0
172.81,164.0
172.87,157.0
172.93,175.0
173.0,152.0
173.06,165.0
173.12,144.0
173.19,150.0
173.25,157.0
173.31,166.0
173.38,138.0
173.44,145.0
173.5,161.0
173.56,173.0
173.63,172.0
173.69,165.0
173.75,164.0
173.82,153.0
173.88,165.0
173.94,176.0
174.01,170.0
174.07,166.0
174.13,181.0
174.19,161.0
174.26,140.0
174.32,180.0
174.38,167.0
174.45,165.0
174.51,189.0
174.57,172.0
174.64,168.0
174.7,150.0
174.76,140.0
174.82,151.0
174.89,150.0
174.95,129.0
175.01,131.0
175.08,129.0
175.14,128.0
175.2,137.0
175.27,117.0
175.33,100.0
175.39,106.0
175.45,110.0
175.52,117.0
175.58,110.0
175.64,121.0
175.71,131.0
175.77,127.0
175.83,131.0
175.9,109.0
175.96,102.0
176.02,127.0
176.08,139.0
176.15,126.0
176.21,149.0
176.27,142.0
176.34,118.0
176.4,123.0
176.46,87.0
176.53,108.0
176.59,122.0
176.65,106.0
176.71,120.0
176.78,97.0
176.84,102.0
176.9,79.0
176.97,80.0
177.03,112.0
177.09,87.0
177.16,60.0
177.22,68.0
177.28,87.0
177.34,79.0
177.41,66.0
177.47,88.0
177.53,87.0
177.6,68.0
177.66,62.0
177.72,77.0
177.79,85.0
177.85,79.0
177.91,85.0
177.97,92.0
178.04,92.0
178.1,110.0
178.16,121.0
178.23,110.0
178.29,99.0
178.35,92.0
178.42,83.0
178.48,99.0
178.54,92.0
178.6,85.0
178.67,98.0
178.73,117.0
178.79,99.0
178.86,100.0
178.92,85.0
178.98,88.0
179.05,115.0
179.11,93.0
179.17,98.0
179.23,104.0
179.3,88.0
179.36,81.0
179.42,97.0
179.49,99.0
179.55,103.0
179.61,79.0
179.68,76.0
179.74,68.0
179.8,57.0
179.86,73.0
179.93,81.0
179.99,59.0
180.05,64.0
180.12,69.0
180.18,43.0
180.24,47.0
180.31,55.0
180.37,52.0
180.43,39.0
180.49,40.0
180.56,58.0
180.62,58.0
180.68,65.0
180.75,72.0
180.81,54.0
180.87,61.0
180.94,91.0
181.0,66.0
181.06,86.0
181.12,96.0
181.19,95.0
181.25,97.0
181.31,88.0
181.38,82.0
181.44,87.0
181.5,77.0
181.57,68.0
181.63,58.0
181.69,63.0
181.75,70.0
181.82,77.0
181.88,88.0
181.94,82.0
182.01,83.0
182.07,73.0
182.13,63.0
182.2,73.0
182.26,56.0
182.32,60.0
182.38,66.0
182.45,64.0
182.51,57.0
182.57,58.0
182.64,44.0
182.7,47.0
182.76,46.0
182.83,46.0
182.89,66.0
182.95,56.0
183.01,54.0
183.08,63.0
183.14,53.0
183.2,62.0
183.27,58.0
183.33,69.0
183.39,63.0
183.46,71.0
183.52,86.0
183.58,82.0
183.64,68.0
183.71,69.0
183.77,64.0
183.83,54.0
183.9,53.0
183.96,59.0
184.02,69.0
184.09,73.0
184.15,69.0
184.21,58.0
184.27,65.0
184.34,75.0
184.4,76.0
184.46,53.0
184.53,46.0
184.59,75.0
184.65,85.0
184.72,70.0
184.78,47.0
184.84,57.0
184.9,55.0
184.97,56.0
185.03,38.0
185.09,26.0
185.16,30.0
185.22,36.0
185.28,19.0
185.35,13.0
185.41,21.0
185.47,41.0
185.53,7.0
185.6,6.0
185.66,18.0
185.72,18.0
185.79,15.0
185.85,19.0
185.91,16.0
185.98,16.0
186.04,14.0
186.1,14.0
186.16,7.0
186.23,-3.0
186.29,14.0
186.35,-4.0
186.42,-18.0
186.48,-16.0
186.54,3.0
186.61,9.0
186.67,33.0
186.73,5.0
186.79,-1.0
186.86,37.0
186.92,34.0
186.98,20.0
187.05,16.0
187.11,8.0
187.17,14.0
187.24,11.0
187.3,23.0
187.36,29.0
187.42,16.0
187.49,42.0
187.55,29.0
187.61,22.0
187.68,13.0
187.74,39.0
187.8,44.0
187.87,31.0
187.93,42.0
187.99,40.0
188.05,28.0
188.12,38.0
188.18,42.0
188.24,37.0
188.31,21.0
188.37,15.0
188.43,21.0
188.5,20.0
188.56,37.0
188.62,21.0
188.68,22.0
188.75,26.0
188.81,18.0
188.87,15.0
188.94,1.0
189.0,17.0
189.06,13.0
189.13,6.0
189.19,31.0
189.25,21.0
189.31,9.0
189.38,21.0
189.44,18.0
189.5,33.0
189.57,22.0
189.63,31.0
189.69,37.0
189.76,23.0
189.82,22.0
189.88,15.0
189.94,10.0
190.01,15.0
190.07,26.0
190.13,15.0
190.2,8.0
190.26,34.0
190.32,34.0
190.39,23.0
190.45,15.0
190.51,3.0
190.57,15.0
190.64,-4.0
190.7,6.0
190.76,9.0
190.83,12.0
190.89,21.0
190.95,3.0
191.02,17.0
191.08,22.0
191.14,-14.0
191.2,-21.0
191.27,-13.0
191.33,15.0
191.39,9.0
191.46,27.0
191.52,14.0
191.58,-10.0
191.65,-25.0
191.71,-15.0
191.77,-7.0
191.83,0.0
191.9,-6.0
191.96,-22.0
192.02,-14.0
192.09,-3.0
192.15,-23.0
192.21,-34.0
192.28,-26.0
192.34,-28.0
192.4,-45.0
192.46,-41.0
192.53,-24.0
192.59,-22.0
192.65,-21.0
192.72,-23.0
192.78,-28.0
192.84,-46.0
192.91,-46.0
192.97,-37.0
193.03,-54.0
193.09,-14.0
193.16,-1.0
193.22,-6.0
193.28,-21.0
193.35,-28.0
193.41,-34.0
193.47,-33.0
193.54,-41.0
193.6,-59.0
193.66,-48.0
193.72,-41.0
193.79,-23.0
193.85,-6.0
193.91,-12.0
193.98,-24.0
194.04,-28.0
194.1,-25.0
194.17,-21.0
194.23,-23.0
194.29,-7.0
194.35,-20.0
194.42,-26.0
194.48,5.0
194.54,-16.0
194.61,-9.0
194.67,4.0
194.73,-19.0
194.8,-20.0
194.86,0.0
194.92,6.0
194.98,13.0
195.05,9.0
195.11,15.0
195.17,23.0
195.24,20.0
195.3,24.0
195.36,28.0
195.43,20.0
195.49,26.0
195.55,26.0
195.61,20.0
195.68,34.0
195.74,48.0
195.8,50.0
195.87,20.0
195.93,41.0
195.99,44.0
196.06,20.0
196.12,47.0
196.18,25.0
196.24,49.0
196.31,33.0
196.37,49.0
196.43,46.0
196.5,41.0
196.56,57.0
196.62,64.0
196.69,66.0
196.75,51.0
196.81,72.0
196.87,53.0
196.94,60.0
197.0,65.0
197.06,59.0
197.13,61.0
197.19,84.0
197.25,62.0
197.32,55.0
197.38,77.0
197.44,90.0
197.5,92.0
197.57,90.0
197.63,94.0
197.69,97.0
197.76,81.0
197.82,64.0
197.88,67.0
197.95,88.0
198.01,102.0
198.07,93.0
198.13,92.0
198.2,104.0
198.26,93.0
198.32,86.0
198.39,80.0
198.45,89.0
198.51,103.0
198.58,92.0
198.64,104.0
198.7,122.0
198.76,100.0
198.83,121.0
198.89,134.0
198.95,135.0
199.02,131.0
199.08,123.0
199.14,125.0
199.21,135.0
199.27,152.0
199.33,141.0
199.39,131.0
199.46,157.0
199.52,154.0
199.58,143.0
199.65,155.0
199.71,148.0
199.77,157.0
199.84,167.0
199.9,148.0
199.96,139.0
200.02,156.0
200.09,136.0
200.15,142.0
200.21,137.0
200.28,164.0
200.34,152.0
200.4,146.0
200.47,161.0
200.53,160.0
200.59,167.0
200.65,156.0
200.72,157.0
200.78,186.0
200.84,184.0
200.91,190.0
200.97,181.0
201.03,185.0
201.1,200.0
201.16,187.0
201.22,189.0
201.28,190.0
201.35,203.0
201.41,214.0
201.47,196.0
201.54,181.0
201.6,179.0
201.66,193.0
201.73,196.0
201.79,197.0
201.85,185.0
201.91,186.0
201.98,192.0
202.04,183.0
202.1,191.0
202.17,201.0
202.23,203.0
202.29,228.0
202.36,215.0
202.42,196.0
202.48,207.0
202.54,205.0
202.61,214.0
202.67,229.0
202.73,208.0
202.8,228.0
202.86,222.0
202.92,230.0
202.99,229.0
203.05,215.0
203.11,225.0
203.17,237.0
203.24,249.0
203.3,228.0
203.36,212.0
203.43,229.0
203.49,234.0
203.55,242.0
203.62,269.0
203.68,245.0
203.74,229.0
203.8,222.0
203.87,227.0
203.93,218.0
203.99,229.0
204.06,227.0
204.12,230.0
204.18,223.0
204.25,231.0
204.31,239.0
204.37,245.0
204.43,203.0
204.5,229.0
204.56,228.0
204.62,243.0
204.69,237.0
204.75,228.0
204.81,221.0
204.88,242.0
204.94,226.0
205.0,218.0
205.06,227.0
205.13,221.0
205.19,211.0
205.25,208.0
205.32,212.0
205.38,194.0
205.44,187.0
205.51,185.0
205.57,199.0
205.63,209.0
205.69,200.0
205.76,193.0
205.82,206.0
205.88,206.0
205.95,216.0
206.01,203.0
206.07,209.0
206.14,226.0
206.2,221.0
206.26,201.0
206.32,168.0
206.39,179.0
206.45,200.0
206.51,176.0
206.58,167.0
206.64,185.0
206.7,183.0
206.77,165.0
206.83,167.0
206.89,170.0
206.95,148.0
207.02,157.0
207.08,157.0
207.14,141.0
207.21,137.0
207.27,150.0
207.33,134.0
207.4,137.0
207.46,131.0
207.52,124.0
207.58,118.0
207.65,104.0
207.71,103.0
207.77,84.0
207.84,86.0
207.9,115.0
207.96,90.0
208.03,74.0
208.09,54.0
208.15,46.0
208.21,87.0
208.28,77.0
208.34,91.0
208.4,83.0
208.47,94.0
208.53,93.0
208.59,69.0
208.66,93.0
208.72,63.0
208.78,61.0
208.84,58.0
208.91,61.0
208.97,56.0
209.03,42.0
209.1,59.0
209.16,43.0
209.22,15.0
209.29,19.0
209.35,22.0
209.41,20.0
209.47,14.0
209.54,16.0
209.6,5.0
209.66,1.0
209.73,-6.0
209.79,8.0
209.85,-6.0
209.92,4.0
209.98,7.0
210.04,-20.0
210.1,-7.0
210.17,-4.0
210.23,2.0
210.29,-2.0
210.36,-12.0
210.42,2.0
210.48,6.0
210.55,-1.0
210.61,-15.0
210.67,-12.0
210.73,0.0
210.8,-15.0
210.86,-6.0
210.92,-2.0
210.99,-13.0
211.05,6.0
211.11,-11.0
211.18,14.0
211.24,13.0
211.3,0.0
211.36,9.0
211.43,-1.0
211.49,-10.0
211.55,4.0
211.62,1.0
211.68,-4.0
211.74,4.0
211.81,8.0
211.87,15.0
211.93,8.0
211.99,28.0
212.06,4.0
212.12,-5.0
212.18,-4.0
212.25,-3.0
212.31,4.0
212.37,-4.0
212.44,-2.0
212.5,15.0
212.56,12.0
212.62,11.0
212.69,-5.0
212.75,13.0
212.81,14.0
212.88,-8.0
212.94,0.0
213.0,-17.0
213.07,2.0
213.13,9.0
213.19,-13.0
213.25,12.0
213.32,-6.0
213.38,0.0
213.44,21.0
213.51,-16.0
213.57,5.0
213.63,2.0
213.7,-9.0
213.76,2.0
213.82,14.0
213.88,25.0
213.95,7.0
214.01,8.0
214.07,17.0
214.14,11.0
214.2,10.0
214.26,10.0
214.33,11.0
214.39,5.0
214.45,18.0
214.51,40.0
214.58,23.0
214.64,16.0
214.7,19.0
214.77,26.0
214.83,24.0
214.89,33.0
214.96,24.0
215.02,46.0
215.08,35.0
215.14,42.0
215.21,49.0
215.27,52.0
215.33,48.0
215.4,41.0
215.46,46.0
215.52,51.0
215.59,45.0
215.65,63.0
215.71,59.0
215.77,52.0
215.84,38.0
215.9,58.0
215.96,44.0
216.03,49.0
216.09,53.0
216.15,29.0
216.22,47.0
216.28,49.0
216.34,29.0
216.4,47.0
216.47,54.0
216.53,50.0
216.59,38.0
216.66,53.0
216.72,57.0
216.78,58.0
216.85,68.0
216.91,55.0
216.97,87.0
217.03,84.0
217.1,79.0
217.16,110.0
217.22,114.0
217.29,111.0
217.35,93.0
217.41,96.0
217.48,125.0
217.54,117.0
217.6,109.0
217.66,115.0
217.73,115.0
217.79,98.0
217.85,94.0
217.92,91.0
217.98,83.0
218.04,84.0
218.11,95.0
218.17,143.0
218.23,125.0
218.29,128.0
218.36,136.0
218.42,144.0
218.48,113.0
218.55,135.0
218.61,139.0
218.67,136.0
218.74,142.0
218.8,150.0
218.86,128.0
218.92,131.0
218.99,129.0
219.05,131.0
219.11,147.0
219.18,134.0
219.24,128.0
219.3,133.0
219.37,147.0
219.43,131.0
219.49,147.0
219.55,139.0
219.62,145.0
219.68,129.0
219.74,122.0
219.81,140.0
219.87,114.0
219.93,131.0
220.0,121.0
220.06,117.0
220.12,149.0
220.18,143.0
220.25,156.0
220.31,176.0
220.37,140.0
220.44,139.0
220.5,151.0
220.56,141.0
220.63,153.0
220.69,171.0
220.75,161.0
220.81,142.0
220.88,163.0
220.94,157.0
221.0,156.0
221.07,155.0
221.13,163.0
221.19,200.0
221.26,182.0
221.32,185.0
221.38,179.0
221.44,173.0
221.51,186.0
221.57,187.0
221.63,191.0
221.7,173.0
221.76,196.0
221.82,191.0
221.89,171.0
221.95,186.0
222.01,181.0
222.07,168.0
222.14,166.0
222.2,187.0
222.26,183.0
222.33,194.0
222.39,167.0
222.45,190.0
222.52,170.0
222.58,187.0
222.64,182.0
222.7,170.0
222.77,172.0
222.83,174.0
222.89,163.0
222.96,168.0
223.02,183.0
223.08,197.0
223.15,201.0
223.21,196.0
223.27,200.0
223.33,202.0
223.4,208.0
223.46,203.0
223.52,180.0
223.59,187.0
223.65,187.0
223.71,177.0
223.78,166.0
223.84,175.0
223.9,160.0
223.96,140.0
224.03,171.0
224.09,172.0
224.15,166.0
224.22,161.0
224.28,164.0
224.34,164.0
224.41,177.0
224.47,171.0
224.53,149.0
224.59,148.0
224.66,157.0
224.72,165.0
224.78,176.0
224.85,147.0
224.91,166.0
224.97,159.0
225.04,151.0
225.1,158.0
225.16,174.0
225.22,178.0
225.29,159.0
225.35,157.0
225.41,156.0
225.48,142.0
225.54,152.0
225.6,149.0
225.67,134.0
225.73,126.0
225.79,115.0
225.85,120.0
225.92,117.0
225.98,95.0
226.04,95.0
226.11,94.0
226.17,87.0
226.23,113.0
226.3,100.0
226.36,92.0
226.42,87.0
226.48,48.0
226.55,82.0
226.61,82.0
226.67,78.0
226.74,84.0
226.8,58.0
226.86,53.0
226.93,57.0
226.99,41.0
227.05,40.0
227.11,40.0
227.18,29.0
227.24,37.0
227.3,51.0
227.37,53.0
227.43,46.0
227.49,21.0
227.56,33.0
227.62,8.0
227.68,17.0
227.74,32.0
227.81,17.0
227.87,26.0
227.93,26.0
228.0,14.0
228.06,28.0
228.12,40.0
228.19,43.0
228.25,30.0
228.31,51.0
228.37,44.0
228.44,47.0
228.5,56.0
228.56,62.0
228.63,68.0
228.69,70.0
228.75,96.0
228.82,88.0
228.88,114.0
228.94,86.0
229.0,88.0
229.07,77.0
229.13,80.0
229.19,80.0
229.26,73.0
229.32,80.0
229.38,69.0
229.45,58.0
229.51,84.0
229.57,90.0
229.63,80.0
229.7,78.0
229.76,78.0
229.82,88.0
229.89,62.0
229.95,77.0
230.01,79.0
230.08,90.0
230.14,74.0
230.2,75.0
230.26,73.0
230.33,71.0
230.39,71.0
230.45,65.0
230.52,85.0
230.58,84.0
230.64,93.0
230.71,92.0
230.77,57.0
230.83,84.0
230.89,67.0
230.96,58.0
231.02,73.0
231.08,73.0
231.15,78.0
231.21,71.0
231.27,101.0
231.34,102.0
231.4,103.0
231.46,95.0
231.52,104.0
231.59,81.0
231.65,73.0
231.71,85.0
231.78,97.0
231.84,102.0
231.9,105.0
231.97,90.0
232.03,91.0
232.09,86.0
232.15,55.0
232.22,64.0
232.28,69.0
232.34,67.0
232.41,78.0
232.47,86.0
232.53,88.0
232.6,88.0
232.66,84.0
232.72,77.0
232.78,60.0
232.85,77.0
232.91,77.0
232.97,74.0
233.04,86.0
233.1,96.0
233.16,105.0
233.23,114.0
233.29,135.0
233.35,112.0
233.41,101.0
233.48,124.0
233.54,103.0
233.6,98.0
233.67,137.0
233.73,150.0
233.79,151.0
233.86,151.0
233.92,137.0
233.98,128.0
234.04,142.0
234.11,128.0
234.17,130.0
234.23,110.0
234.3,112.0
234.36,142.0
234.42,123.0
234.49,127.0
234.55,97.0
234.61,107.0
234.67,113.0
234.74,117.0
234.8,127.0
234.86,95.0
234.93,103.0
234.99,87.0
235.05,117.0
235.12,125.0
235.18,113.0
235.24,113.0
235.3,106.0
235.37,114.0
235.43,103.0
235.49,111.0
235.56,103.0
235.62,131.0
235.68,125.0
235.75,113.0
235.81,120.0
235.87,125.0
235.93,103.0
236.0,117.0
236.06,114.0
236.12,119.0
236.19,125.0
236.25,118.0
236.31,112.0
236.38,102.0
236.44,99.0
236.5,112.0
236.56,87.0
236.63,87.0
236.69,106.0
236.75,106.0
236.82,107.0
236.88,97.0
236.94,80.0
237.01,107.0
237.07,107.0
237.13,100.0
237.19,126.0
237.26,122.0
237.32,101.0
237.38,128.0
237.45,117.0
237.51,99.0
237.57,115.0
237.64,118.0
237.7,113.0
237.76,148.0
237.82,142.0
237.89,143.0
237.95,166.0
238.01,142.0
238.08,150.0
238.14,138.0
238.2,134.0
238.27,125.0
238.33,147.0
238.39,139.0
238.45,131.0
238.52,123.0
238.58,134.0
238.64,117.0
238.71,122.0
238.77,124.0
238.83,102.0
238.9,93.0
238.96,104.0
239.02,102.0
239.08,117.0
239.15,113.0
239.21,112.0
239.27,117.0
239.34,110.0
239.4,110.0
239.46,111.0
239.53,126.0
239.59,103.0
239.65,103.0
239.71,107.0
239.78,139.0
239.84,120.0
239.9,112.0
239.97,99.0
240.03,107.0
240.09,116.0
240.16,103.0
240.22,102.0
240.28,121.0
240.34,121.0
240.41,124.0
240.47,124.0
240.53,107.0
240.6,114.0
240.66,120.0
240.72,136.0
240.79,135.0
240.85,130.0
240.91,115.0
240.97,93.0
241.04,84.0
241.1,89.0
241.16,82.0
241.23,81.0
241.29,79.0
241.35,91.0
241.42,91.0
241.48,85.0
241.54,83.0
241.6,74.0
241.67,70.0
241.73,56.0
241.79,49.0
241.86,54.0
241.92,73.0
241.98,55.0
242.05,32.0
242.11,41.0
242.17,41.0
242.23,46.0
242.3,29.0
242.36,37.0
242.42,20.0
242.49,13.0
242.55,21.0
242.61,10.0
242.68,10.0
242.74,9.0
242.8,13.0
242.86,11.0
242.93,-1.0
242.99,-1.0
243.05,-6.0
243.12,-4.0
243.18,11.0
243.24,-9.0
243.31,0.0
243.37,13.0
243.43,-6.0
243.49,-17.0
243.56,-34.0
243.62,-7.0
243.68,-9.0
243.75,-26.0
243.81,-22.0
243.87,-34.0
243.94,-2.0
244.0,-17.0
244.06,0.0
244.12,0.0
244.19,-7.0
244.25,-25.0
244.31,-44.0
244.38,-30.0
244.44,-32.0
244.5,-40.0
244.57,-33.0
244.63,-28.0
244.69,-27.0
244.75,-42.0
244.82,-39.0
244.88,-32.0
244.94,-38.0
245.01,-17.0
245.07,-16.0
245.13,-1.0
245.2,-8.0
245.26,-13.0
245.32,-3.0
245.38,4.0
245.45,-27.0
245.51,-11.0
245.57,12.0
245.64,20.0
245.7,6.0
245.76,23.0
245.83,2.0
245.89,5.0
245.95,-2.0
246.01,-5.0
246.08,10.0
246.14,14.0
246.2,14.0
246.27,-11.0
246.33,-13.0
246.39,-8.0
246.46,9.0
246.52,-6.0
246.58,-1.0
246.64,12.0
246.71,7.0
246.77,-4.0
246.83,6.0
246.9,29.0
246.96,12.0
247.02,10.0
247.09,5.0
247.15,-14.0
247.21,-6.0
247.27,5.0
247.34,7.0
247.4,13.0
247.46,32.0
247.53,36.0
247.59,19.0
247.65,35.0
247.72,36.0
247.78,14.0
247.84,16.0
247.9,2.0
247.97,13.0
248.03,-3.0
248.09,2.0
248.16,28.0
248.22,38.0
248.28,38.0
248.35,19.0
248.41,15.0
248.47,13.0
248.53,16.0
248.6,12.0
248.66,37.0
248.72,41.0
248.79,46.0
248.85,56.0
248.91,66.0
248.98,59.0
249.04,54.0
249.1,67.0
249.16,97.0
249.23,76.0
249.29,75.0
249.35,100.0
249.42,111.0
249.48,102.0
249.54,101.0
249.61,103.0
249.67,94.0
249.73,83.0
249.79,108.0
249.86,91.0
249.92,105.0
249.98,115.0
250.05,96.0
250.11,90.0
250.17,75.0
250.24,106.0
250.3,123.0
250.36,98.0
250.42,120.0
250.49,120.0
250.55,124.0
250.61,126.0
250.68,130.0
250.74,110.0
250.8,104.0
250.87,130.0
250.93,126.0
250.99,141.0
251.05,135.0
251.12,154.0
251.18,153.0
251.24,141.0
251.31,136.0
251.37,174.0
251.43,175.0
251.5,168.0
251.56,174.0
251.62,158.0
251.68,166.0
251.75,198.0
251.81,172.0
251.87,151.0
251.94,166.0
252.0,185.0
252.06,193.0
252.13,205.0
252.19,206.0
252.25,198.0
252.31,195.0
252.38,178.0
252.44,208.0
252.5,197.0
252.57,210.0
252.63,196.0
252.69,203.0
252.76,188.0
252.82,198.0
252.88,201.0
252.94,205.0
253.01,220.0
253.07,200.0
253.13,198.0
253.2,229.0
253.26,204.0
253.32,209.0
253.39,236.0
253.45,233.0
253.51,251.0
253.57,226.0
253.64,214.0
253.7,214.0
253.76,208.0
253.83,233.0
253.89,250.0
253.95,242.0
254.02,247.0
254.08,290.0
254.14,278.0
254.2,265.0
254.27,272.0
254.33,246.0
254.39,273.0
254.46,256.0
254.52,242.0
254.58,256.0
254.65,256.0
254.71,268.0
254.77,277.0
254.83,280.0
254.9,261.0
254.96,286.0
255.02,289.0
255.09,264.0
255.15,296.0
255.21,296.0
255.28,273.0
255.34,276.0
255.4,270.0
255.46,259.0
255.53,261.0
255.59,262.0
255.65,277.0
255.72,260.0
255.78,280.0
255.84,276.0
255.91,241.0
255.97,240.0
256.03,243.0
256.09,262.0
256.16,255.0
256.22,268.0
256.28,275.0
256.35,278.0
256.41,259.0
256.47,278.0
256.54,274.0
256.6,265.0
256.66,277.0
256.72,272.0
256.79,287.0
256.85,242.0
256.91,240.0
256.98,241.0
257.04,270.0
257.1,259.0
257.17,257.0
257.23,251.0
257.29,249.0
257.35,260.0
257.42,256.0
257.48,249.0
257.54,272.0
257.61,248.0
257.67,242.0
257.73,250.0
257.8,244.0
257.86,214.0
257.92,238.0
257.98,222.0
258.05,203.0
258.11,182.0
258.17,198.0
258.24,208.0
258.3,196.0
258.36,213.0
258.43,190.0
258.49,206.0
258.55,197.0
258.61,215.0
258.68,200.0
258.74,193.0
258.8,195.0
258.87,182.0
258.93,208.0
258.99,206.0
259.06,203.0
259.12,199.0
259.18,191.0
259.24,185.0
259.31,197.0
259.37,198.0
259.43,190.0
259.5,162.0
259.56,180.0
259.62,170.0
259.69,161.0
259.75,159.0
259.81,182.0
259.87,176.0
259.94,188.0
260.0,177.0
260.06,157.0
260.13,164.0
260.19,177.0
260.25,173.0
260.32,175.0
260.38,156.0
260.44,130.0
260.5,125.0
260.57,127.0
260.63,139.0
260.69,147.0
260.76,159.0
260.82,164.0
260.88,131.0
260.95,145.0
261.01,141.0
261.07,148.0
261.13,141.0
261.2,140.0
261.26,138.0
261.32,122.0
261.39,123.0
261.45,109.0
261.51,104.0
261.58,124.0
261.64,100.0
261.7,85.0
261.76,101.0
261.83,90.0
261.89,113.0
261.95,126.0
262.02,114.0
262.08,98.0
262.14,121.0
262.21,119.0
262.27,112.0
262.33,80.0
262.39,109.0
262.46,109.0
262.52,108.0
262.58,108.0
262.65,86.0
262.71,98.0
262.77,94.0
262.84,96.0
262.9,62.0
262.96,72.0
263.02,87.0
263.09,70.0
263.15,62.0
263.21,73.0
263.28,80.0
263.34,71.0
263.4,64.0
263.47,60.0
263.53,55.0
263.59,70.0
263.65,69.0
263.72,64.0
263.78,80.0
263.84,56.0
263.91,64.0
263.97,76.0
264.03,81.0
264.1,86.0
264.16,68.0
264.22,72.0
264.28,54.0
264.35,45.0
264.41,45.0
264.47,39.0
264.54,28.0
264.6,3.0
264.66,24.0
264.73,27.0
264.79,30.0
264.85,46.0
264.91,47.0
264.98,37.0
265.04,40.0
265.1,33.0
265.17,32.0
265.23,15.0
265.29,41.0
265.36,54.0
265.42,58.0
265.48,65.0
265.54,63.0
265.61,55.0
265.67,63.0
265.73,64.0
265.8,77.0
265.86,86.0
265.92,46.0
265.99,64.0
266.05,71.0
266.11,74.0
266.17,50.0
266.24,49.0
266.3,57.0
266.36,59.0
266.43,60.0
266.49,44.0
266.55,39.0
266.62,63.0
266.68,65.0
266.74,45.0
266.8,51.0
266.87,56.0
266.93,54.0
266.99,38.0
267.06,30.0
267.12,20.0
267.18,34.0
267.25,33.0
267.31,41.0
267.37,52.0
267.43,51.0
267.5,83.0
267.56,97.0
267.62,82.0
267.69,77.0
267.75,81.0
267.81,77.0
267.88,96.0
267.94,66.0
268.0,52.0
268.06,65.0
268.13,92.0
268.19,78.0
268.25,83.0
268.32,70.0
268.38,75.0
268.44,66.0
268.51,55.0
268.57,91.0
268.63,68.0
268.69,50.0
268.76,69.0
268.82,60.0
268.88,77.0
268.95,86.0
269.01,76.0
269.07,71.0
269.14,64.0
269.2,90.0
269.26,81.0
269.32,62.0
269.39,72.0
269.45,60.0
269.51,46.0
269.58,63.0
269.64,96.0
269.7,90.0
269.77,91.0
269.83,78.0
269.89,77.0
269.95,76.0
270.02,82.0
270.08,86.0
270.14,108.0
270.21,112.0
270.27,106.0
270.33,110.0
270.4,100.0
270.46,101.0
270.52,104.0
270.58,122.0
270.65,124.0
270.71,116.0
270.77,80.0
270.84,93.0
270.9,101.0
270.96,112.0
271.03,133.0
271.09,96.0
271.15,128.0
271.21,128.0
271.28,97.0
271.34,96.0
271.4,124.0
271.47,119.0
271.53,83.0
271.59,101.0
271.66,107.0
271.72,127.0
271.78,101.0
271.84,105.0
271.91,122.0
271.97,98.0
272.03,102.0
272.1,122.0
272.16,143.0
272.22,130.0
272.29,123.0
272.35,143.0
272.41,139.0
272.47,126.0
272.54,134.0
272.6,123.0
272.66,126.0
272.73,121.0
272.79,130.0
272.85,134.0
272.92,132.0
272.98,141.0
273.04,133.0
273.1,134.0
273.17,145.0
273.23,152.0
273.29,132.0
273.36,130.0
273.42,128.0
273.48,145.0
273.55,151.0
273.61,149.0
273.67,146.0
273.73,152.0
273.8,137.0
273.86,135.0
273.92,145.0
273.99,142.0
274.05,154.0
274.11,138.0
274.18,154.0
274.24,160.0
274.3,153.0
274.36,171.0
274.43,160.0
274.49,166.0
274.55,142.0
274.62,150.0
274.68,144.0
274.74,145.0
274.81,128.0
274.87,127.0
274.93,162.0
274.99,152.0
275.06,148.0
275.12,148.0
275.18,157.0
275.25,156.0
275.31,150.0
275.37,143.0
275.44,156.0
275.5,157.0
275.56,149.0
275.62,147.0
275.69,136.0
275.75,136.0
275.81,132.0
275.88,135.0
275.94,131.0
276.0,146.0
276.07,151.0
276.13,128.0
276.19,133.0
276.25,152.0
276.32,135.0
276.38,133.0
276.44,127.0
276.51,134.0
276.57,143.0
276.63,122.0
276.7,130.0
276.76,125.0
276.82,132.0
276.88,133.0
276.95,140.0
277.01,134.0
277.07,130.0
277.14,127.0
277.2,135.0
277.26,115.0
277.33,107.0
277.39,133.0
277.45,120.0
277.51,119.0
277.58,137.0
277.64,124.0
277.7,115.0
277.77,114.0
277.83,109.0
277.89,123.0
277.96,110.0
278.02,117.0
278.08,122.0
278.14,102.0
278.21,105.0
278.27,114.0
278.33,115.0
278.4,119.0
278.46,102.0
278.52,123.0
278.59,121.0
278.65,126.0
278.71,119.0
278.77,114.0
278.84,131.0
278.9,132.0
278.96,153.0
279.03,136.0
279.09,121.0
279.15,122.0
279.22,127.0
279.28,145.0
279.34,129.0
279.4,141.0
279.47,143.0
279.53,158.0
279.59,142.0
279.66,143.0
279.72,145.0
279.78,157.0
279.85,152.0
279.91,166.0
279.97,148.0
280.03,127.0
280.1,139.0
280.16,130.0
280.22,135.0
280.29,113.0
280.35,122.0
280.41,126.0
280.48,133.0
280.54,123.0
280.6,128.0
280.66,129.0
280.73,122.0
280.79,140.0
280.85,138.0
280.92,144.0
280.98,149.0
281.04,126.0
281.11,148.0
281.17,140.0
281.23,155.0
281.29,155.0
281.36,129.0
281.42,137.0
281.48,138.0
281.55,122.0
281.61,102.0
281.67,136.0
281.74,121.0
281.8,130.0
281.86,137.0
281.92,130.0
281.99,135.0
282.05,129.0
282.11,152.0
282.18,138.0
282.24,132.0
282.3,117.0
282.37,117.0
282.43,134.0
282.49,129.0
282.55,157.0
282.62,151.0
282.68,159.0
282.74,144.0
282.81,139.0
282.87,141.0
282.93,107.0
283.0,98.0
283.06,116.0
283.12,133.0
283.18,119.0
283.25,112.0
283.31,105.0
283.37,88.0
283.44,106.0
283.5,119.0
283.56,116.0
283.63,120.0
283.69,122.0
283.75,126.0
283.81,134.0
283.88,98.0
283.94,109.0
284.0,130.0
284.07,133.0
284.13,146.0
284.19,131.0
284.26,123.0
284.32,118.0
284.38,127.0
284.44,122.0
284.51,111.0
284.57,124.0
284.63,86.0
284.7,106.0
284.76,110.0
284.82,86.0
284.89,64.0
284.95,56.0
285.01,77.0
285.07,70.0
285.14,85.0
285.2,85.0
285.26,86.0
285.33,82.0
285.39,62.0
285.45,80.0
285.52,92.0
285.58,79.0
285.64,47.0
285.7,71.0
285.77,61.0
285.83,57.0
285.89,64.0
285.96,98.0
286.02,91.0
286.08,58.0
286.15,81.0
286.21,66.0
286.27,60.0
286.33,63.0
286.4,71.0
286.46,47.0
286.52,56.0
286.59,66.0
286.65,58.0
286.71,54.0
286.78,38.0
286.84,48.0
286.9,50.0
286.96,65.0
287.03,51.0
287.09,61.0
287.15,76.0
287.22,85.0
287.28,100.0
287.34,81.0
287.41,69.0
287.47,92.0
287.53,79.0
287.59,82.0
287.66,77.0
287.72,84.0
287.78,80.0
287.85,70.0
287.91,85.0
287.97,81.0
288.04,80.0
288.1,68.0
288.16,76.0
288.22,77.0
288.29,80.0
288.35,94.0
288.41,104.0
288.48,85.0
288.54,86.0
288.6,85.0
288.67,89.0
288.73,101.0
288.79,85.0
288.85,82.0
288.92,88.0
288.98,113.0
289.04,119.0
289.11,101.0
289.17,86.0
289.23,110.0
289.3,82.0
289.36,101.0
289.42,101.0
289.48,97.0
289.55,102.0
289.61,99.0
289.67,102.0
289.74,86.0
289.8,96.0
289.86,92.0
289.93,94.0
289.99,86.0
290.05,109.0
290.11,78.0
290.18,84.0
290.24,87.0
290.3,94.0
290.37,106.0
290.43,105.0
290.49,118.0
290.56,122.0
290.62,93.0
290.68,92.0
290.74,96.0
290.81,110.0
290.87,115.0
290.93,101.0
291.0,99.0
291.06,96.0
291.12,108.0
291.19,92.0
291.25,96.0
291.31,86.0
291.37,78.0
291.44,82.0
291.5,76.0
291.56,80.0
291.63,78.0
291.69,66.0
291.75,63.0
291.82,69.0
291.88,60.0
291.94,57.0
292.0,47.0
292.07,42.0
292.13,52.0
292.19,42.0
292.26,54.0
292.32,66.0
292.38,37.0
292.45,45.0
292.51,60.0
292.57,49.0
292.63,62.0
292.7,65.0
292.76,61.0
292.82,53.0
292.89,53.0
292.95,55.0
293.01,56.0
293.08,47.0
293.14,61.0
293.2,39.0
293.26,27.0
293.33,35.0
293.39,26.0
293.45,30.0
293.52,28.0
293.58,30.0
293.64,23.0
293.71,31.0
293.77,35.0
293.83,29.0
293.89,25.0
293.96,42.0
294.02,17.0
294.08,29.0
294.15,20.0
294.21,16.0
294.27,30.0
294.34,32.0
294.4,31.0
294.46,44.0
294.52,26.0
294.59,13.0
294.65,22.0
294.71,17.0
294.78,4.0
294.84,12.0
294.9,14.0
294.97,9.0
295.03,16.0
295.09,14.0
295.15,20.0
295.22,46.0
295.28,69.0
295.34,47.0
295.41,48.0
295.47,53.0
295.53,55.0
295.6,69.0
295.66,75.0
295.72,63.0
295.78,71.0
295.85,63.0
295.91,75.0
295.97,93.0
296.04,98.0
296.1,100.0
296.16,78.0
296.23,90.0
296.29,100.0
296.35,96.0
296.41,94.0
296.48,101.0
296.54,87.0
296.6,82.0
296.67,98.0
296.73,90.0
296.79,95.0
296.86,69.0
296.92,67.0
296.98,67.0
297.04,75.0
297.11,98.0
297.17,86.0
297.23,74.0
297.3,64.0
297.36,58.0
297.42,59.0
297.49,74.0
297.55,42.0
297.61,32.0
297.67,39.0
297.74,31.0
297.8,36.0
297.86,24.0
297.93,37.0
297.99,38.0
298.05,37.0
298.12,54.0
298.18,52.0
298.24,58.0
298.3,63.0
298.37,66.0
298.43,81.0
298.49,74.0
298.56,55.0
298.62,69.0
298.68,65.0
298.75,61.0
298.81,47.0
298.87,38.0
298.93,56.0
299.0,55.0
299.06,34.0
299.12,27.0
299.19,34.0
299.25,51.0
299.31,41.0
299.38,45.0
299.44,68.0
299.5,68.0
299.56,63.0
299.63,80.0
299.69,89.0
299.75,41.0
299.82,38.0
299.88,53.0
299.94,56.0
300.01,60.0
300.07,63.0
300.13,64.0
300.19,67.0
300.26,58.0
300.32,71.0
300.38,71.0
300.45,60.0
300.51,82.0
300.57,60.0
300.64,64.0
300.7,73.0
300.76,71.0
300.82,90.0
300.89,80.0
300.95,85.0
301.01,71.0
301.08,86.0
301.14,95.0
301.2,88.0
301.27,96.0
301.33,80.0
301.39,88.0
301.45,67.0
301.52,70.0
301.58,74.0
301.64,85.0
301.71,65.0
301.77,81.0
301.83,85.0
301.9,98.0
301.96,82.0
302.02,82.0
302.08,94.0
302.15,107.0
302.21,102.0
302.27,89.0
302.34,96.0
302.4,105.0
302.46,108.0
302.53,100.0
302.59,126.0
302.65,121.0
302.71,115.0
302.78,111.0
302.84,107.0
302.9,93.0
302.97,93.0
303.03,96.0
303.09,90.0
303.16,106.0
303.22,111.0
303.28,122.0
303.34,137.0
303.41,135.0
303.47,115.0
303.53,140.0
303.6,144.0
303.66,133.0
303.72,135.0
303.79,141.0
303.85,141.0
303.91,117.0
303.97,146.0
304.04,154.0
304.1,131.0
304.16,141.0
304.23,131.0
304.29,159.0
304.35,143.0
304.42,156.0
304.48,138.0
304.54,152.0
304.6,178.0
304.67,181.0
304.73,179.0
304.79,185.0
304.86,185.0
304.92,167.0
304.98,189.0
305.05,176.0
305.11,174.0
305.17,167.0
305.23,165.0
305.3,182.0
305.36,177.0
305.42,188.0
305.49,184.0
305.55,181.0
305.61,192.0
305.68,193.0
305.74,205.0
305.8,207.0
305.86,222.0
305.93,214.0
305.99,214.0
306.05,221.0
306.12,212.0
306.18,203.0
306.24,190.0
306.31,196.0
306.37,214.0
306.43,209.0
306.49,201.0
306.56,226.0
306.62,206.0
306.68,201.0
306.75,206.0
306.81,215.0
306.87,216.0
306.94,233.0
307.0,247.0
307.06,228.0
307.12,242.0
307.19,232.0
307.25,233.0
307.31,227.0
307.38,238.0
307.44,249.0
307.5,250.0
307.57,216.0
307.63,228.0
307.69,221.0
307.75,216.0
307.82,214.0
307.88,217.0
307.94,209.0
308.01,204.0
308.07,212.0
308.13,193.0
308.2,196.0
308.26,181.0
308.32,196.0
308.38,191.0
308.45,193.0
308.51,192.0
308.57,199.0
308.64,209.0
308.7,196.0
308.76,195.0
308.83,205.0
308.89,201.0
308.95,176.0
309.01,181.0
309.08,196.0
309.14,170.0
309.2,160.0
309.27,170.0
309.33,166.0
309.39,139.0
309.46,143.0
309.52,143.0
309.58,151.0
309.64,150.0
309.71,166.0
309.77,164.0
309.83,141.0
309.9,145.0
309.96,138.0
310.02,131.0
310.09,117.0
310.15,136.0
310.21,122.0
310.27,95.0
310.34,123.0
310.4,137.0
310.46,122.0
310.53,127.0
310.59,108.0
310.65,128.0
310.72,124.0
310.78,141.0
310.84,133.0
310.9,131.0
310.97,132.0
311.03,141.0
311.09,136.0
311.16,104.0
311.22,120.0
311.28,116.0
311.35,135.0
311.41,141.0
311.47,131.0
311.53,128.0
311.6,104.0
311.66,128.0
311.72,100.0
311.79,102.0
311.85,109.0
311.91,115.0
311.98,119.0
312.04,111.0
312.1,118.0
312.16,122.0
312.23,109.0
312.29,94.0
312.35,132.0
312.42,103.0
312.48,124.0
312.54,121.0
312.61,94.0
312.67,102.0
312.73,97.0
312.79,107.0
312.86,118.0
312.92,113.0
312.98,104.0
313.05,112.0
313.11,110.0
313.17,102.0
313.24,86.0
313.3,72.0
313.36,60.0
313.42,37.0
313.49,60.0
313.55,67.0
313.61,67.0
313.68,65.0
313.74,64.0
313.8,73.0
313.87,50.0
313.93,60.0
313.99,49.0
314.05,55.0
314.12,52.0
314.18,50.0
314.24,45.0
314.31,60.0
314.37,58.0
314.43,73.0
314.5,59.0
314.56,69.0
314.62,82.0
314.68,92.0
314.75,93.0
314.81,71.0
314.87,66.0
314.94,68.0
315.0,63.0
315.06,71.0
315.13,71.0
315.19,69.0
315.25,62.0
315.31,56.0
315.38,52.0
315.44,49.0
315.5,72.0
315.57,57.0
315.63,41.0
315.69,51.0
315.76,40.0
315.82,50.0
315.88,47.0
315.94,40.0
316.01,33.0
316.07,39.0
316.13,45.0
316.2,56.0
316.26,44.0
316.32,67.0
316.39,59.0
316.45,45.0
316.51,47.0
316.57,46.0
316.64,20.0
316.7,44.0
316.76,49.0
316.83,42.0
316.89,76.0
316.95,83.0
317.02,77.0
317.08,79.0
317.14,81.0
317.2,72.0
317.27,82.0
317.33,73.0
317.39,85.0
317.46,95.0
317.52,73.0
317.58,80.0
317.65,82.0
317.71,66.0
317.77,67.0
317.83,86.0
317.9,110.0
317.96,99.0
318.02,106.0
318.09,112.0
318.15,111.0
318.21,112.0
318.28,93.0
318.34,82.0
318.4,93.0
318.46,108.0
318.53,102.0
318.59,121.0
318.65,112.0
318.72,92.0
318.78,88.0
318.84,79.0
318.91,93.0
318.97,109.0
319.03,103.0
319.09,89.0
319.16,94.0
319.22,112.0
319.28,118.0
319.35,112.0
319.41,103.0
319.47,104.0
319.54,114.0
319.6,119.0
319.66,137.0
319.72,144.0
319.79,140.0
319.85,127.0
319.91,148.0
319.98,131.0
320.04,127.0
320.1,137.0
320.17,107.0
320.23,115.0
320.29,148.0
320.35,141.0
320.42,138.0
320.48,141.0
320.54,159.0
320.61,146.0
320.67,154.0
320.73,152.0
320.8,162.0
320.86,166.0
320.92,162.0
320.98,165.0
321.05,154.0
321.11,166.0
321.17,185.0
321.24,173.0
321.3,163.0
321.36,181.0
321.43,195.0
321.49,181.0
321.55,168.0
321.61,192.0
321.68,212.0
321.74,172.0
321.8,209.0
321.87,207.0
321.93,204.0
321.99,205.0
322.06,209.0
322.12,224.0
322.18,226.0
322.24,229.0
322.31,226.0
322.37,219.0
322.43,231.0
322.5,218.0
322.56,228.0
322.62,240.0
322.69,223.0
322.75,218.0
322.81,212.0
322.87,202.0
322.94,218.0
323.0,213.0
323.06,231.0
323.13,241.0
323.19,244.0
323.25,237.0
323.32,263.0
323.38,267.0
323.44,274.0
323.5,278.0
323.57,256.0
323.63,280.0
323.69,280.0
323.76,288.0
323.82,254.0
323.88,266.0
323.95,247.0
324.01,223.0
324.07,230.0
324.13,243.0
324.2,250.0
324.26,263.0
324.32,258.0
324.39,245.0
324.45,242.0
324.51,237.0
324.58,259.0
324.64,257.0
324.7,256.0
324.76,230.0
324.83,228.0
324.89,235.0
324.95,234.0
325.02,242.0
325.08,239.0
325.14,224.0
325.21,217.0
325.27,226.0
325.33,207.0
325.39,202.0
325.46,206.0
325.52,198.0
325.58,195.0
325.65,218.0
325.71,185.0
325.77,182.0
325.84,192.0
325.9,170.0
325.96,201.0
326.02,183.0
326.09,151.0
326.15,143.0
326.21,138.0
326.28,146.0
326.34,152.0
326.4,150.0
326.47,139.0
326.53,142.0
326.59,148.0
326.65,119.0
326.72,130.0
326.78,126.0
326.84,115.0
326.91,107.0
326.97,113.0
327.03,127.0
327.1,97.0
327.16,92.0
327.22,85.0
327.28,77.0
327.35,80.0
327.41,88.0
327.47,86.0
327.54,75.0
327.6,70.0
327.66,68.0
327.73,70.0
327.79,65.0
327.85,44.0
327.91,42.0
327.98,64.0
328.04,52.0
328.1,42.0
328.17,61.0
328.23,53.0
328.29,49.0
328.36,49.0
328.42,61.0
328.48,56.0
328.54,64.0
328.61,58.0
328.67,35.0
328.73,35.0
328.8,50.0
328.86,58.0
328.92,49.0
328.99,35.0
329.05,45.0
329.11,14.0
329.17,1.0
329.24,6.0
329.3,31.0
329.36,3.0
329.43,9.0
329.49,20.0
329.55,13.0
329.62,28.0
329.68,26.0
329.74,6.0
329.8,20.0
329.87,20.0
329.93,2.0
329.99,33.0
330.06,31.0
330.12,18.0
330.18,27.0
330.25,16.0
330.31,24.0
330.37,19.0
330.43,22.0
330.5,19.0
330.56,32.0
330.62,48.0
330.69,46.0
330.75,47.0
330.81,25.0
330.88,30.0
330.94,37.0
331.0,24.0
331.06,47.0
331.13,38.0
331.19,20.0
331.25,22.0
331.32,23.0
331.38,31.0
331.44,47.0
331.51,44.0
331.57,33.0
331.63,45.0
331.69,20.0
331.76,32.0
331.82,33.0
331.88,25.0
331.95,9.0
332.01,11.0
332.07,33.0
332.14,19.0
332.2,16.0
332.26,23.0
332.32,31.0
332.39,33.0
332.45,48.0
332.51,36.0
332.58,29.0
332.64,38.0
332.7,9.0
332.77,13.0
332.83,27.0
332.89,45.0
332.95,45.0
333.02,66.0
333.08,54.0
333.14,70.0
333.21,77.0
333.27,59.0
333.33,65.0
333.4,71.0
333.46,59.0
333.52,86.0
333.58,71.0
333.65,79.0
333.71,85.0
333.77,104.0
333.84,91.0
333.9,61.0
333.96,74.0
334.03,96.0
334.09,98.0
334.15,90.0
334.21,95.0
334.28,132.0
334.34,122.0
334.4,105.0
334.47,98.0
334.53,97.0
334.59,118.0
334.66,118.0
334.72,106.0
334.78,110.0
334.84,105.0
334.91,105.0
334.97,113.0
335.03,80.0
335.1,90.0
335.16,89.0
335.22,104.0
335.29,89.0
335.35,84.0
335.41,84.0
335.47,97.0
335.54,114.0
335.6,89.0
335.66,90.0
335.73,87.0
335.79,102.0
335.85,86.0
335.92,89.0
335.98,89.0
336.04,66.0
336.1,56.0
336.17,82.0
336.23,92.0
336.29,86.0
336.36,91.0
336.42,97.0
336.48,105.0
336.55,107.0
336.61,124.0
336.67,113.0
336.73,94.0
336.8,118.0
336.86,120.0
336.92,130.0
336.99,122.0
337.05,138.0
337.11,154.0
337.18,135.0
337.24,145.0
337.3,150.0
337.36,159.0
337.43,154.0
337.49,143.0
337.55,165.0
337.62,176.0
337.68,173.0
337.74,169.0
337.81,170.0
337.87,167.0
337.93,164.0
337.99,191.0
338.06,184.0
338.12,185.0
338.18,189.0
338.25,179.0
338.31,203.0
338.37,207.0
338.44,204.0
338.5,211.0
338.56,220.0
338.62,215.0
338.69,222.0
338.75,233.0
338.81,245.0
338.88,218.0
338.94,220.0
339.0,237.0
339.07,236.0
339.13,219.0
339.19,226.0
339.25,234.0
339.32,229.0
339.38,255.0
339.44,244.0
339.51,230.0
339.57,243.0
339.63,247.0
339.7,247.0
339.76,257.0
339.82,243.0
339.88,248.0
339.95,259.0
340.01,241.0
340.07,245.0
340.14,251.0
340.2,229.0
340.26,247.0
340.33,264.0
340.39,247.0
340.45,254.0
340.51,249.0
340.58,261.0
340.64,249.0
340.7,260.0
340.77,261.0
340.83,262.0
340.89,268.0
340.96,261.0
341.02,251.0
341.08,253.0
341.14,261.0
341.21,263.0
341.27,252.0
341.33,258.0
341.4,253.0
341.46,237.0
341.52,233.0
341.59,224.0
341.65,235.0
341.71,216.0
341.77,234.0
341.84,237.0
341.9,217.0
341.96,221.0
342.03,216.0
342.09,212.0
342.15,203.0
342.22,199.0
342.28,176.0
342.34,181.0
342.4,173.0
342.47,186.0
342.53,155.0
342.59,168.0
342.66,187.0
342.72,169.0
342.78,193.0
342.85,166.0
342.91,170.0
342.97,171.0
343.03,162.0
343.1,162.0
343.16,177.0
343.22,170.0
343.29,158.0
343.35,149.0
343.41,143.0
343.48,143.0
343.54,151.0
343.6,141.0
343.66,130.0
343.73,126.0
343.79,133.0
343.85,123.0
343.92,97.0
343.98,103.0
344.04,111.0
344.11,85.0
344.17,92.0
344.23,91.0
344.29,71.0
344.36,82.0
344.42,90.0
344.48,90.0
344.55,76.0
344.61,64.0
344.67,62.0
344.74,54.0
344.8,40.0
344.86,62.0
344.92,67.0
344.99,65.0
345.05,69.0
345.11,67.0
345.18,60.0
345.24,63.0
345.3,52.0
345.37,47.0
345.43,53.0
345.49,36.0
345.55,42.0
345.62,45.0
345.68,13.0
345.74,13.0
345.81,19.0
345.87,3.0
345.93,2.0
346.0,4.0
346.06,10.0
346.12,6.0
346.18,8.0
346.25,-2.0
346.31,1.0
346.37,-6.0
346.44,2.0
346.5,3.0
346.56,-2.0
346.63,2.0
346.69,3.0
346.75,-20.0
346.81,-12.0
346.88,-11.0
346.94,-12.0
347.0,26.0
347.07,13.0
347.13,-21.0
347.19,-2.0
347.26,-3.0
347.32,-21.0
347.38,-10.0
347.44,-20.0
347.51,-9.0
347.57,-26.0
347.63,-31.0
347.7,-32.0
347.76,-28.0
347.82,-34.0
347.89,-23.0
347.95,-25.0
348.01,-1.0
348.07,6.0
348.14,-8.0
348.2,-9.0
348.26,-40.0
348.33,-17.0
348.39,1.0
348.45,-12.0
348.52,-12.0
348.58,-17.0
348.64,-28.0
348.7,-14.0
348.77,-19.0
348.83,-17.0
348.89,-20.0
348.96,-24.0
349.02,-3.0
349.08,-15.0
349.15,-16.0
349.21,-2.0
349.27,-25.0
349.33,-27.0
349.4,-25.0
349.46,-29.0
349.52,-16.0
349.59,-21.0
349.65,-27.0
349.71,-34.0
349.78,-37.0
349.84,-48.0
349.9,-44.0
349.96,-52.0
350.03,-50.0
350.09,-75.0
350.15,-56.0
350.22,-41.0
350.28,-54.0
350.34,-47.0
350.41,-35.0
350.47,-18.0
350.53,-24.0
350.59,-18.0
350.66,-14.0
350.72,-20.0
350.78,3.0
350.85,-23.0
350.91,-33.0
350.97,-20.0
351.04,-12.0
351.1,-17.0
351.16,-27.0
351.22,-29.0
351.29,-31.0
351.35,-27.0
351.41,-6.0
351.48,-1.0
351.54,-1.0
351.6,3.0
351.67,21.0
351.73,27.0
351.79,4.0
351.85,23.0
351.92,21.0
351.98,43.0
352.04,51.0
352.11,39.0
352.17,43.0
352.23,52.0
352.3,46.0
352.36,40.0
352.42,54.0
352.48,55.0
352.55,62.0
352.61,41.0
352.67,49.0
352.74,47.0
352.8,54.0
352.86,33.0
352.93,29.0
352.99,44.0
353.05,24.0
353.11,21.0
353.18,36.0
353.24,44.0
353.3,46.0
353.37,57.0
353.43,47.0
353.49,50.0
353.56,43.0
353.62,63.0
353.68,64.0
353.74,40.0
353.81,51.0
353.87,40.0
353.93,72.0
354.0,71.0
354.06,82.0
354.12,74.0
354.19,93.0
354.25,114.0
354.31,97.0
354.37,110.0
354.44,111.0
354.5,116.0
354.56,104.0
354.63,112.0
354.69,114.0
354.75,112.0
354.82,127.0
354.88,132.0
354.94,139.0
355.0,154.0
355.07,157.0
355.13,154.0
355.19,163.0
355.26,153.0
355.32,178.0
355.38,194.0
355.45,184.0
355.51,170.0
355.57,174.0
355.63,182.0
355.7,189.0
355.76,198.0
355.82,196.0
355.89,195.0
355.95,195.0
356.01,221.0
356.08,229.0
356.14,212.0
356.2,229.0
356.26,226.0
356.33,220.0
356.39,228.0
356.45,222.0
356.52,227.0
356.58,234.0
356.64,236.0
356.71,236.0
356.77,259.0
356.83,246.0
356.89,245.0
356.96,258.0
357.02,274.0
357.08,280.0
357.15,246.0
357.21,284.0
357.27,280.0
357.34,289.0
357.4,273.0
357.46,284.0
357.52,294.0
357.59,281.0
357.65,269.0
357.71,280.0
357.78,272.0
357.84,278.0
357.9,271.0
357.97,264.0
358.03,280.0
358.09,289.0
358.15,287.0
358.22,274.0
358.28,286.0
358.34,271.0
358.41,264.0
358.47,283.0
358.53,272.0
358.6,273.0
358.66,292.0
358.72,288.0
358.78,288.0
358.85,283.0
358.91,286.0
358.97,287.0
359.04,310.0
359.1,289.0
359.16,267.0
359.23,299.0
359.29,274.0
359.35,258.0
359.41,257.0
359.48,279.0
359.54,283.0
359.6,275.0
359.67,286.0
359.73,286.0
359.79,283.0
359.86,287.0
359.92,273.0
359.98,269.0
360.04,249.0
360.11,256.0
360.17,261.0
360.23,258.0
360.3,281.0
360.36,284.0
360.42,281.0
360.49,272.0
360.55,291.0
360.61,291.0
360.67,295.0
360.74,289.0
360.8,282.0
360.86,288.0
360.93,295.0
360.99,295.0
361.05,275.0
361.12,252.0
361.18,239.0
361.24,257.0
361.3,252.0
361.37,258.0
361.43,241.0
361.49,238.0
361.56,247.0
361.62,253.0
361.68,254.0
361.75,235.0
361.81,233.0
361.87,227.0
361.93,237.0
362.0,244.0
362.06,228.0
362.12,217.0
362.19,226.0
362.25,219.0
362.31,204.0
362.38,215.0
362.44,231.0
362.5,221.0
362.56,220.0
362.63,203.0
362.69,190.0
362.75,211.0
362.82,224.0
362.88,226.0
362.94,228.0
363.01,220.0
363.07,226.0
363.13,206.0
363.19,206.0
363.26,202.0
363.32,216.0
363.38,211.0
363.45,195.0
363.51,216.0
363.57,237.0
363.64,266.0
363.7,245.0
363.76,225.0
363.82,217.0
363.89,233.0
363.95,218.0
364.01,220.0
364.08,217.0
364.14,218.0
364.2,230.0
364.27,206.0
364.33,209.0
364.39,228.0
364.45,211.0
364.52,215.0
364.58,230.0
364.64,223.0
364.71,228.0
364.77,233.0
364.83,241.0
364.9,245.0
364.96,244.0
365.02,233.0
365.08,217.0
365.15,227.0
365.21,219.0
365.27,219.0
365.34,212.0
365.4,190.0
365.46,207.0
365.53,212.0
365.59,179.0
365.65,192.0
365.71,190.0
365.78,168.0
365.84,169.0
365.9,172.0
365.97,161.0
366.03,159.0
366.09,164.0
366.16,159.0
366.22,152.0
366.28,160.0
366.34,165.0
366.41,154.0
366.47,132.0
366.53,162.0
366.6,155.0
366.66,156.0
366.72,169.0
366.79,174.0
366.85,163.0
366.91,176.0
366.97,146.0
367.04,165.0
367.1,162.0
367.16,147.0
367.23,151.0
367.29,168.0
367.35,157.0
367.42,139.0
367.48,132.0
367.54,129.0
367.6,146.0
367.67,135.0
367.73,146.0
367.79,137.0
367.86,144.0
367.92,134.0
367.98,158.0
368.05,151.0
368.11,121.0
368.17,138.0
368.23,137.0
368.3,146.0
368.36,125.0
368.42,119.0
368.49,110.0
368.55,120.0
368.61,109.0
368.68,106.0
368.74,112.0
368.8,107.0
368.86,111.0
368.93,120.0
368.99,104.0
369.05,96.0
369.12,81.0
369.18,79.0
369.24,77.0
369.31,95.0
369.37,83.0
369.43,83.0
369.49,83.0
369.56,76.0
369.62,88.0
369.68,58.0
369.75,37.0
369.81,52.0
369.87,43.0
369.94,65.0
370.0,50.0
370.06,33.0
370.12,41.0
370.19,39.0
370.25,53.0
370.31,42.0
370.38,50.0
370.44,36.0
370.5,56.0
370.57,48.0
370.63,21.0
370.69,58.0
370.75,35.0
370.82,40.0
370.88,39.0
370.94,45.0
371.01,61.0
371.07,45.0
371.13,45.0
371.2,33.0
371.26,77.0
371.32,62.0
371.38,40.0
371.45,62.0
371.51,74.0
371.57,59.0
371.64,43.0
371.7,55.0
371.76,53.0
371.83,77.0
371.89,69.0
371.95,79.0
372.01,86.0
372.08,83.0
372.14,102.0
372.2,98.0
372.27,90.0
372.33,111.0
372.39,104.0
372.46,99.0
372.52,113.0
372.58,94.0
372.64,102.0
372.71,113.0
372.77,96.0
372.83,97.0
372.9,107.0
372.96,109.0
373.02,116.0
373.09,120.0
373.15,106.0
373.21,103.0
373.27,129.0
373.34,102.0
373.4,118.0
373.46,127.0
373.53,98.0
373.59,113.0
373.65,104.0
373.72,101.0
373.78,120.0
373.84,98.0
373.9,121.0
373.97,131.0
374.03,136.0
374.09,153.0
374.16,127.0
374.22,118.0
374.28,118.0
374.35,109.0
374.41,108.0
374.47,115.0
374.53,112.0
374.6,108.0
374.66,116.0
374.72,103.0
374.79,107.0
374.85,90.0
374.91,102.0
374.98,98.0
375.04,103.0
375.1,83.0
375.16,109.0
375.23,113.0
375.29,96.0
375.35,96.0
375.42,81.0
375.48,81.0
375.54,79.0
375.61,91.0
375.67,65.0
375.73,55.0
375.79,71.0
375.86,73.0
375.92,75.0
375.98,68.0
376.05,58.0
376.11,54.0
376.17,69.0
376.24,68.0
376.3,85.0
376.36,92.0
376.42,102.0
376.49,69.0
376.55,51.0
376.61,58.0
376.68,69.0
376.74,82.0
376.8,89.0
376.87,82.0
376.93,81.0
376.99,66.0
377.05,41.0
377.12,63.0
377.18,65.0
377.24,55.0
377.31,52.0
377.37,14.0
377.43,46.0
377.5,47.0
377.56,32.0
377.62,50.0
377.68,37.0
377.75,49.0
377.81,60.0
377.87,39.0
377.94,35.0
378.0,39.0
378.06,24.0
378.13,16.0
378.19,10.0
378.25,19.0
378.31,31.0
378.38,25.0
378.44,23.0
378.5,28.0
378.57,18.0
378.63,40.0
378.69,32.0
378.76,37.0
378.82,36.0
378.88,40.0
378.94,48.0
379.01,54.0
379.07,42.0
379.13,55.0
379.2,50.0
379.26,51.0
379.32,50.0
379.39,28.0
379.45,40.0
379.51,49.0
379.57,44.0
379.64,39.0
379.7,39.0
379.76,47.0
379.83,33.0
379.89,67.0
379.95,58.0
380.02,54.0
380.08,43.0
380.14,51.0
380.2,46.0
380.27,58.0
380.33,60.0
380.39,51.0
380.46,58.0
380.52,52.0
380.58,46.0
380.65,66.0
380.71,77.0
380.77,49.0
380.83,62.0
380.9,60.0
380.96,65.0
381.02,71.0
381.09,74.0
381.15,84.0
381.21,72.0
381.28,47.0
381.34,68.0
381.4,80.0
381.46,75.0
381.53,90.0
381.59,96.0
381.65,95.0
381.72,85.0
381.78,88.0
381.84,75.0
381.91,92.0
381.97,92.0
382.03,93.0
382.09,76.0
382.16,92.0
382.22,96.0
382.28,95.0
382.35,92.0
382.41,75.0
382.47,99.0
382.54,104.0
382.6,121.0
382.66,116.0
382.72,100.0
382.79,126.0
382.85,103.0
382.91,122.0
382.98,117.0
383.04,110.0
383.1,117.0
383.17,131.0
383.23,128.0
383.29,129.0
383.35,145.0
383.42,124.0
383.48,130.0
383.54,131.0
383.61,130.0
383.67,120.0
383.73,124.0
383.8,135.0
383.86,148.0
383.92,123.0
383.98,107.0
384.05,105.0
384.11,105.0
384.17,121.0
384.24,125.0
384.3,137.0
384.36,110.0
384.43,130.0
384.49,129.0
384.55,129.0
384.61,142.0
384.68,130.0
384.74,131.0
384.8,120.0
384.87,132.0
384.93,144.0
384.99,151.0
385.06,143.0
385.12,168.0
385.18,181.0
385.24,179.0
385.31,172.0
385.37,169.0
385.43,181.0
385.5,173.0
385.56,177.0
385.62,181.0
385.69,180.0
385.75,171.0
385.81,161.0
385.87,173.0
385.94,175.0
386.0,170.0
386.06,174.0
386.13,165.0
386.19,170.0
386.25,160.0
386.32,159.0
386.38,160.0
386.44,143.0
386.5,142.0
386.57,136.0
386.63,145.0
386.69,140.0
386.76,132.0
386.82,152.0
386.88,138.0
386.95,156.0
387.01,161.0
387.07,146.0
387.13,136.0
387.2,137.0
387.26,149.0
387.32,153.0
387.39,130.0
387.45,114.0
387.51,148.0
387.58,152.0
387.64,138.0
387.7,144.0
387.76,146.0
387.83,153.0
387.89,186.0
387.95,171.0
388.02,179.0
388.08,166.0
388.14,190.0
388.21,207.0
388.27,197.0
388.33,195.0
388.39,173.0
388.46,197.0
388.52,205.0
388.58,204.0
388.65,187.0
388.71,192.0
388.77,194.0
388.84,187.0
388.9,197.0
388.96,195.0
389.02,222.0
389.09,210.0
389.15,201.0
389.21,213.0
389.28,210.0
389.34,231.0
389.4,214.0
389.47,211.0
389.53,217.0
389.59,217.0
389.65,221.0
389.72,223.0
389.78,208.0
389.84,208.0
389.91,198.0
389.97,212.0
390.03,232.0
390.1,223.0
390.16,241.0
390.22,230.0
390.28,241.0
390.35,277.0
390.41,257.0
390.47,246.0
390.54,270.0
390.6,262.0
390.66,236.0
390.73,239.0
390.79,280.0
390.85,274.0
390.91,250.0
390.98,271.0
391.04,277.0
391.1,273.0
391.17,272.0
391.23,253.0
391.29,254.0
391.36,253.0
391.42,260.0
391.48,250.0
391.54,253.0
391.61,263.0
391.67,249.0
391.73,263.0
391.8,242.0
391.86,233.0
391.92,230.0
391.99,234.0
392.05,215.0
392.11,212.0
392.17,223.0
392.24,217.0
392.3,208.0
392.36,201.0
392.43,226.0
392.49,215.0
392.55,209.0
392.62,217.0
392.68,189.0
392.74,178.0
392.8,194.0
392.87,175.0
392.93,178.0
392.99,176.0
393.06,168.0
393.12,159.0
393.18,175.0
393.25,181.0
393.31,172.0
393.37,168.0
393.43,136.0
393.5,156.0
393.56,124.0
393.62,139.0
393.69,144.0
393.75,150.0
393.81,130.0
393.88,126.0
393.94,129.0
394.0,110.0
394.06,109.0
394.13,102.0
394.19,95.0
394.25,81.0
394.32,103.0
394.38,101.0
394.44,101.0
394.51,91.0
394.57,90.0
394.63,79.0
394.69,82.0
394.76,91.0
394.82,87.0
394.88,94.0
394.95,90.0
395.01,81.0
395.07,85.0
395.14,88.0
395.2,88.0
395.26,71.0
395.32,68.0
395.39,82.0
395.45,91.0
395.51,81.0
395.58,66.0
395.64,65.0
395.7,46.0
395.77,59.0
395.83,66.0
395.89,66.0
395.95,63.0
396.02,58.0
396.08,58.0
396.14,58.0
396.21,55.0
396.27,51.0
396.33,79.0
396.4,68.0
396.46,58.0
396.52,70.0
396.58,57.0
396.65,60.0
396.71,80.0
396.77,80.0
396.84,64.0
396.9,54.0
396.96,40.0
397.03,36.0
397.09,63.0
397.15,52.0
397.21,70.0
397.28,42.0
397.34,59.0
397.4,52.0
397.47,49.0
397.53,54.0
397.59,49.0
397.66,51.0
397.72,45.0
397.78,43.0
397.84,57.0
397.91,51.0
397.97,73.0
398.03,71.0
398.1,50.0
398.16,65.0
398.22,78.0
398.29,58.0
398.35,67.0
398.41,64.0
398.47,62.0
398.54,74.0
398.6,57.0
398.66,70.0
398.73,54.0
398.79,76.0
398.85,73.0
398.92,102.0
398.98,94.0
399.04,98.0
399.1,90.0
399.17,93.0
399.23,106.0
399.29,94.0
399.36,94.0
399.42,77.0
399.48,88.0
399.55,91.0
399.61,84.0
399.67,76.0
399.73,64.0
399.8,87.0
399.86,109.0
399.92,113.0
399.99,86.0
400.05,80.0
400.11,63.0
400.18,76.0
400.24,78.0
400.3,64.0
400.36,94.0
400.43,113.0
400.49,102.0
400.55,95.0
400.62,97.0
400.68,102.0
400.74,106.0
400.81,104.0
400.87,116.0
400.93,120.0
400.99,128.0
401.06,135.0
401.12,116.0
401.18,117.0
401.25,137.0
401.31,127.0
401.37,138.0
401.44,135.0
401.5,139.0
401.56,138.0
401.62,129.0
401.69,134.0
401.75,137.0
401.81,135.0
401.88,118.0
401.94,126.0
402.0,135.0
402.07,127.0
402.13,118.0
402.19,134.0
402.25,116.0
402.32,109.0
402.38,128.0
402.44,125.0
402.51,124.0
402.57,120.0
402.63,139.0
402.7,118.0
402.76,121.0
402.82,128.0
402.88,127.0
402.95,124.0
403.01,129.0
403.07,125.0
403.14,124.0
403.2,129.0
403.26,123.0
403.33,131.0
403.39,140.0
403.45,146.0
403.51,142.0
403.58,137.0
403.64,146.0
403.7,145.0
403.77,148.0
403.83,124.0
403.89,137.0
403.96,137.0
404.02,141.0
404.08,157.0
404.14,146.0
404.21,147.0
404.27,132.0
404.33,158.0
404.4,143.0
404.46,144.0
404.52,151.0
404.59,166.0
404.65,164.0
404.71,154.0
404.77,162.0
404.84,178.0
404.9,168.0
404.96,192.0
405.03,200.0
405.09,175.0
405.15,187.0
405.22,187.0
405.28,189.0
405.34,182.0
405.4,200.0
405.47,211.0
405.53,215.0
405.59,198.0
405.66,193.0
405.72,192.0
405.78,195.0
405.85,220.0
405.91,211.0
405.97,221.0
406.03,217.0
406.1,208.0
406.16,202.0
406.22,209.0
406.29,221.0
406.35,218.0
406.41,199.0
406.48,201.0
406.54,198.0
406.6,193.0
406.66,200.0
406.73,218.0
406.79,206.0
406.85,201.0
406.92,217.0
406.98,223.0
407.04,218.0
407.11,209.0
407.17,221.0
407.23,226.0
407.29,241.0
407.36,228.0
407.42,219.0
407.48,221.0
407.55,211.0
407.61,210.0
407.67,198.0
407.74,198.0
407.8,227.0
407.86,218.0
407.92,194.0
407.99,217.0
408.05,236.0
408.11,231.0
408.18,225.0
408.24,231.0
408.3,212.0
408.37,219.0
408.43,205.0
408.49,227.0
408.55,226.0
408.62,213.0
408.68,208.0
408.74,202.0
408.81,213.0
408.87,195.0
408.93,198.0
409.0,197.0
409.06,197.0
409.12,187.0
409.18,174.0
409.25,169.0
409.31,201.0
409.37,192.0
409.44,180.0
409.5,161.0
409.56,160.0
409.63,194.0
409.69,174.0
409.75,172.0
409.81,173.0
409.88,171.0
409.94,179.0
410.0,196.0
410.07,184.0
410.13,201.0
410.19,209.0
410.26,199.0
410.32,179.0
410.38,177.0
410.44,174.0
410.51,182.0
410.57,168.0
410.63,152.0
410.7,177.0
410.76,139.0
410.82,127.0
410.89,130.0
410.95,131.0
411.01,128.0
411.07,112.0
411.14,111.0
411.2,118.0
411.26,110.0
411.33,95.0
411.39,79.0
411.45,78.0
411.52,75.0
411.58,93.0
411.64,91.0
411.7,85.0
411.77,87.0
411.83,71.0
411.89,87.0
411.96,65.0
412.02,80.0
412.08,94.0
412.15,69.0
412.21,65.0
412.27,62.0
412.33,64.0
412.4,71.0
412.46,56.0
412.52,43.0
412.59,51.0
412.65,36.0
412.71,32.0
412.78,39.0
412.84,65.0
412.9,69.0
412.96,29.0
413.03,35.0
413.09,39.0
413.15,51.0
413.22,49.0
413.28,52.0
413.34,47.0
413.41,49.0
413.47,50.0
413.53,57.0
413.59,60.0
413.66,57.0
413.72,69.0
413.78,57.0
413.85,94.0
413.91,76.0
413.97,87.0
414.04,98.0
414.1,71.0
414.16,95.0
414.22,89.0
414.29,99.0
414.35,96.0
414.41,82.0
414.48,96.0
414.54,98.0
414.6,94.0
414.67,76.0
414.73,60.0
414.79,71.0
414.85,93.0
414.92,94.0
414.98,78.0
415.04,72.0
415.11,94.0
415.17,89.0
415.23,93.0
415.3,79.0
415.36,96.0
415.42,89.0
415.48,84.0
415.55,81.0
415.61,110.0
415.67,95.0
415.74,91.0
415.8,84.0
415.86,87.0
415.93,84.0
415.99,95.0
416.05,83.0
416.11,80.0
416.18,98.0
416.24,100.0
416.3,102.0
416.37,105.0
416.43,110.0
416.49,107.0
416.56,117.0
416.62,124.0
416.68,137.0
416.74,143.0
416.81,132.0
416.87,133.0
416.93,124.0
417.0,125.0
417.06,134.0
417.12,139.0
417.19,142.0
417.25,137.0
417.31,120.0
417.37,119.0
417.44,124.0
417.5,116.0
417.56,104.0
417.63,123.0
417.69,136.0
417.75,126.0
417.82,132.0
417.88,107.0
417.94,105.0
418.0,107.0
418.07,114.0
418.13,120.0
418.19,127.0
418.26,120.0
418.32,116.0
418.38,122.0
418.45,115.0
418.51,120.0
418.57,107.0
418.63,123.0
418.7,123.0
418.76,132.0
418.82,121.0
418.89,118.0
418.95,109.0
419.01,102.0
419.08,120.0
419.14,131.0
419.2,119.0
419.26,105.0
419.33,116.0
419.39,151.0
419.45,128.0
419.52,145.0
419.58,140.0
419.64,120.0
419.71,128.0
419.77,109.0
419.83,137.0
419.89,125.0
419.96,130.0
420.02,147.0
420.08,135.0
420.15,117.0
420.21,133.0
420.27,130.0
420.34,109.0
420.4,128.0
420.46,125.0
420.52,113.0
420.59,98.0
420.65,114.0
420.71,123.0
420.78,127.0
420.84,144.0
420.9,126.0
420.97,126.0
421.03,117.0
421.09,120.0
421.15,132.0
421.22,131.0
421.28,143.0
421.34,150.0
421.41,146.0
421.47,137.0
421.53,145.0
421.6,155.0
421.66,153.0
421.72,123.0
421.78,158.0
421.85,175.0
421.91,168.0
421.97,176.0
422.04,149.0
422.1,160.0
422.16,157.0
422.23,161.0
422.29,170.0
422.35,163.0
422.41,176.0
422.48,190.0
422.54,192.0
422.6,173.0
422.67,179.0
422.73,195.0
422.79,196.0
422.86,186.0
422.92,190.0
422.98,184.0
423.04,192.0
423.11,212.0
423.17,206.0
423.23,209.0
423.3,196.0
423.36,213.0
423.42,212.0
423.49,208.0
423.55,206.0
423.61,212.0
423.67,211.0
423.74,209.0
423.8,217.0
423.86,201.0
423.93,208.0
423.99,215.0
424.05,214.0
424.12,205.0
424.18,214.0
424.24,198.0
424.3,199.0
424.37,208.0
424.43,209.0
424.49,231.0
424.56,219.0
424.62,221.0
424.68,215.0
424.75,208.0
424.81,207.0
424.87,193.0
424.93,190.0
425.0,197.0
425.06,197.0
425.12,184.0
425.19,178.0
425.25,201.0
425.31,198.0
425.38,212.0
425.44,198.0
425.5,198.0
425.56,198.0
425.63,195.0
425.69,219.0
425.75,223.0
425.82,201.0
425.88,212.0
425.94,220.0
426.01,208.0
426.07,226.0
426.13,214.0
426.19,222.0
426.26,226.0
426.32,237.0
426.38,241.0
426.45,227.0
426.51,215.0
426.57,230.0
426.64,215.0
426.7,215.0
426.76,203.0
426.82,192.0
426.89,202.0
426.95,203.0
427.01,187.0
427.08,173.0
427.14,190.0
427.2,180.0
427.27,181.0
427.33,201.0
427.39,198.0
427.45,193.0
427.52,179.0
427.58,150.0
427.64,143.0
427.71,156.0
427.77,138.0
427.83,162.0
427.9,151.0
427.96,150.0
428.02,130.0
428.08,132.0
428.15,148.0
428.21,126.0
428.27,141.0
428.34,140.0
428.4,121.0
428.46,116.0
428.53,113.0
428.59,122.0
428.65,131.0
428.71,100.0
428.78,123.0
428.84,114.0
428.9,104.0
428.97,109.0
429.03,113.0
429.09,105.0
429.16,98.0
429.22,109.0
429.28,91.0
429.34,76.0
429.41,93.0
429.47,65.0
429.53,69.0
429.6,81.0
429.66,77.0
429.72,87.0
429.79,90.0
429.85,79.0
429.91,88.0
429.97,79.0
430.04,72.0
430.1,82.0
430.16,73.0
430.23,83.0
430.29,76.0
430.35,80.0
430.42,110.0
430.48,76.0
430.54,65.0
430.6,71.0
430.67,91.0
430.73,103.0
430.79,78.0
430.86,92.0
430.92,94.0
430.98,95.0
431.05,80.0
431.11,90.0
431.17,70.0
431.23,88.0
431.3,90.0
431.36,74.0
431.42,65.0
431.49,79.0
431.55,78.0
431.61,67.0
431.68,72.0
431.74,82.0
431.8,101.0
431.86,71.0
431.93,68.0
431.99,49.0
432.05,52.0
432.12,58.0
432.18,46.0
432.24,41.0
432.31,38.0
432.37,29.0
432.43,38.0
432.49,48.0
432.56,52.0
432.62,54.0
432.68,60.0
432.75,47.0
432.81,58.0
432.87,55.0
432.94,53.0
433.0,43.0
433.06,57.0
433.12,63.0
433.19,70.0
433.25,69.0
433.31,64.0
433.38,63.0
433.44,43.0
433.5,58.0
433.57,65.0
433.63,65.0
433.69,54.0
433.75,55.0
433.82,64.0
433.88,63.0
433.94,63.0
434.01,75.0
434.07,88.0
434.13,77.0
434.2,69.0
434.26,64.0
434.32,77.0
434.38,66.0
434.45,50.0
434.51,58.0
434.57,42.0
434.64,28.0
434.7,42.0
434.76,40.0
434.83,33.0
434.89,26.0
434.95,28.0
435.01,32.0
435.08,19.0
435.14,25.0
435.2,8.0
435.27,28.0
435.33,15.0
435.39,20.0
435.46,19.0
435.52,11.0
435.58,26.0
435.64,11.0
435.71,34.0
435.77,21.0
435.83,37.0
435.9,28.0
435.96,17.0
436.02,18.0
436.09,-5.0
436.15,4.0
436.21,22.0
436.27,12.0
436.34,0.0
436.4,16.0
436.46,0.0
436.53,8.0
436.59,2.0
436.65,2.0
436.72,23.0
436.78,9.0
436.84,20.0
436.9,11.0
436.97,2.0
437.03,2.0
437.09,4.0
437.16,6.0
437.22,4.0
437.28,19.0
437.35,25.0
437.41,25.0
437.47,26.0
437.53,19.0
437.6,1.0
437.66,-3.0
437.72,9.0
437.79,3.0
437.85,2.0
437.91,-17.0
437.98,5.0
438.04,7.0
438.1,17.0
438.16,19.0
438.23,-16.0
438.29,-5.0
438.35,37.0
438.42,25.0
438.48,35.0
438.54,42.0
438.61,43.0
438.67,59.0
438.73,59.0
438.79,65.0
438.86,59.0
438.92,70.0
438.98,68.0
439.05,70.0
439.11,80.0
439.17,69.0
439.24,82.0
439.3,85.0
439.36,89.0
439.42,97.0
439.49,105.0
439.55,114.0
439.61,135.0
439.68,117.0
439.74,135.0
439.8,142.0
439.87,130.0
439.93,138.0
439.99,150.0
440.05,149.0
440.12,146.0
440.18,149.0
440.24,146.0
440.31,162.0
440.37,155.0
440.43,153.0
440.5,168.0
440.56,163.0
440.62,149.0
440.68,179.0
440.75,179.0
440.81,175.0
440.87,176.0
440.94,164.0
441.0,181.0
441.06,180.0
441.13,150.0
441.19,168.0
441.25,182.0
441.31,198.0
441.38,209.0
441.44,181.0
441.5,199.0
441.57,194.0
441.63,177.0
441.69,188.0
441.76,203.0
441.82,183.0
441.88,198.0
441.94,183.0
442.01,206.0
442.07,206.0
442.13,199.0
442.2,213.0
442.26,212.0
442.32,210.0
442.39,211.0
442.45,207.0
442.51,199.0
442.57,210.0
442.64,216.0
442.7,199.0
442.76,190.0
442.83,194.0
442.89,181.0
442.95,189.0
443.02,224.0
443.08,223.0
443.14,228.0
443.2,221.0
443.27,232.0
443.33,223.0
443.39,211.0
443.46,209.0
443.52,207.0
443.58,196.0
443.65,199.0
443.71,180.0
443.77,180.0
443.83,196.0
443.9,187.0
443.96,183.0
444.02,197.0
444.09,196.0
444.15,201.0
444.21,187.0
444.28,194.0
444.34,197.0
444.4,183.0
444.46,183.0
444.53,186.0
444.59,201.0
444.65,195.0
444.72,185.0
444.78,190.0
444.84,202.0
444.91,204.0
444.97,201.0
445.03,196.0
445.09,204.0
445.16,187.0
445.22,188.0
445.28,183.0
445.35,172.0
445.41,196.0
445.47,208.0
445.54,204.0
445.6,218.0
445.66,212.0
445.72,216.0
445.79,205.0
445.85,197.0
445.91,198.0
445.98,224.0
446.04,231.0
446.1,204.0
446.17,181.0
446.23,191.0
446.29,215.0
446.35,182.0
446.42,191.0
446.48,184.0
446.54,178.0
446.61,175.0
446.67,192.0
446.73,163.0
446.8,155.0
446.86,150.0
446.92,146.0
446.98,146.0
447.05,150.0
447.11,140.0
447.17,150.0
447.24,155.0
447.3,142.0
447.36,160.0
447.43,150.0
447.49,141.0
447.55,155.0
447.61,149.0
447.68,153.0
447.74,161.0
447.8,152.0
447.87,149.0
447.93,160.0
447.99,150.0
448.06,166.0
448.12,160.0
448.18,161.0
448.24,171.0
448.31,169.0
448.37,180.0
448.43,159.0
448.5,167.0
448.56,177.0
448.62,187.0
448.69,191.0
448.75,164.0
448.81,171.0
448.87,168.0
448.94,152.0
449.0,141.0
449.06,120.0
449.13,122.0
449.19,117.0
449.25,140.0
449.32,139.0
449.38,146.0
449.44,124.0
449.5,115.0
449.57,137.0
449.63,136.0
449.69,135.0
449.76,136.0
449.82,142.0
449.88,135.0
449.95,124.0
450.01,142.0
450.07,150.0
450.13,151.0
450.2,139.0
450.26,143.0
450.32,158.0
450.39,155.0
450.45,154.0
450.51,141.0
450.58,129.0
450.64,154.0
450.7,157.0
450.76,153.0
450.83,137.0
450.89,148.0
450.95,150.0
451.02,138.0
451.08,139.0
451.14,138.0
451.21,120.0
451.27,111.0
451.33,129.0
451.39,122.0
451.46,141.0
451.52,139.0
451.58,114.0
451.65,109.0
451.71,126.0
451.77,127.0
451.84,136.0
451.9,131.0
451.96,118.0
452.02,125.0
452.09,132.0
452.15,119.0
452.21,105.0
452.28,104.0
452.34,106.0
452.4,101.0
452.47,93.0
452.53,106.0
452.59,114.0
452.65,105.0
452.72,109.0
452.78,102.0
452.84,112.0
452.91,108.0
452.97,103.0
453.03,109.0
453.1,98.0
453.16,89.0
453.22,91.0
453.28,50.0
453.35,75.0
453.41,53.0
453.47,58.0
453.54,62.0
453.6,54.0
453.66,67.0
453.73,64.0
453.79,64.0
453.85,34.0
453.91,40.0
453.98,56.0
454.04,64.0
454.1,39.0
454.17,32.0
454.23,30.0
454.29,24.0
454.36,17.0
454.42,21.0
454.48,29.0
454.54,16.0
454.61,13.0
454.67,29.0
454.73,7.0
454.8,28.0
454.86,30.0
454.92,37.0
454.99,63.0
455.05,54.0
455.11,51.0
455.17,36.0
455.24,34.0
455.3,32.0
455.36,34.0
455.43,33.0
455.49,53.0
455.55,46.0
455.62,51.0
455.68,58.0
455.74,67.0
455.8,42.0
455.87,44.0
455.93,66.0
455.99,58.0
456.06,81.0
456.12,84.0
456.18,83.0
456.25,61.0
456.31,63.0
456.37,83.0
456.43,70.0
456.5,96.0
456.56,89.0
456.62,92.0
456.69,86.0
456.75,93.0
456.81,110.0
456.88,118.0
456.94,125.0
457.0,118.0
457.06,120.0
457.13,122.0
457.19,130.0
457.25,128.0
457.32,113.0
457.38,120.0
457.44,117.0
457.51,121.0
457.57,107.0
457.63,102.0
457.69,125.0
457.76,125.0
457.82,147.0
457.88,126.0
457.95,119.0
458.01,138.0
458.07,124.0
458.14,120.0
458.2,133.0
458.26,135.0
458.32,149.0
458.39,154.0
458.45,148.0
458.51,132.0
458.58,141.0
458.64,146.0
458.7,160.0
458.77,160.0
458.83,149.0
458.89,126.0
458.95,143.0
459.02,133.0
459.08,157.0
459.14,157.0
459.21,131.0
459.27,135.0
459.33,130.0
459.4,149.0
459.46,144.0
459.52,143.0
459.58,143.0
459.65,152.0
459.71,153.0
459.77,142.0
459.84,138.0
459.9,143.0
459.96,158.0
460.03,173.0
460.09,176.0
460.15,165.0
460.21,144.0
460.28,142.0
460.34,146.0
460.4,158.0
460.47,153.0
460.53,168.0
460.59,157.0
460.66,146.0
460.72,156.0
460.78,150.0
460.84,149.0
460.91,166.0
460.97,148.0
461.03,150.0
461.1,148.0
461.16,135.0
461.22,149.0
461.29,143.0
461.35,123.0
461.41,138.0
461.47,129.0
461.54,150.0
461.6,136.0
461.66,141.0
461.73,139.0
461.79,149.0
461.85,145.0
461.92,139.0
461.98,134.0
462.04,138.0
462.1,145.0
462.17,130.0
462.23,132.0
462.29,130.0
462.36,133.0
462.42,135.0
462.48,128.0
462.55,124.0
462.61,121.0
462.67,135.0
462.73,120.0
462.8,95.0
462.86,106.0
462.92,110.0
462.99,108.0
463.05,125.0
463.11,133.0
463.18,139.0
463.24,120.0
463.3,125.0
463.36,144.0
463.43,137.0
463.49,136.0
463.55,135.0
463.62,133.0
463.68,144.0
463.74,120.0
463.81,109.0
463.87,128.0
463.93,138.0
463.99,137.0
464.06,128.0
464.12,156.0
464.18,156.0
464.25,150.0
464.31,162.0
464.37,139.0
464.44,139.0
464.5,125.0
464.56,116.0
464.62,136.0
464.69,110.0
464.75,132.0
464.81,117.0
464.88,109.0
464.94,132.0
465.0,124.0
465.07,108.0
465.13,108.0
465.19,132.0
465.25,116.0
465.32,114.0
465.38,104.0
465.44,91.0
465.51,94.0
465.57,127.0
465.63,113.0
465.7,125.0
465.76,138.0
465.82,122.0
465.88,142.0
465.95,128.0
466.01,155.0
466.07,132.0
466.14,128.0
466.2,140.0
466.26,133.0
466.33,138.0
466.39,117.0
466.45,146.0
466.51,150.0
466.58,161.0
466.64,164.0
466.7,150.0
466.77,171.0
466.83,155.0
466.89,164.0
466.96,162.0
467.02,149.0
467.08,157.0
467.14,164.0
467.21,137.0
467.27,136.0
467.33,174.0
467.4,171.0
467.46,185.0
467.52,184.0
467.59,207.0
467.65,186.0
467.71,193.0
467.77,196.0
467.84,179.0
467.9,195.0
467.96,189.0
468.03,181.0
468.09,167.0
468.15,168.0
468.22,161.0
468.28,149.0
468.34,157.0
468.4,140.0
468.47,139.0
468.53,146.0
468.59,154.0
468.66,146.0
468.72,154.0
468.78,141.0
468.85,125.0
468.91,146.0
468.97,133.0
469.03,129.0
469.1,130.0
469.16,129.0
469.22,128.0
469.29,103.0
469.35,124.0
469.41,116.0
469.48,110.0
469.54,115.0
469.6,120.0
469.66,106.0
469.73,111.0
469.79,115.0
469.85,106.0
469.92,107.0
469.98,93.0
470.04,102.0
470.11,94.0
470.17,77.0
470.23,91.0
470.29,80.0
470.36,77.0
470.42,84.0
470.48,88.0
470.55,87.0
470.61,88.0
470.67,81.0
470.74,78.0
470.8,64.0
470.86,62.0
470.92,64.0
470.99,66.0
471.05,62.0
471.11,95.0
471.18,95.0
471.24,90.0
471.3,76.0
471.37,88.0
471.43,81.0
471.49,94.0
471.55,100.0
471.62,87.0
471.68,75.0
471.74,71.0
471.81,71.0
471.87,80.0
471.93,58.0
472.0,70.0
472.06,65.0
472.12,74.0
472.18,71.0
472.25,52.0
472.31,83.0
472.37,74.0
472.44,75.0
472.5,99.0
472.56,106.0
472.63,77.0
472.69,95.0
472.75,96.0
472.81,77.0
472.88,98.0
472.94,92.0
473.0,70.0
473.07,92.0
473.13,91.0
473.19,68.0
473.26,83.0
473.32,114.0
473.38,121.0
473.44,91.0
473.51,99.0
473.57,99.0
473.63,111.0
473.7,113.0
473.76,116.0
473.82,99.0
473.89,117.0
473.95,103.0
474.01,102.0
474.07,123.0
474.14,108.0
474.2,124.0
474.26,124.0
474.33,113.0
474.39,130.0
474.45,114.0
474.52,131.0
474.58,135.0
474.64,113.0
474.7,121.0
474.77,128.0
474.83,147.0
474.89,124.0
474.96,122.0
475.02,116.0
475.08,132.0
475.15,128.0
475.21,135.0
475.27,132.0
475.33,135.0
475.4,117.0
475.46,138.0
475.52,137.0
475.59,131.0
475.65,136.0
475.71,109.0
475.78,134.0
475.84,122.0
475.9,140.0
475.96,133.0
476.03,163.0
476.09,131.0
476.15,129.0
476.22,140.0
476.28,137.0
476.34,138.0
476.41,133.0
476.47,142.0
476.53,166.0
476.59,165.0
476.66,124.0
476.72,149.0
476.78,149.0
476.85,137.0
476.91,135.0
476.97,141.0
477.04,129.0
477.1,129.0
477.16,134.0
477.22,118.0
477.29,123.0
477.35,94.0
477.41,116.0
477.48,117.0
477.54,107.0
477.6,117.0
477.67,96.0
477.73,100.0
477.79,94.0
477.85,100.0
477.92,103.0
477.98,98.0
478.04,89.0
478.11,99.0
478.17,103.0
478.23,110.0
478.3,113.0
478.36,120.0
478.42,108.0
478.48,110.0
478.55,110.0
478.61,118.0
478.67,110.0
478.74,109.0
478.8,105.0
478.86,99.0
478.93,78.0
478.99,95.0
479.05,106.0
479.11,86.0
479.18,87.0
479.24,100.0
479.3,83.0
479.37,78.0
479.43,82.0
479.49,96.0
479.56,88.0
479.62,88.0
479.68,94.0
479.74,70.0
479.81,66.0
479.87,85.0
479.93,70.0
480.0,62.0
480.06,72.0
480.12,83.0
480.19,88.0
480.25,78.0
480.31,75.0
480.37,80.0
480.44,75.0
480.5,73.0
480.56,81.0
480.63,73.0
480.69,80.0
480.75,92.0
480.82,102.0
480.88,95.0
480.94,102.0
481.0,103.0
481.07,88.0
481.13,93.0
481.19,95.0
481.26,95.0
481.32,85.0
481.38,78.0
481.45,104.0
481.51,113.0
481.57,115.0
481.63,116.0
481.7,115.0
481.76,120.0
481.82,119.0
481.89,119.0
481.95,124.0
482.01,112.0
482.08,126.0
482.14,142.0
482.2,134.0
482.26,126.0
482.33,137.0
482.39,135.0
482.45,125.0
482.52,136.0
482.58,134.0
482.64,138.0
482.71,141.0
482.77,150.0
482.83,140.0
482.89,130.0
482.96,143.0
483.02,124.0
483.08,112.0
483.15,137.0
483.21,132.0
483.27,135.0
483.34,137.0
483.4,127.0
483.46,144.0
483.52,146.0
483.59,127.0
483.65,125.0
483.71,135.0
483.78,108.0
483.84,134.0
483.9,139.0
483.97,117.0
484.03,132.0
484.09,134.0
484.15,128.0
484.22,139.0
484.28,128.0
484.34,150.0
484.41,139.0
484.47,122.0
484.53,132.0
484.6,133.0
484.66,111.0
484.72,144.0
484.78,138.0
484.85,129.0
484.91,139.0
484.97,156.0
485.04,145.0
485.1,155.0
485.16,175.0
485.23,165.0
485.29,151.0
485.35,143.0
485.41,155.0
485.48,154.0
485.54,167.0
485.6,176.0
485.67,180.0
485.73,190.0
485.79,171.0
485.86,157.0
485.92,166.0
485.98,172.0
486.04,168.0
486.11,171.0
486.17,151.0
486.23,164.0
486.3,153.0
486.36,167.0
486.42,159.0
486.49,132.0
486.55,120.0
486.61,103.0
486.67,121.0
486.74,114.0
486.8,109.0
486.86,118.0
486.93,102.0
486.99,124.0
487.05,126.0
487.12,127.0
487.18,125.0
487.24,101.0
487.3,87.0
487.37,84.0
487.43,114.0
487.49,124.0
487.56,115.0
487.62,130.0
487.68,104.0
487.75,106.0
487.81,100.0
487.87,101.0
487.93,98.0
488.0,109.0
488.06,103.0
488.12,104.0
488.19,102.0
488.25,99.0
488.31,91.0
488.38,100.0
488.44,97.0
488.5,108.0
488.56,114.0
488.63,102.0
488.69,100.0
488.75,102.0
488.82,96.0
488.88,103.0
488.94,101.0
489.01,105.0
489.07,98.0
489.13,112.0
489.19,122.0
489.26,107.0
489.32,121.0
489.38,127.0
489.45,121.0
489.51,129.0
489.57,134.0
489.64,125.0
489.7,131.0
489.76,156.0
489.82,160.0
489.89,161.0
489.95,157.0
490.01,174.0
490.08,180.0
490.14,165.0
490.2,175.0
490.27,172.0
490.33,170.0
490.39,187.0
490.45,178.0
490.52,165.0
490.58,177.0
490.64,161.0
490.71,163.0
490.77,158.0
490.83,161.0
490.9,166.0
490.96,171.0
491.02,176.0
491.08,187.0
491.15,177.0
491.21,187.0
491.27,196.0
491.34,172.0
491.4,182.0
491.46,185.0
491.53,188.0
491.59,192.0
491.65,176.0
491.71,194.0
491.78,198.0
491.84,176.0
491.9,184.0
491.97,196.0
492.03,200.0
492.09,209.0
492.16,197.0
492.22,190.0
492.28,212.0
492.34,207.0
492.41,202.0
492.47,195.0
492.53,209.0
492.6,184.0
492.66,185.0
492.72,179.0
492.79,181.0
492.85,185.0
492.91,173.0
492.97,175.0
493.04,163.0
493.1,168.0
493.16,174.0
493.23,170.0
493.29,184.0
493.35,174.0
493.42,178.0
493.48,184.0
493.54,180.0
493.6,201.0
493.67,182.0
493.73,165.0
493.79,183.0
493.86,192.0
493.92,216.0
493.98,200.0
494.05,181.0
494.11,190.0
494.17,177.0
494.23,191.0
494.3,198.0
494.36,211.0
494.42,201.0
494.49,167.0
494.55,173.0
494.61,188.0
494.68,191.0
494.74,186.0
494.8,169.0
494.86,171.0
494.93,172.0
494.99,153.0
495.05,149.0
495.12,167.0
495.18,169.0
495.24,165.0
495.31,161.0
495.37,147.0
495.43,150.0
495.49,141.0
495.56,126.0
495.62,111.0
495.68,117.0
495.75,124.0
495.81,117.0
495.87,118.0
495.94,133.0
496.0,106.0
496.06,109.0
496.12,133.0
496.19,125.0
496.25,124.0
496.31,131.0
496.38,115.0
496.44,106.0
496.5,104.0
496.57,106.0
496.63,97.0
496.69,102.0
496.75,119.0
496.82,102.0
496.88,95.0
496.94,84.0
497.01,91.0
497.07,84.0
497.13,81.0
497.2,99.0
497.26,116.0
497.32,123.0
497.38,124.0
497.45,130.0
497.51,125.0
497.57,102.0
497.64,97.0
497.7,117.0
497.76,118.0
497.83,109.0
497.89,89.0
497.95,78.0
498.01,112.0
498.08,86.0
498.14,83.0
498.2,76.0
498.27,101.0
498.33,78.0
498.39,83.0
498.46,89.0
498.52,81.0
498.58,72.0
498.64,58.0
498.71,63.0
498.77,79.0
498.83,67.0
498.9,50.0
498.96,92.0
499.02,97.0
499.09,95.0
499.15,84.0
499.21,90.0
499.27,81.0
499.34,79.0
499.4,82.0
499.46,86.0
499.53,83.0
499.59,69.0
499.65,74.0
499.72,84.0
499.78,96.0
499.84,97.0
499.9,94.0
499.97,97.0
500.03,106.0
500.09,109.0
500.16,108.0
500.22,94.0
500.28,86.0
500.35,81.0
500.41,80.0
500.47,100.0
500.53,105.0
500.6,95.0
500.66,101.0
500.72,108.0
500.79,96.0
500.85,103.0
500.91,104.0
500.98,107.0
501.04,117.0
501.1,99.0
501.16,110.0
501.23,109.0
501.29,116.0
501.35,120.0
501.42,122.0
501.48,116.0
501.54,119.0
501.61,113.0
501.67,122.0
501.73,130.0
501.79,110.0
501.86,113.0
501.92,113.0
501.98,111.0
502.05,157.0
502.11,134.0
502.17,126.0
502.24,127.0
502.3,111.0
502.36,125.0
502.42,134.0
502.49,136.0
502.55,139.0
502.61,129.0
502.68,149.0
502.74,145.0
502.8,128.0
502.87,140.0
502.93,129.0
502.99,111.0
503.05,131.0
503.12,142.0
503.18,136.0
503.24,153.0
503.31,138.0
503.37,127.0
503.43,124.0
503.5,94.0
503.56,95.0
503.62,97.0
503.68,106.0
503.75,113.0
503.81,105.0
503.87,99.0
503.94,89.0
504.0,99.0
504.06,107.0
504.13,102.0
504.19,105.0
504.25,99.0
504.31,102.0
504.38,97.0
504.44,108.0
504.5,103.0
504.57,109.0
504.63,109.0
504.69,85.0
504.76,125.0
504.82,119.0
504.88,85.0
504.94,93.0
505.01,114.0
505.07,128.0
505.13,120.0
505.2,124.0
505.26,123.0
505.32,121.0
505.39,136.0
505.45,167.0
505.51,145.0
505.57,157.0
505.64,161.0
505.7,127.0
505.76,157.0
505.83,150.0
505.89,158.0
505.95,143.0
506.02,152.0
506.08,176.0
506.14,138.0
506.2,151.0
506.27,154.0
506.33,154.0
506.39,137.0
506.46,157.0
506.52,161.0
506.58,149.0
506.65,144.0
506.71,148.0
506.77,152.0
506.83,166.0
506.9,175.0
506.96,155.0
507.02,162.0
507.09,159.0
507.15,172.0
507.21,191.0
507.28,180.0
507.34,199.0
507.4,195.0
507.46,201.0
507.53,211.0
507.59,221.0
507.65,226.0
507.72,250.0
507.78,216.0
507.84,227.0
507.91,237.0
507.97,235.0
508.03,245.0
508.09,235.0
508.16,227.0
508.22,223.0
508.28,234.0
508.35,234.0
508.41,246.0
508.47,243.0
508.54,222.0
508.6,239.0
508.66,259.0
508.72,270.0
508.79,287.0
508.85,282.0
508.91,276.0
508.98,281.0
509.04,271.0
509.1,273.0
509.17,276.0
509.23,273.0
509.29,278.0
509.35,270.0
509.42,262.0
509.48,271.0
509.54,277.0
509.61,257.0
509.67,278.0
509.73,270.0
509.8,279.0
509.86,256.0
509.92,263.0
509.98,257.0
510.05,235.0
510.11,264.0
510.17,262.0
510.24,248.0
510.3,243.0
510.36,244.0
510.43,224.0
510.49,223.0
510.55,223.0
510.61,223.0
510.68,238.0
510.74,258.0
510.8,268.0
510.87,230.0
510.93,234.0
510.99,256.0
511.06,254.0
511.12,231.0
511.18,235.0
511.24,260.0
511.31,237.0
511.37,257.0
511.43,257.0
511.5,255.0
511.56,264.0
511.62,251.0
511.69,256.0
511.75,223.0
511.81,223.0
511.87,235.0
511.94,214.0
512.0,220.0
512.06,226.0
512.13,230.0
512.19,216.0
512.25,228.0
512.32,216.0
512.38,199.0
512.44,220.0
512.5,223.0
512.57,227.0
512.63,223.0
512.69,243.0
512.76,219.0
512.82,226.0
512.88,205.0
512.95,223.0
513.01,234.0
513.07,212.0
513.13,194.0
513.2,210.0
513.26,201.0
513.32,212.0
513.39,186.0
513.45,171.0
513.51,183.0
513.58,174.0
513.64,178.0
513.7,182.0
513.76,179.0
513.83,146.0
513.89,171.0
513.95,167.0
514.02,148.0
514.08,172.0
514.14,150.0
514.21,160.0
514.27,166.0
514.33,141.0
514.39,139.0
514.46,137.0
514.52,143.0
514.58,139.0
514.65,164.0
514.71,144.0
514.77,135.0
514.84,132.0
514.9,116.0
514.96,119.0
515.02,126.0
515.09,97.0
515.15,108.0
515.21,96.0
515.28,82.0
515.34,97.0
515.4,71.0
515.47,75.0
515.53,69.0
515.59,60.0
515.65,58.0
515.72,67.0
515.78,59.0
515.84,68.0
515.91,58.0
515.97,39.0
516.03,67.0
516.1,64.0
516.16,67.0
516.22,60.0
516.28,62.0
516.35,80.0
516.41,75.0
516.47,59.0
516.54,70.0
516.6,73.0
516.66,70.0
516.73,94.0
516.79,70.0
516.85,67.0
516.91,77.0
516.98,65.0
517.04,78.0
517.1,78.0
517.17,69.0
517.23,73.0
517.29,78.0
517.36,68.0
517.42,50.0
517.48,52.0
517.54,47.0
517.61,56.0
517.67,41.0
517.73,57.0
517.8,65.0
517.86,54.0
517.92,51.0
517.99,49.0
518.05,44.0
518.11,43.0
518.17,48.0
518.24,54.0
518.3,69.0
518.36,64.0
518.43,58.0
518.49,64.0
518.55,86.0
518.62,96.0
518.68,81.0
518.74,69.0
518.8,72.0
518.87,81.0
518.93,79.0
518.99,89.0
519.06,74.0
519.12,84.0
519.18,80.0
519.25,109.0
519.31,99.0
519.37,84.0
519.43,87.0
519.5,66.0
519.56,56.0
519.62,82.0
519.69,88.0
519.75,81.0
519.81,79.0
519.88,78.0
519.94,91.0
520.0,85.0
520.06,85.0
520.13,75.0
520.19,73.0
520.25,76.0
520.32,52.0
520.38,55.0
520.44,72.0
520.51,70.0
520.57,69.0
520.63,60.0
520.69,64.0
520.76,82.0
520.82,61.0
520.88,66.0
520.95,53.0
521.01,55.0
521.07,57.0
521.14,41.0
521.2,46.0
521.26,47.0
521.32,52.0
521.39,60.0
521.45,54.0
521.51,73.0
521.58,81.0
521.64,44.0
521.7,63.0
521.77,58.0
521.83,53.0
521.89,54.0
521.95,69.0
522.02,81.0
522.08,78.0
522.14,82.0
522.21,87.0
522.27,74.0
522.33,42.0
522.4,52.0
522.46,42.0
522.52,57.0
522.58,70.0
522.65,80.0
522.71,74.0
522.77,80.0
522.84,91.0
522.9,94.0
522.96,90.0
523.03,98.0
523.09,110.0
523.15,107.0
523.21,100.0
523.28,105.0
523.34,111.0
523.4,102.0
523.47,109.0
523.53,116.0
523.59,131.0
523.66,119.0
523.72,117.0
523.78,124.0
523.84,132.0
523.91,130.0
523.97,114.0
524.03,130.0
524.1,138.0
524.16,149.0
524.22,145.0
524.29,146.0
524.35,139.0
524.41,135.0
524.47,145.0
524.54,144.0
524.6,163.0
524.66,167.0
524.73,192.0
524.79,186.0
524.85,186.0
524.92,183.0
524.98,192.0
525.04,186.0
525.1,190.0
525.17,176.0
525.23,185.0
525.29,192.0
525.36,183.0
525.42,183.0
525.48,179.0
525.55,177.0
525.61,174.0
525.67,183.0
525.73,180.0
525.8,194.0
525.86,177.0
525.92,186.0
525.99,187.0
526.05,191.0
526.11,207.0
526.18,209.0
526.24,203.0
526.3,199.0
526.36,204.0
526.43,208.0
526.49,219.0
526.55,227.0
526.62,210.0
526.68,230.0
526.74,240.0
526.81,240.0
526.87,227.0
526.93,244.0
526.99,253.0
527.06,224.0
527.12,245.0
527.18,231.0
527.25,223.0
527.31,233.0
527.37,231.0
527.44,241.0
527.5,244.0
527.56,238.0
527.62,241.0
527.69,227.0
527.75,229.0
527.81,222.0
527.88,212.0
527.94,208.0
528.0,222.0
528.07,229.0
528.13,231.0
528.19,246.0
528.25,245.0
528.32,241.0
528.38,228.0
528.44,220.0
528.51,231.0
528.57,220.0
528.63,219.0
528.7,209.0
528.76,234.0
528.82,214.0
528.88,201.0
528.95,201.0
529.01,216.0
529.07,224.0
529.14,241.0
529.2,231.0
529.26,207.0
529.33,199.0
529.39,227.0
529.45,214.0
529.51,213.0
529.58,223.0
529.64,216.0
529.7,223.0
529.77,207.0
529.83,223.0
529.89,219.0
529.96,227.0
530.02,237.0
530.08,212.0
530.14,203.0
530.21,205.0
530.27,225.0
530.33,212.0
530.4,214.0
530.46,198.0
530.52,190.0
530.59,195.0
530.65,178.0
530.71,174.0
530.77,179.0
530.84,194.0
530.9,182.0
530.96,163.0
531.03,162.0
531.09,179.0
531.15,194.0
531.22,187.0
531.28,193.0
531.34,191.0
531.4,175.0
531.47,169.0
531.53,161.0
531.59,172.0
531.66,169.0
531.72,158.0
531.78,158.0
531.85,157.0
531.91,161.0
531.97,157.0
532.03,141.0
532.1,150.0
532.16,149.0
532.22,143.0
532.29,150.0
532.35,128.0
532.41,140.0
532.48,145.0
532.54,135.0
532.6,132.0
532.66,131.0
532.73,139.0
532.79,124.0
532.85,132.0
532.92,119.0
532.98,132.0
533.04,146.0
533.11,133.0
533.17,117.0
533.23,109.0
533.29,101.0
533.36,108.0
533.42,108.0
533.48,132.0
533.55,98.0
533.61,96.0
533.67,101.0
533.74,97.0
533.8,86.0
533.86,102.0
533.92,103.0
533.99,77.0
534.05,113.0
534.11,103.0
534.18,93.0
534.24,100.0
534.3,109.0
534.37,97.0
534.43,103.0
534.49,103.0
534.55,108.0
534.62,113.0
534.68,139.0
534.74,119.0
534.81,109.0
534.87,108.0
534.93,112.0
535.0,103.0
535.06,98.0
535.12,107.0
535.18,103.0
535.25,110.0
535.31,95.0
535.37,110.0
535.44,102.0
535.5,82.0
535.56,81.0
535.63,84.0
535.69,75.0
535.75,77.0
535.81,59.0
535.88,43.0
535.94,48.0
536.0,40.0
536.07,58.0
536.13,56.0
536.19,68.0
536.26,52.0
536.32,42.0
536.38,51.0
536.44,53.0
536.51,57.0
536.57,39.0
536.63,34.0
536.7,16.0
536.76,21.0
536.82,13.0
536.89,15.0
536.95,7.0
537.01,12.0
537.07,0.0
537.14,3.0
537.2,10.0
537.26,3.0
537.33,-13.0
537.39,-10.0
537.45,-15.0
537.52,-23.0
537.58,-19.0
537.64,-23.0
537.7,-36.0
537.77,-27.0
537.83,-35.0
537.89,-32.0
537.96,-19.0
538.02,-14.0
538.08,4.0
538.15,-8.0
538.21,5.0
538.27,-24.0
538.33,-34.0
538.4,-3.0
538.46,2.0
538.52,-4.0
538.59,3.0
538.65,0.0
538.71,-7.0
538.78,7.0
538.84,-17.0
538.9,-17.0
538.96,-27.0
539.03,13.0
539.09,-3.0
539.15,-16.0
539.22,-2.0
539.28,-2.0
539.34,14.0
539.41,16.0
539.47,20.0
539.53,12.0
539.59,15.0
539.66,34.0
539.72,21.0
539.78,31.0
539.85,41.0
539.91,34.0
539.97,27.0
540.04,22.0
540.1,27.0
540.16,24.0
540.22,6.0
540.29,5.0
540.35,8.0
540.41,8.0
540.48,18.0
540.54,4.0
540.6,2.0
540.67,18.0
540.73,16.0
540.79,21.0
540.85,41.0
540.92,37.0
540.98,41.0
541.04,41.0
541.11,43.0
541.17,29.0
541.23,27.0
541.3,42.0
541.36,31.0
541.42,38.0
541.48,72.0
541.55,62.0
541.61,40.0
541.67,45.0
541.74,46.0
541.8,23.0
541.86,42.0
541.93,49.0
541.99,41.0
542.05,70.0
542.11,88.0
542.18,84.0
542.24,71.0
542.3,71.0
542.37,78.0
542.43,79.0
542.49,66.0
542.56,75.0
542.62,74.0
542.68,79.0
542.74,94.0
542.81,95.0
542.87,95.0
542.93,99.0
543.0,93.0
543.06,119.0
543.12,97.0
543.19,86.0
543.25,111.0
543.31,111.0
543.37,93.0
543.44,82.0
543.5,95.0
543.56,100.0
543.63,111.0
543.69,121.0
543.75,125.0
543.82,125.0
543.88,117.0
543.94,124.0
544.0,125.0
544.07,140.0
544.13,140.0
544.19,127.0
544.26,131.0
544.32,139.0
544.38,126.0
544.45,126.0
544.51,104.0
544.57,122.0
544.63,138.0
544.7,144.0
544.76,127.0
544.82,160.0
544.89,164.0
544.95,154.0
545.01,166.0
545.08,170.0
545.14,177.0
545.2,184.0
545.26,207.0
545.33,176.0
545.39,178.0
545.45,192.0
545.52,161.0
545.58,154.0
545.64,147.0
545.71,152.0
545.77,148.0
545.83,148.0
545.89,150.0
545.96,160.0
546.02,166.0
546.08,170.0
546.15,151.0
546.21,155.0
546.27,154.0
546.34,143.0
546.4,155.0
546.46,142.0
546.52,141.0
546.59,158.0
546.65,162.0
546.71,147.0
546.78,139.0
546.84,151.0
546.9,172.0
546.97,162.0
547.03,146.0
547.09,147.0
547.15,171.0
547.22,169.0
547.28,163.0
547.34,167.0
547.41,177.0
547.47,155.0
547.53,175.0
547.6,177.0
547.66,174.0
547.72,170.0
547.78,165.0
547.85,170.0
547.91,172.0
547.97,188.0
548.04,176.0
548.1,175.0
548.16,186.0
548.23,205.0
548.29,194.0
548.35,199.0
548.41,199.0
548.48,187.0
548.54,190.0
548.6,208.0
548.67,208.0
548.73,201.0
548.79,197.0
548.86,200.0
548.92,198.0
548.98,214.0
549.04,186.0
549.11,194.0
549.17,200.0
549.23,216.0
549.3,237.0
549.36,238.0
549.42,251.0
549.49,226.0
549.55,246.0
549.61,273.0
549.67,269.0
549.74,258.0
549.8,261.0
549.86,271.0
549.93,261.0
549.99,265.0
550.05,270.0
550.12,262.0
550.18,273.0
550.24,271.0
550.3,250.0
550.37,231.0
550.43,232.0
550.49,236.0
550.56,240.0
550.62,222.0
550.68,213.0
550.75,238.0
550.81,232.0
550.87,237.0
550.93,236.0
551.0,249.0
551.06,229.0
551.12,248.0
551.19,227.0
551.25,213.0
551.31,228.0
551.38,228.0
551.44,226.0
551.5,223.0
551.56,204.0
551.63,211.0
551.69,221.0
551.75,241.0
551.82,234.0
551.88,214.0
551.94,222.0
552.01,238.0
552.07,238.0
552.13,247.0
552.19,231.0
552.26,220.0
552.32,233.0
552.38,219.0
552.45,211.0
552.51,232.0
552.57,219.0
552.64,209.0
552.7,207.0
552.76,224.0
552.82,210.0
552.89,207.0
552.95,229.0
553.01,234.0
553.08,194.0
553.14,186.0
553.2,190.0
553.27,181.0
553.33,179.0
553.39,167.0
553.45,161.0
553.52,169.0
553.58,178.0
553.64,163.0
553.71,172.0
553.77,179.0
553.83,178.0
553.9,179.0
553.96,174.0
554.02,192.0
554.08,179.0
554.15,167.0
554.21,183.0
554.27,179.0
554.34,178.0
554.4,185.0
554.46,161.0
554.53,150.0
554.59,166.0
554.65,144.0
554.71,140.0
554.78,146.0
554.84,125.0
554.9,119.0
554.97,126.0
555.03,124.0
555.09,111.0
555.16,130.0
555.22,126.0
555.28,136.0
555.34,114.0
555.41,123.0
555.47,137.0
555.53,109.0
555.6,103.0
555.66,95.0
555.72,112.0
555.79,126.0
555.85,109.0
555.91,126.0
555.97,122.0
556.04,139.0
556.1,140.0
556.16,142.0
556.23,159.0
556.29,151.0
556.35,159.0
556.42,144.0
556.48,144.0
556.54,156.0
556.6,157.0
556.67,172.0
556.73,168.0
556.79,170.0
556.86,166.0
556.92,170.0
556.98,168.0
557.05,161.0
557.11,156.0
557.17,167.0
557.23,160.0
557.3,184.0
557.36,173.0
557.42,159.0
557.49,160.0
557.55,165.0
557.61,152.0
557.68,143.0
557.74,152.0
557.8,155.0
557.86,144.0
557.93,143.0
557.99,156.0
558.05,179.0
558.12,148.0
558.18,151.0
558.24,148.0
558.31,165.0
558.37,159.0
558.43,140.0
558.49,153.0
558.56,165.0
558.62,186.0
558.68,163.0
558.75,164.0
558.81,182.0
558.87,170.0
558.94,151.0
559.0,159.0
559.06,166.0
559.12,153.0
559.19,159.0
559.25,155.0
559.31,174.0
559.38,154.0
559.44,150.0
559.5,146.0
559.57,136.0
559.63,140.0
559.69,153.0
559.75,159.0
559.82,159.0
559.88,166.0
559.94,138.0
560.01,129.0
560.07,128.0
560.13,126.0
560.2,128.0
560.26,132.0
560.32,133.0
560.38,144.0
560.45,132.0
560.51,131.0
560.57,152.0
560.64,156.0
560.7,129.0
560.76,121.0
560.83,132.0
560.89,136.0
560.95,135.0
561.01,142.0
561.08,151.0
561.14,145.0
561.2,134.0
561.27,130.0
561.33,146.0
561.39,142.0
561.46,115.0
561.52,114.0
561.58,122.0
561.64,96.0
561.71,117.0
561.77,108.0
561.83,127.0
561.9,98.0
561.96,102.0
562.02,115.0
562.09,106.0
562.15,110.0
562.21,93.0
562.27,103.0
562.34,104.0
562.4,86.0
562.46,85.0
562.53,81.0
562.59,87.0
562.65,100.0
562.72,112.0
562.78,98.0
562.84,101.0
562.9,89.0
562.97,96.0
563.03,81.0
563.09,82.0
563.16,87.0
563.22,96.0
563.28,100.0
563.35,102.0
563.41,89.0
563.47,76.0
563.53,81.0
563.6,83.0
563.66,107.0
563.72,89.0
563.79,86.0
563.85,78.0
563.91,90.0
563.98,103.0
564.04,106.0
564.1,115.0
564.16,119.0
564.23,115.0
564.29,119.0
564.35,118.0
564.42,109.0
564.48,111.0
564.54,100.0
564.61,127.0
564.67,122.0
564.73,100.0
564.79,98.0
564.86,112.0
564.92,109.0
564.98,119.0
565.05,105.0
565.11,98.0
565.17,108.0
565.24,118.0
565.3,114.0
565.36,95.0
565.42,73.0
565.49,97.0
565.55,90.0
565.61,96.0
565.68,98.0
565.74,88.0
565.8,107.0
565.87,90.0
565.93,74.0
565.99,93.0
566.05,79.0
566.12,65.0
566.18,85.0
566.24,79.0
566.31,79.0
566.37,77.0
566.43,68.0
566.5,64.0
566.56,71.0
566.62,74.0
566.68,59.0
566.75,87.0
566.81,86.0
566.87,85.0
566.94,89.0
567.0,83.0
567.06,86.0
567.13,82.0
567.19,75.0
567.25,87.0
567.31,74.0
567.38,80.0
567.44,91.0
567.5,105.0
567.57,89.0
567.63,88.0
567.69,103.0
567.76,108.0
567.82,106.0
567.88,86.0
567.94,85.0
568.01,91.0
568.07,81.0
568.13,82.0
568.2,89.0
568.26,104.0
568.32,100.0
568.39,98.0
568.45,106.0
568.51,93.0
568.57,98.0
568.64,105.0
568.7,96.0
568.76,98.0
568.83,86.0
568.89,82.0
568.95,83.0
569.02,90.0
569.08,103.0
569.14,95.0
569.2,111.0
569.27,112.0
569.33,108.0
569.39,107.0
569.46,110.0
569.52,114.0
569.58,100.0
569.65,98.0
569.71,94.0
569.77,115.0
569.83,117.0
569.9,102.0
569.96,97.0
570.02,89.0
570.09,94.0
570.15,65.0
570.21,81.0
570.28,94.0
570.34,89.0
570.4,101.0
570.46,114.0
570.53,107.0
570.59,92.0
570.65,85.0
570.72,102.0
570.78,100.0
570.84,123.0
570.91,95.0
570.97,104.0
571.03,100.0
571.09,111.0
571.16,129.0
571.22,116.0
571.28,114.0
571.35,111.0
571.41,133.0
571.47,136.0
571.54,123.0
571.6,119.0
571.66,116.0
571.72,116.0
571.79,144.0
571.85,133.0
571.91,140.0
571.98,172.0
572.04,144.0
572.1,143.0
572.17,163.0
572.23,162.0
572.29,153.0
572.35,144.0
572.42,159.0
572.48,145.0
572.54,159.0
572.61,162.0
572.67,167.0
572.73,163.0
572.8,176.0
572.86,182.0
572.92,199.0
572.98,167.0
573.05,159.0
573.11,186.0
573.17,189.0
573.24,180.0
573.3,176.0
573.36,186.0
573.43,177.0
573.49,197.0
573.55,184.0
573.61,184.0
573.68,199.0
573.74,189.0
573.8,222.0
573.87,216.0
573.93,211.0
573.99,224.0
574.06,228.0
574.12,227.0
574.18,226.0
574.24,238.0
574.31,231.0
574.37,229.0
574.43,243.0
574.5,238.0
574.56,223.0
574.62,233.0
574.69,238.0
574.75,248.0
574.81,244.0
574.87,227.0
574.94,227.0
575.0,244.0
575.06,249.0
575.13,250.0
575.19,243.0
575.25,251.0
575.32,247.0
575.38,250.0
575.44,244.0
575.5,243.0
575.57,247.0
575.63,242.0
575.69,252.0
575.76,250.0
575.82,257.0
575.88,239.0
575.95,235.0
576.01,261.0
576.07,265.0
576.13,265.0
576.2,279.0
576.26,260.0
576.32,263.0
576.39,274.0
576.45,271.0
576.51,264.0
576.58,268.0
576.64,280.0
576.7,270.0
576.76,250.0
576.83,255.0
576.89,254.0
576.95,257.0
577.02,261.0
577.08,260.0
577.14,266.0
577.21,259.0
577.27,269.0
577.33,258.0
577.39,266.0
577.46,266.0
577.52,268.0
577.58,277.0
577.65,274.0
577.71,256.0
577.77,264.0
577.84,281.0
577.9,287.0
577.96,280.0
578.02,259.0
578.09,279.0
578.15,272.0
578.21,287.0
578.28,268.0
578.34,249.0
578.4,243.0
578.47,233.0
578.53,263.0
578.59,255.0
578.65,248.0
578.72,260.0
578.78,254.0
578.84,236.0
578.91,234.0
578.97,251.0
579.03,255.0
579.1,236.0
579.16,249.0
579.22,247.0
579.28,269.0
579.35,249.0
579.41,250.0
579.47,247.0
579.54,237.0
579.6,238.0
579.66,231.0
579.73,235.0
579.79,241.0
579.85,236.0
579.91,258.0
579.98,258.0
580.04,248.0
580.1,240.0
580.17,231.0
580.23,228.0
580.29,229.0
580.36,245.0
580.42,235.0
580.48,239.0
580.54,243.0
580.61,233.0
580.67,245.0
580.73,249.0
580.8,225.0
580.86,224.0
580.92,211.0
580.99,197.0
581.05,208.0
581.11,199.0
581.17,186.0
581.24,202.0
581.3,208.0
581.36,201.0
581.43,211.0
581.49,196.0
581.55,181.0
581.62,180.0
581.68,206.0
581.74,199.0
581.8,178.0
581.87,180.0
581.93,189.0
581.99,196.0
582.06,193.0
582.12,191.0
582.18,185.0
582.25,159.0
582.31,149.0
582.37,165.0
582.43,172.0
582.5,199.0
582.56,179.0
582.62,166.0
582.69,169.0
582.75,177.0
582.81,171.0
582.88,152.0
582.94,168.0
583.0,167.0
583.06,144.0
583.13,162.0
583.19,134.0
583.25,134.0
583.32,125.0
583.38,109.0
583.44,111.0
583.51,88.0
583.57,97.0
583.63,102.0
583.69,113.0
583.76,115.0
583.82,126.0
583.88,120.0
583.95,96.0
584.01,78.0
584.07,53.0
584.14,79.0
584.2,78.0
584.26,85.0
584.32,78.0
584.39,76.0
584.45,100.0
584.51,77.0
584.58,71.0
584.64,84.0
584.7,76.0
584.77,75.0
584.83,76.0
584.89,84.0
584.95,75.0
585.02,57.0
585.08,74.0
585.14,68.0
585.21,55.0
585.27,71.0
585.33,60.0
585.4,81.0
585.46,70.0
585.52,73.0
585.58,86.0
585.65,77.0
585.71,79.0
585.77,67.0
585.84,92.0
585.9,43.0
585.96,57.0
586.03,73.0
586.09,65.0
586.15,49.0
586.21,40.0
586.28,49.0
586.34,51.0
586.4,43.0
586.47,54.0
586.53,64.0
586.59,53.0
586.66,53.0
586.72,60.0
586.78,63.0
586.84,51.0
586.91,44.0
586.97,69.0
587.03,39.0
587.1,30.0
587.16,17.0
587.22,16.0
587.29,7.0
587.35,28.0
587.41,-3.0
587.47,3.0
587.54,0.0
587.6,-20.0
587.66,-8.0
587.73,-14.0
587.79,-8.0
587.85,0.0
587.92,-18.0
587.98,-1.0
588.04,-9.0
588.1,14.0
588.17,-9.0
588.23,-15.0
588.29,-17.0
588.36,-33.0
588.42,-13.0
588.48,-33.0
588.55,-22.0
588.61,-10.0
588.67,-31.0
588.73,-20.0
588.8,-16.0
588.86,-28.0
588.92,-20.0
588.99,-19.0
589.05,-25.0
589.11,-3.0
589.18,7.0
589.24,-2.0
589.3,3.0
589.36,0.0
589.43,-9.0
589.49,-4.0
589.55,2.0
589.62,15.0
589.68,6.0
589.74,17.0
589.81,16.0
589.87,-3.0
589.93,9.0
589.99,30.0
590.06,36.0
590.12,14.0
590.18,20.0
590.25,16.0
590.31,4.0
590.37,8.0
590.44,30.0
590.5,29.0
590.56,45.0
590.62,42.0
590.69,25.0
590.75,29.0
590.81,34.0
590.88,64.0
590.94,77.0
591.0,60.0
591.07,77.0
591.13,67.0
591.19,88.0
591.25,90.0
591.32,87.0
591.38,88.0
591.44,69.0
591.51,77.0
591.57,74.0
591.63,68.0
591.7,61.0
591.76,53.0
591.82,70.0
591.88,89.0
591.95,70.0
592.01,83.0
592.07,103.0
592.14,98.0
592.2,104.0
592.26,101.0
592.33,115.0
592.39,120.0
592.45,114.0
592.51,111.0
592.58,116.0
592.64,146.0
592.7,145.0
592.77,121.0
592.83,118.0
592.89,118.0
592.96,135.0
593.02,146.0
593.08,130.0
593.14,132.0
593.21,130.0
593.27,136.0
593.33,160.0
593.4,137.0
593.46,141.0
593.52,133.0
593.59,153.0
593.65,172.0
593.71,169.0
593.77,166.0
593.84,166.0
593.9,181.0
593.96,181.0
594.03,174.0
594.09,172.0
594.15,171.0
594.22,198.0
594.28,187.0
594.34,196.0
594.4,202.0
594.47,193.0
594.53,196.0
594.59,187.0
594.66,183.0
594.72,188.0
594.78,191.0
594.85,179.0
594.91,188.0
594.97,189.0
595.03,194.0
595.1,215.0
595.16,201.0
595.22,207.0
595.29,217.0
595.35,209.0
595.41,212.0
595.48,204.0
595.54,198.0
595.6,197.0
595.66,192.0
595.73,198.0
595.79,194.0
595.85,206.0
595.92,218.0
595.98,211.0
596.04,221.0
596.11,219.0
596.17,209.0
596.23,215.0
596.29,214.0
596.36,220.0
596.42,242.0
596.48,240.0
596.55,217.0
596.61,225.0
596.67,241.0
596.74,218.0
596.8,217.0
596.86,215.0
596.92,232.0
596.99,223.0
597.05,223.0
597.11,235.0
597.18,218.0
597.24,221.0
597.3,224.0
597.37,223.0
597.43,228.0
597.49,222.0
597.55,240.0
597.62,223.0
597.68,232.0
597.74,238.0
597.81,232.0
597.87,227.0
597.93,255.0
598.0,243.0
598.06,233.0
598.12,249.0
598.18,221.0
598.25,220.0
598.31,224.0
598.37,223.0
598.44,220.0
598.5,225.0
598.56,232.0
598.63,216.0
598.69,228.0
598.75,226.0
598.81,214.0
598.88,231.0
598.94,227.0
599.0,203.0
599.07,187.0
599.13,173.0
599.19,195.0
599.26,185.0
599.32,188.0
599.38,184.0
599.44,187.0
599.51,195.0
599.57,210.0
599.63,209.0
599.7,189.0
599.76,191.0
599.82,170.0
599.89,162.0
599.95,171.0
600.01,165.0
600.07,157.0
600.14,163.0
600.2,190.0
600.26,172.0
600.33,170.0
600.39,188.0
600.45,178.0
600.52,168.0
600.58,150.0
600.64,166.0
600.7,173.0
600.77,165.0
600.83,169.0
600.89,176.0
600.96,166.0
601.02,153.0
601.08,169.0
601.15,165.0
601.21,165.0
601.27,167.0
601.33,149.0
601.4,160.0
601.46,158.0
601.52,141.0
601.59,151.0
601.65,136.0
601.71,137.0
601.78,143.0
601.84,138.0
601.9,139.0
601.96,138.0
602.03,147.0
602.09,151.0
602.15,137.0
602.22,138.0
602.28,143.0
602.34,144.0
602.41,119.0
602.47,135.0
602.53,136.0
602.59,124.0
602.66,108.0
602.72,107.0
602.78,121.0
602.85,129.0
602.91,103.0
602.97,110.0
603.04,120.0
603.1,132.0
603.16,128.0
603.22,107.0
603.29,119.0
603.35,123.0
603.41,91.0
603.48,104.0
603.54,90.0
603.6,110.0
603.67,99.0
603.73,107.0
603.79,90.0
603.85,75.0
603.92,93.0
603.98,88.0
604.04,88.0
604.11,92.0
604.17,91.0
604.23,80.0
604.3,66.0
604.36,55.0
604.42,34.0
604.48,52.0
604.55,47.0
604.61,48.0
604.67,53.0
604.74,38.0
604.8,35.0
604.86,22.0
604.93,16.0
604.99,26.0
605.05,23.0
605.11,22.0
605.18,30.0
605.24,26.0
605.3,46.0
605.37,23.0
605.43,6.0
605.49,29.0
605.56,34.0
605.62,21.0
605.68,25.0
605.74,12.0
605.81,34.0
605.87,33.0
605.93,34.0
606.0,51.0
606.06,62.0
606.12,55.0
606.19,49.0
606.25,55.0
606.31,64.0
606.37,75.0
606.44,76.0
606.5,84.0
606.56,45.0
606.63,37.0
606.69,47.0
606.75,48.0
606.82,64.0
606.88,59.0
606.94,59.0
607.0,77.0
607.07,85.0
607.13,64.0
607.19,77.0
607.26,64.0
607.32,79.0
607.38,75.0
607.45,68.0
607.51,74.0
607.57,82.0
607.63,72.0
607.7,76.0
607.76,84.0
607.82,86.0
607.89,89.0
607.95,92.0
608.01,104.0
608.08,108.0
608.14,131.0
608.2,121.0
608.26,127.0
608.33,111.0
608.39,115.0
608.45,113.0
608.52,108.0
608.58,118.0
608.64,141.0
608.71,118.0
608.77,124.0
608.83,118.0
608.89,116.0
608.96,112.0
609.02,111.0
609.08,135.0
609.15,129.0
609.21,96.0
609.27,97.0
609.34,119.0
609.4,116.0
609.46,108.0
609.52,110.0
609.59,96.0
609.65,91.0
609.71,90.0
609.78,102.0
609.84,94.0
609.9,98.0
609.97,78.0
610.03,95.0
610.09,107.0
610.15,99.0
610.22,113.0
610.28,114.0
610.34,123.0
610.41,123.0
610.47,118.0
610.53,136.0
610.6,147.0
610.66,144.0
610.72,133.0
610.78,143.0
610.85,135.0
610.91,144.0
610.97,146.0
611.04,150.0
611.1,147.0
611.16,138.0
611.23,145.0
611.29,123.0
611.35,98.0
611.41,115.0
611.48,129.0
611.54,135.0
611.6,122.0
611.67,122.0
611.73,112.0
611.79,92.0
611.86,109.0
611.92,110.0
611.98,105.0
612.04,129.0
612.11,136.0
612.17,138.0
612.23,122.0
612.3,115.0
612.36,147.0
612.42,145.0
612.49,151.0
612.55,140.0
612.61,141.0
612.67,154.0
612.74,158.0
612.8,161.0
612.86,153.0
612.93,163.0
612.99,140.0
613.05,150.0
613.12,149.0
613.18,151.0
613.24,160.0
613.3,157.0
613.37,160.0
613.43,160.0
613.49,157.0
613.56,173.0
613.62,163.0
613.68,166.0
613.75,173.0
613.81,194.0
613.87,173.0
613.93,191.0
614.0,180.0
614.06,182.0
614.12,199.0
614.19,173.0
614.25,160.0
614.31,178.0
614.38,165.0
614.44,155.0
614.5,159.0
614.56,190.0
614.63,169.0
614.69,176.0
614.75,173.0
614.82,177.0
614.88,188.0
614.94,177.0
615.01,202.0
615.07,201.0
615.13,187.0
615.19,190.0
615.26,191.0
615.32,186.0
615.38,185.0
615.45,191.0
615.51,199.0
615.57,191.0
615.64,207.0
615.7,220.0
615.76,213.0
615.82,210.0
615.89,210.0
615.95,216.0
616.01,190.0
616.08,196.0
616.14,208.0
616.2,197.0
616.27,198.0
616.33,208.0
616.39,216.0
616.45,212.0
616.52,210.0
616.58,195.0
616.64,186.0
616.71,188.0
616.77,198.0
616.83,209.0
616.9,214.0
616.96,209.0
617.02,228.0
617.08,216.0
617.15,218.0
617.21,239.0
617.27,227.0
617.34,226.0
617.4,214.0
617.46,217.0
617.53,231.0
617.59,236.0
617.65,242.0
617.71,229.0
617.78,238.0
617.84,223.0
617.9,220.0
617.97,231.0
618.03,213.0
618.09,217.0
618.16,217.0
618.22,210.0
618.28,209.0
618.34,228.0
618.41,232.0
618.47,213.0
618.53,215.0
618.6,193.0
618.66,198.0
618.72,221.0
618.79,209.0
618.85,201.0
618.91,207.0
618.97,236.0
619.04,230.0
619.1,220.0
619.16,227.0
619.23,225.0
619.29,218.0
619.35,218.0
619.42,203.0
619.48,190.0
619.54,197.0
619.6,203.0
619.67,212.0
619.73,218.0
619.79,245.0
619.86,207.0
619.92,203.0
619.98,202.0
620.05,180.0
620.11,189.0
620.17,178.0
620.23,171.0
620.3,171.0
620.36,176.0
620.42,160.0
620.49,166.0
620.55,163.0
620.61,140.0
620.68,153.0
620.74,162.0
620.8,165.0
620.86,144.0
620.93,156.0
620.99,152.0
621.05,148.0
621.12,138.0
621.18,150.0
621.24,139.0
621.31,158.0
621.37,138.0
621.43,136.0
621.49,133.0
621.56,144.0
621.62,145.0
621.68,151.0
621.75,157.0
621.81,157.0
621.87,137.0
621.94,116.0
622.0,150.0
622.06,147.0
622.12,138.0
622.19,157.0
622.25,152.0
622.31,144.0
622.38,135.0
622.44,131.0
622.5,125.0
622.57,132.0
622.63,129.0
622.69,124.0
622.75,138.0
622.82,133.0
622.88,133.0
622.94,137.0
623.01,156.0
623.07,141.0
623.13,138.0
623.2,141.0
623.26,140.0
623.32,146.0
623.38,146.0
623.45,144.0
623.51,155.0
623.57,138.0
623.64,139.0
623.7,144.0
623.76,136.0
623.83,146.0
623.89,147.0
623.95,145.0
624.01,127.0
624.08,143.0
624.14,140.0
624.2,134.0
624.27,136.0
624.33,146.0
624.39,157.0
624.46,135.0
624.52,140.0
624.58,139.0
624.64,133.0
624.71,126.0
624.77,136.0
624.83,129.0
624.9,116.0
624.96,124.0
625.02,125.0
625.09,135.0
625.15,136.0
625.21,150.0
625.27,153.0
625.34,152.0
625.4,151.0
625.46,162.0
625.53,171.0
625.59,160.0
625.65,168.0
625.72,162.0
625.78,165.0
625.84,181.0
625.9,163.0
625.97,140.0
626.03,144.0
626.09,170.0
626.16,178.0
626.22,169.0
626.28,153.0
626.35,174.0
626.41,168.0
626.47,167.0
626.53,184.0
626.6,166.0
626.66,173.0
626.72,170.0
626.79,163.0
626.85,190.0
626.91,196.0
626.98,204.0
627.04,202.0
627.1,210.0
627.16,224.0
627.23,192.0
627.29,196.0
627.35,187.0
627.42,191.0
627.48,188.0
627.54,178.0
627.61,177.0
627.67,165.0
627.73,164.0
627.79,173.0
627.86,163.0
627.92,180.0
627.98,177.0
628.05,148.0
628.11,158.0
628.17,155.0
628.24,155.0
628.3,171.0
628.36,175.0
628.42,168.0
628.49,161.0
628.55,159.0
628.61,149.0
628.68,156.0
628.74,181.0
628.8,172.0
628.87,151.0
628.93,164.0
628.99,181.0
629.05,153.0
629.12,133.0
629.18,136.0
629.24,150.0
629.31,143.0
629.37,149.0
629.43,156.0
629.5,165.0
629.56,166.0
629.62,173.0
629.68,173.0
629.75,159.0
629.81,155.0
629.87,159.0
629.94,155.0
630.0,141.0
630.06,147.0
630.13,158.0
630.19,169.0
630.25,162.0
630.31,177.0
630.38,170.0
630.44,174.0
630.5,159.0
630.57,151.0
630.63,164.0
630.69,147.0
630.76,155.0
630.82,153.0
630.88,157.0
630.94,162.0
631.01,141.0
631.07,163.0
631.13,157.0
631.2,165.0
631.26,155.0
631.32,156.0
631.39,165.0
631.45,162.0
631.51,187.0
631.57,169.0
631.64,176.0
631.7,164.0
631.76,151.0
631.83,144.0
631.89,169.0
631.95,173.0
632.02,170.0
632.08,173.0
632.14,173.0
632.2,174.0
632.27,162.0
632.33,161.0
632.39,165.0
632.46,168.0
632.52,156.0
632.58,153.0
632.65,146.0
632.71,157.0
632.77,162.0
632.83,156.0
632.9,158.0
632.96,167.0
633.02,127.0
633.09,148.0
633.15,156.0
633.21,147.0
633.28,147.0
633.34,143.0
633.4,148.0
633.46,149.0
633.53,131.0
633.59,130.0
633.65,138.0
633.72,154.0
633.78,163.0
633.84,177.0
633.91,144.0
633.97,163.0
634.03,162.0
634.09,157.0
634.16,165.0
634.22,155.0
634.28,165.0
634.35,163.0
634.41,185.0
634.47,163.0
634.54,142.0
634.6,151.0
634.66,161.0
634.72,160.0
634.79,177.0
634.85,184.0
634.91,172.0
634.98,182.0
635.04,179.0
635.1,177.0
635.17,155.0
635.23,164.0
635.29,155.0
635.35,173.0
635.42,176.0
635.48,172.0
635.54,160.0
635.61,139.0
635.67,135.0
635.73,145.0
635.8,163.0
635.86,154.0
635.92,144.0
635.98,133.0
636.05,161.0
636.11,143.0
636.17,141.0
636.24,153.0
636.3,142.0
636.36,151.0
636.43,130.0
636.49,131.0
636.55,114.0
636.61,119.0
636.68,130.0
636.74,119.0
636.8,132.0
636.87,134.0
636.93,126.0
636.99,111.0
637.06,133.0
637.12,114.0
637.18,122.0
637.24,129.0
637.31,116.0
637.37,115.0
637.43,98.0
637.5,96.0
637.56,88.0
637.62,114.0
637.69,103.0
637.75,107.0
637.81,81.0
637.87,99.0
637.94,78.0
638.0,73.0
638.06,89.0
638.13,59.0
638.19,66.0
638.25,47.0
638.32,49.0
638.38,69.0
638.44,46.0
638.5,49.0
638.57,50.0
638.63,39.0
638.69,38.0
638.76,57.0
638.82,65.0
638.88,63.0
638.95,53.0
639.01,55.0
639.07,52.0
639.13,57.0
639.2,57.0
639.26,55.0
639.32,56.0
639.39,42.0
639.45,34.0
639.51,43.0
639.58,59.0
639.64,34.0
639.7,45.0
639.76,43.0
639.83,25.0
639.89,14.0
639.95,6.0
640.02,19.0
640.08,36.0
640.14,57.0
640.21,41.0
640.27,52.0
640.33,54.0
640.39,50.0
640.46,47.0
640.52,42.0
640.58,49.0
640.65,47.0
640.71,63.0
640.77,64.0
640.84,68.0
640.9,86.0
640.96,102.0
641.02,97.0
641.09,115.0
641.15,109.0
641.21,115.0
641.28,118.0
641.34,113.0
641.4,115.0
641.47,91.0
641.53,96.0
641.59,109.0
641.65,111.0
641.72,95.0
641.78,95.0
641.84,83.0
641.91,110.0
641.97,109.0
642.03,121.0
642.1,147.0
642.16,130.0
642.22,114.0
642.28,107.0
642.35,126.0
642.41,134.0
642.47,130.0
642.54,132.0
642.6,136.0
642.66,136.0
642.73,145.0
642.79,128.0
642.85,111.0
642.91,114.0
642.98,102.0
643.04,116.0
643.1,111.0
643.17,129.0
643.23,122.0
643.29,114.0
643.36,115.0
643.42,107.0
643.48,111.0
643.54,85.0
643.61,92.0
643.67,124.0
643.73,125.0
643.8,111.0
643.86,126.0
643.92,130.0
643.99,117.0
644.05,136.0
644.11,140.0
644.17,123.0
644.24,109.0
644.3,119.0
644.36,126.0
644.43,118.0
644.49,100.0
644.55,117.0
644.62,113.0
644.68,115.0
644.74,132.0
644.8,122.0
644.87,130.0
644.93,141.0
644.99,133.0
645.06,138.0
645.12,140.0
645.18,156.0
645.25,136.0
645.31,135.0
645.37,128.0
645.43,137.0
645.5,150.0
645.56,147.0
645.62,141.0
645.69,158.0
645.75,163.0
645.81,177.0
645.88,176.0
645.94,158.0
646.0,168.0
646.06,162.0
646.13,177.0
646.19,177.0
646.25,185.0
646.32,187.0
646.38,178.0
646.44,170.0
646.51,173.0
646.57,168.0
646.63,174.0
646.69,189.0
646.76,171.0
646.82,176.0
646.88,177.0
646.95,182.0
647.01,173.0
647.07,169.0
647.14,167.0
647.2,167.0
647.26,162.0
647.32,166.0
647.39,181.0
647.45,174.0
647.51,173.0
647.58,167.0
647.64,168.0
647.7,147.0
647.77,154.0
647.83,140.0
647.89,143.0
647.95,129.0
648.02,140.0
648.08,172.0
648.14,158.0
648.21,178.0
648.27,168.0
648.33,189.0
648.4,196.0
648.46,186.0
648.52,202.0
648.58,195.0
648.65,180.0
648.71,213.0
648.77,205.0
648.84,190.0
648.9,172.0
648.96,184.0
649.03,176.0
649.09,177.0
649.15,189.0
649.21,182.0
649.28,168.0
649.34,171.0
649.4,176.0
649.47,167.0
649.53,177.0
649.59,185.0
649.66,177.0
649.72,177.0
649.78,173.0
649.84,173.0
649.91,174.0
649.97,175.0
650.03,180.0
650.1,188.0
650.16,199.0
650.22,175.0
650.29,184.0
650.35,171.0
650.41,166.0
650.47,174.0
650.54,188.0
650.6,175.0
650.66,182.0
650.73,168.0
650.79,177.0
650.85,162.0
650.92,161.0
650.98,163.0
651.04,142.0
651.1,150.0
651.17,141.0
651.23,142.0
651.29,133.0
651.36,144.0
651.42,162.0
651.48,160.0
651.55,168.0
651.61,177.0
651.67,173.0
651.73,166.0
651.8,177.0
651.86,173.0
651.92,177.0
651.99,165.0
652.05,165.0
652.11,175.0
652.18,172.0
652.24,179.0
652.3,176.0
652.36,184.0
652.43,180.0
652.49,186.0
652.55,171.0
652.62,180.0
652.68,179.0
652.74,164.0
652.81,150.0
652.87,162.0
652.93,155.0
652.99,164.0
653.06,170.0
653.12,152.0
653.18,154.0
653.25,153.0
653.31,163.0
653.37,163.0
653.44,151.0
653.5,157.0
653.56,142.0
653.62,129.0
653.69,140.0
653.75,136.0
653.81,140.0
653.88,154.0
653.94,126.0
654.0,129.0
654.07,125.0
654.13,134.0
654.19,125.0
654.25,130.0
654.32,117.0
654.38,97.0
654.44,110.0
654.51,111.0
654.57,98.0
654.63,88.0
654.7,74.0
654.76,78.0
654.82,87.0
654.88,67.0
654.95,47.0
655.01,57.0
655.07,67.0
655.14,68.0
655.2,71.0
655.26,64.0
655.33,62.0
655.39,75.0
655.45,76.0
655.51,66.0
655.58,61.0
655.64,63.0
655.7,63.0
655.77,79.0
655.83,72.0
655.89,80.0
655.96,72.0
656.02,63.0
656.08,63.0
656.14,73.0
656.21,66.0
656.27,78.0
656.33,84.0
656.4,85.0
656.46,89.0
656.52,94.0
656.59,98.0
656.65,107.0
656.71,118.0
656.77,108.0
656.84,111.0
656.9,100.0
656.96,102.0
657.03,97.0
657.09,115.0
657.15,121.0
657.22,126.0
657.28,135.0
657.34,123.0
657.4,121.0
657.47,135.0
657.53,146.0
657.59,148.0
657.66,148.0
657.72,150.0
657.78,143.0
657.85,136.0
657.91,126.0
657.97,139.0
658.03,154.0
658.1,130.0
658.16,148.0
658.22,132.0
658.29,109.0
658.35,125.0
658.41,109.0
658.48,124.0
658.54,120.0
658.6,146.0
658.66,137.0
658.73,127.0
658.79,155.0
658.85,154.0
658.92,155.0
658.98,134.0
659.04,141.0
659.11,140.0
659.17,135.0
659.23,147.0
659.29,136.0
659.36,122.0
659.42,128.0
659.48,140.0
659.55,125.0
659.61,133.0
659.67,155.0
659.74,142.0
659.8,164.0
659.86,137.0
659.92,146.0
659.99,143.0
660.05,155.0
660.11,156.0
660.18,156.0
660.24,155.0
660.3,133.0
660.37,132.0
660.43,141.0
660.49,133.0
660.55,132.0
660.62,166.0
660.68,143.0
660.74,148.0
660.81,155.0
660.87,167.0
660.93,166.0
661.0,159.0
661.06,171.0
661.12,180.0
661.18,167.0
661.25,192.0
661.31,206.0
661.37,182.0
661.44,193.0
661.5,186.0
661.56,182.0
661.63,193.0
661.69,192.0
661.75,203.0
661.81,192.0
661.88,195.0
661.94,178.0
662.0,198.0
662.07,193.0
662.13,185.0
662.19,192.0
662.26,197.0
662.32,185.0
662.38,176.0
662.44,177.0
662.51,177.0
662.57,188.0
662.63,186.0
662.7,162.0
662.76,195.0
662.82,184.0
662.89,193.0
662.95,187.0
663.01,203.0
663.07,204.0
663.14,190.0
663.2,208.0
663.26,187.0
663.33,206.0
663.39,195.0
663.45,185.0
663.52,184.0
663.58,195.0
663.64,209.0
663.7,199.0
663.77,217.0
663.83,188.0
663.89,188.0
663.96,188.0
664.02,201.0
664.08,200.0
664.15,190.0
664.21,209.0
664.27,214.0
664.33,219.0
664.4,219.0
664.46,232.0
664.52,236.0
664.59,232.0
664.65,242.0
664.71,241.0
664.78,241.0
664.84,240.0
664.9,232.0
664.96,212.0
665.03,218.0
665.09,225.0
665.15,222.0
665.22,221.0
665.28,212.0
665.34,202.0
665.41,199.0
665.47,197.0
665.53,200.0
665.59,221.0
665.66,225.0
665.72,231.0
665.78,234.0
665.85,234.0
665.91,213.0
665.97,213.0
666.04,217.0
666.1,207.0
666.16,208.0
666.22,201.0
666.29,192.0
666.35,200.0
666.41,208.0
666.48,206.0
666.54,228.0
666.6,207.0
666.67,224.0
666.73,209.0
666.79,204.0
666.85,202.0
666.92,210.0
666.98,228.0
667.04,208.0
667.11,210.0
667.17,223.0
667.23,244.0
667.3,217.0
667.36,225.0
667.42,241.0
667.48,210.0
667.55,246.0
667.61,257.0
667.67,221.0
667.74,226.0
667.8,225.0
667.86,231.0
667.93,221.0
667.99,235.0
668.05,244.0
668.11,223.0
668.18,243.0
668.24,244.0
668.3,236.0
668.37,241.0
668.43,234.0
668.49,206.0
668.56,211.0
668.62,207.0
668.68,195.0
668.74,198.0
668.81,204.0
668.87,200.0
668.93,184.0
669.0,203.0
669.06,217.0
669.12,191.0
669.19,201.0
669.25,216.0
669.31,203.0
669.37,214.0
669.44,209.0
669.5,203.0
669.56,184.0
669.63,203.0
669.69,199.0
669.75,190.0
669.82,193.0
669.88,166.0
669.94,203.0
670.0,193.0
670.07,182.0
670.13,184.0
670.19,181.0
670.26,195.0
670.32,185.0
670.38,177.0
670.45,170.0
670.51,170.0
670.57,177.0
670.63,173.0
670.7,157.0
670.76,159.0
670.82,154.0
670.89,163.0
670.95,155.0
671.01,158.0
671.08,180.0
671.14,159.0
671.2,157.0
671.26,145.0
671.33,169.0
671.39,150.0
671.45,145.0
671.52,145.0
671.58,162.0
671.64,140.0
671.71,148.0
671.77,135.0
671.83,139.0
671.89,162.0
671.96,137.0
672.02,146.0
672.08,135.0
672.15,139.0
672.21,132.0
672.27,143.0
672.34,127.0
672.4,140.0
672.46,127.0
672.52,127.0
672.59,153.0
672.65,133.0
672.71,144.0
672.78,141.0
672.84,158.0
672.9,155.0
672.97,136.0
673.03,121.0
673.09,127.0
673.15,112.0
673.22,101.0
673.28,107.0
673.34,88.0
673.41,95.0
673.47,125.0
673.53,113.0
673.6,104.0
673.66,91.0
673.72,104.0
673.78,110.0
673.85,91.0
673.91,119.0
673.97,115.0
674.04,107.0
674.1,104.0
674.16,111.0
674.23,106.0
674.29,98.0
674.35,72.0
674.41,91.0
674.48,85.0
674.54,72.0
674.6,66.0
674.67,74.0
674.73,98.0
674.79,111.0
674.86,100.0
674.92,98.0
674.98,115.0
675.04,86.0
675.11,100.0
675.17,105.0
675.23,100.0
675.3,94.0
675.36,110.0
675.42,126.0
675.49,100.0
675.55,119.0
675.61,122.0
675.67,108.0
675.74,129.0
675.8,133.0
675.86,116.0
675.93,116.0
675.99,113.0
676.05,121.0
676.12,118.0
676.18,116.0
676.24,120.0
676.3,127.0
676.37,150.0
676.43,142.0
676.49,153.0
676.56,155.0
676.62,140.0
676.68,131.0
676.75,128.0
676.81,120.0
676.87,131.0
676.93,128.0
677.0,115.0
677.06,110.0
677.12,100.0
677.19,110.0
677.25,127.0
677.31,122.0
677.38,123.0
677.44,113.0
677.5,110.0
677.56,138.0
677.63,141.0
677.69,147.0
677.75,138.0
677.82,153.0
677.88,145.0
677.94,146.0
678.01,165.0
678.07,149.0
678.13,138.0
678.19,131.0
678.26,127.0
678.32,126.0
678.38,124.0
678.45,140.0
678.51,124.0
678.57,143.0
678.64,154.0
678.7,147.0
678.76,144.0
678.82,137.0
678.89,162.0
678.95,151.0
679.01,147.0
679.08,148.0
679.14,155.0
679.2,176.0
679.27,177.0
679.33,170.0
679.39,152.0
679.45,160.0
679.52,158.0
679.58,167.0
679.64,170.0
679.71,163.0
679.77,159.0
679.83,166.0
679.9,179.0
679.96,165.0
680.02,161.0
680.08,187.0
680.15,173.0
680.21,183.0
680.27,203.0
680.34,200.0
680.4,199.0
680.46,201.0
680.53,191.0
680.59,193.0
680.65,174.0
680.71,177.0
680.78,194.0
680.84,191.0
680.9,189.0
680.97,177.0
681.03,170.0
681.09,184.0
681.16,178.0
681.22,160.0
681.28,168.0
681.34,184.0
681.41,160.0
681.47,181.0
681.53,195.0
681.6,172.0
681.66,184.0
681.72,174.0
681.79,173.0
681.85,173.0
681.91,173.0
681.97,185.0
682.04,192.0
682.1,210.0
682.16,209.0
682.23,206.0
682.29,198.0
682.35,188.0
682.42,197.0
682.48,192.0
682.54,227.0
682.6,196.0
682.67,193.0
682.73,200.0
682.79,200.0
682.86,225.0
682.92,236.0
682.98,223.0
683.05,228.0
683.11,209.0
683.17,203.0
683.23,212.0
683.3,221.0
683.36,210.0
683.42,182.0
683.49,206.0
683.55,206.0
683.61,213.0
683.68,208.0
683.74,202.0
683.8,208.0
683.86,214.0
683.93,217.0
683.99,211.0
684.05,223.0
684.12,228.0
684.18,206.0
684.24,210.0
684.31,232.0
684.37,212.0
684.43,214.0
684.49,226.0
684.56,217.0
684.62,213.0
684.68,221.0
684.75,197.0
684.81,208.0
684.87,217.0
684.94,175.0
685.0,195.0
685.06,191.0
685.12,188.0
685.19,184.0
685.25,185.0
685.31,194.0
685.38,184.0
685.44,184.0
685.5,187.0
685.57,175.0
685.63,179.0
685.69,173.0
685.75,185.0
685.82,177.0
685.88,152.0
685.94,159.0
686.01,176.0
686.07,173.0
686.13,173.0
686.2,186.0
686.26,185.0
686.32,191.0
686.38,188.0
686.45,196.0
686.51,201.0
686.57,193.0
686.64,210.0
686.7,206.0
686.76,206.0
686.83,197.0
686.89,211.0
686.95,204.0
687.01,201.0
687.08,202.0
687.14,175.0
687.2,170.0
687.27,198.0
687.33,182.0
687.39,177.0
687.46,148.0
687.52,175.0
687.58,170.0
687.64,128.0
687.71,137.0
687.77,141.0
687.83,136.0
687.9,143.0
687.96,133.0
688.02,109.0
688.09,109.0
688.15,93.0
688.21,88.0
688.27,85.0
688.34,83.0
688.4,90.0
688.46,87.0
688.53,94.0
688.59,83.0
688.65,86.0
688.72,93.0
688.78,100.0
688.84,73.0
688.9,88.0
688.97,91.0
689.03,81.0
689.09,75.0
689.16,73.0
689.22,86.0
689.28,68.0
689.35,69.0
689.41,69.0
689.47,68.0
689.53,69.0
689.6,70.0
689.66,60.0
689.72,52.0
689.79,54.0
689.85,68.0
689.91,61.0
689.98,53.0
690.04,66.0
690.1,45.0
690.16,56.0
690.23,58.0
690.29,42.0
690.35,34.0
690.42,47.0
690.48,66.0
690.54,69.0
690.61,43.0
690.67,58.0
690.73,66.0
690.79,57.0
690.86,41.0
690.92,45.0
690.98,59.0
691.05,69.0
691.11,58.0
691.17,67.0
691.24,68.0
691.3,31.0
691.36,48.0
691.42,52.0
691.49,66.0
691.55,79.0
691.61,74.0
691.68,82.0
691.74,81.0
691.8,84.0
691.87,73.0
691.93,78.0
691.99,59.0
692.05,56.0
692.12,65.0
692.18,52.0
692.24,52.0
692.31,52.0
692.37,66.0
692.43,61.0
692.5,62.0
692.56,69.0
692.62,60.0
692.68,71.0
692.75,91.0
692.81,68.0
692.87,70.0
692.94,76.0
693.0,81.0
693.06,69.0
693.13,85.0
693.19,83.0
693.25,106.0
693.31,94.0
693.38,74.0
693.44,83.0
693.5,94.0
693.57,103.0
693.63,77.0
693.69,96.0
693.76,99.0
693.82,102.0
693.88,99.0
693.94,91.0
694.01,94.0
694.07,100.0
694.13,98.0
694.2,89.0
694.26,85.0
694.32,102.0
694.39,112.0
694.45,111.0
694.51,90.0
694.57,86.0
694.64,93.0
694.7,93.0
694.76,85.0
694.83,93.0
694.89,92.0
694.95,105.0
695.02,103.0
695.08,133.0
695.14,129.0
695.2,115.0
695.27,114.0
695.33,124.0
695.39,100.0
695.46,89.0
695.52,96.0
695.58,83.0
695.65,74.0
695.71,87.0
695.77,103.0
695.83,109.0
695.9,100.0
695.96,115.0
696.02,106.0
696.09,106.0
696.15,103.0
696.21,103.0
696.28,112.0
696.34,120.0
696.4,97.0
696.46,104.0
696.53,97.0
696.59,96.0
696.65,92.0
696.72,72.0
696.78,61.0
696.84,80.0
696.91,85.0
696.97,83.0
697.03,88.0
697.09,93.0
697.16,78.0
697.22,94.0
697.28,98.0
697.35,116.0
697.41,113.0
697.47,121.0
697.54,117.0
697.6,108.0
697.66,110.0
697.72,98.0
697.79,116.0
697.85,89.0
697.91,109.0
697.98,125.0
698.04,97.0
698.1,126.0
698.17,117.0
698.23,119.0
698.29,115.0
698.35,85.0
698.42,91.0
698.48,88.0
698.54,90.0
698.61,103.0
698.67,115.0
698.73,111.0
698.8,106.0
698.86,119.0
698.92,140.0
698.98,150.0
699.05,145.0
699.11,140.0
699.17,150.0
699.24,154.0
699.3,149.0
699.36,153.0
699.43,140.0
699.49,152.0
699.55,155.0
699.61,160.0
699.68,146.0
699.74,140.0
699.8,141.0
699.87,138.0
699.93,144.0
699.99,168.0
700.06,166.0
700.12,163.0
700.18,166.0
700.24,178.0
700.31,177.0
700.37,195.0
700.43,182.0
700.5,202.0
700.56,177.0
700.62,203.0
700.69,224.0
700.75,214.0
700.81,216.0
700.87,194.0
700.94,170.0
701.0,180.0
701.06,182.0
701.13,176.0
701.19,199.0
701.25,210.0
701.32,184.0
701.38,176.0
701.44,165.0
701.5,166.0
701.57,178.0
701.63,180.0
701.69,195.0
701.76,193.0
701.82,192.0
701.88,197.0
701.95,192.0
702.01,188.0
702.07,206.0
702.13,204.0
702.2,200.0
702.26,179.0
702.32,192.0
702.39,197.0
702.45,199.0
702.51,205.0
702.58,183.0
702.64,193.0
702.7,198.0
702.76,195.0
702.83,191.0
702.89,188.0
702.95,190.0
703.02,187.0
703.08,189.0
703.14,176.0
703.21,199.0
703.27,191.0
703.33,201.0
703.39,198.0
703.46,185.0
703.52,158.0
703.58,164.0
703.65,154.0
703.71,148.0
703.77,158.0
703.84,144.0
703.9,143.0
703.96,154.0
704.02,146.0
704.09,145.0
704.15,141.0
704.21,173.0
704.28,155.0
704.34,134.0
704.4,133.0
704.47,134.0
704.53,143.0
704.59,146.0
704.65,131.0
704.72,147.0
704.78,114.0
704.84,129.0
704.91,127.0
704.97,117.0
705.03,126.0
705.1,123.0
705.16,121.0
705.22,102.0
705.28,89.0
705.35,110.0
705.41,96.0
705.47,104.0
705.54,104.0
705.6,95.0
705.66,108.0
705.73,99.0
705.79,114.0
705.85,114.0
705.91,106.0
705.98,113.0
706.04,108.0
706.1,110.0
706.17,112.0
706.23,111.0
706.29,97.0
706.36,89.0
706.42,88.0
706.48,97.0
706.54,90.0
706.61,66.0
706.67,88.0
706.73,93.0
706.8,110.0
706.86,134.0
706.92,107.0
706.99,98.0
707.05,108.0
707.11,109.0
707.17,126.0
707.24,140.0
707.3,130.0
707.36,113.0
707.43,129.0
707.49,121.0
707.55,122.0
707.62,116.0
707.68,125.0
707.74,138.0
707.8,142.0
707.87,124.0
707.93,129.0
707.99,155.0
708.06,111.0
708.12,125.0
708.18,144.0
708.25,143.0
708.31,153.0
708.37,165.0
708.43,143.0
708.5,140.0
708.56,139.0
708.62,136.0
708.69,168.0
708.75,157.0
708.81,154.0
708.88,161.0
708.94,162.0
709.0,155.0
709.06,130.0
709.13,144.0
709.19,145.0
709.25,160.0
709.32,149.0
709.38,144.0
709.44,144.0
709.51,156.0
709.57,140.0
709.63,144.0
709.69,155.0
709.76,141.0
709.82,134.0
709.88,131.0
709.95,138.0
710.01,135.0
710.07,144.0
710.14,152.0
710.2,140.0
710.26,138.0
710.32,136.0
710.39,111.0
710.45,116.0
710.51,129.0
710.58,118.0
710.64,142.0
710.7,144.0
710.77,128.0
710.83,135.0
710.89,130.0
710.95,133.0
711.02,110.0
711.08,148.0
711.14,152.0
711.21,161.0
711.27,145.0
711.33,130.0
711.4,131.0
711.46,146.0
711.52,154.0
711.58,151.0
711.65,164.0
711.71,175.0
711.77,177.0
711.84,165.0
711.9,167.0
711.96,175.0
712.03,172.0
712.09,160.0
712.15,167.0
712.21,164.0
712.28,160.0
712.34,162.0
712.4,154.0
712.47,152.0
712.53,146.0
712.59,164.0
712.66,160.0
712.72,154.0
712.78,154.0
712.84,170.0
712.91,171.0
712.97,152.0
713.03,163.0
713.1,169.0
713.16,171.0
713.22,173.0
713.29,190.0
713.35,176.0
713.41,194.0
713.47,199.0
713.54,198.0
713.6,199.0
713.66,195.0
713.73,196.0
713.79,192.0
713.85,198.0
713.92,182.0
713.98,178.0
714.04,171.0
714.1,184.0
714.17,183.0
714.23,193.0
714.29,190.0
714.36,186.0
714.42,184.0
714.48,186.0
714.55,199.0
714.61,183.0
714.67,182.0
714.73,193.0
714.8,184.0
714.86,184.0
714.92,177.0
714.99,186.0
715.05,204.0
715.11,184.0
715.18,196.0
715.24,190.0
715.3,168.0
715.36,187.0
715.43,166.0
715.49,199.0
715.55,188.0
715.62,186.0
715.68,192.0
715.74,194.0
715.81,177.0
715.87,188.0
715.93,202.0
715.99,214.0
716.06,212.0
716.12,210.0
716.18,189.0
716.25,220.0
716.31,195.0
716.37,202.0
716.44,218.0
716.5,216.0
716.56,201.0
716.62,204.0
716.69,227.0
716.75,209.0
716.81,216.0
716.88,217.0
716.94,222.0
717.0,233.0
717.07,239.0
717.13,241.0
717.19,246.0
717.25,270.0
717.32,238.0
717.38,254.0
717.44,236.0
717.51,231.0
717.57,231.0
717.63,212.0
717.7,242.0
717.76,224.0
717.82,238.0
717.88,237.0
717.95,252.0
718.01,242.0
718.07,220.0
718.14,225.0
718.2,237.0
718.26,243.0
718.33,232.0
718.39,245.0
718.45,257.0
718.51,250.0
718.58,251.0
718.64,228.0
718.7,236.0
718.77,224.0
718.83,228.0
718.89,228.0
718.96,225.0
719.02,236.0
719.08,243.0
719.14,239.0
719.21,251.0
719.27,250.0
719.33,244.0
719.4,245.0
719.46,250.0
719.52,246.0
719.59,243.0
719.65,256.0
719.71,246.0
719.77,245.0
719.84,258.0
719.9,235.0
719.96,242.0
720.03,232.0
720.09,220.0
720.15,237.0
720.22,244.0
720.28,229.0
720.34,234.0
720.4,225.0
720.47,214.0
720.53,217.0
720.59,220.0
720.66,206.0
720.72,217.0
720.78,218.0
720.85,204.0
720.91,197.0
720.97,181.0
721.03,188.0
721.1,157.0
721.16,160.0
721.22,174.0
721.29,157.0
721.35,143.0
721.41,164.0
721.48,151.0
721.54,145.0
721.6,142.0
721.66,138.0
721.73,151.0
721.79,129.0
721.85,109.0
721.92,118.0
721.98,118.0
722.04,115.0
722.11,124.0
722.17,119.0
722.23,122.0
722.29,102.0
722.36,112.0
722.42,139.0
722.48,108.0
722.55,96.0
722.61,94.0
722.67,104.0
722.74,102.0
722.8,96.0
722.86,87.0
722.92,99.0
722.99,96.0
723.05,86.0
723.11,81.0
723.18,85.0
723.24,80.0
723.3,64.0
723.37,72.0
723.43,89.0
723.49,85.0
723.55,86.0
723.62,99.0
723.68,85.0
723.74,75.0
723.81,96.0
723.87,72.0
723.93,75.0
724.0,80.0
724.06,71.0
724.12,74.0
724.18,78.0
724.25,75.0
724.31,92.0
724.37,96.0
724.44,103.0
724.5,121.0
724.56,108.0
724.63,116.0
724.69,129.0
724.75,107.0
724.81,120.0
724.88,132.0
724.94,120.0
725.0,112.0
725.07,115.0
725.13,107.0
725.19,112.0
725.26,104.0
725.32,123.0
725.38,105.0
725.44,105.0
725.51,116.0
725.57,92.0
725.63,96.0
725.7,80.0
725.76,81.0
725.82,90.0
725.89,68.0
725.95,87.0
726.01,77.0
726.07,75.0
726.14,83.0
726.2,81.0
726.26,82.0
726.33,77.0
726.39,75.0
726.45,85.0
726.52,89.0
726.58,60.0
726.64,47.0
726.7,58.0
726.77,59.0
726.83,62.0
726.89,62.0
726.96,75.0
727.02,74.0
727.08,85.0
727.15,82.0
727.21,79.0
727.27,68.0
727.33,66.0
727.4,65.0
727.46,58.0
727.52,57.0
727.59,63.0
727.65,41.0
727.71,47.0
727.78,59.0
727.84,76.0
727.9,72.0
727.96,74.0
728.03,82.0
728.09,81.0
728.15,65.0
728.22,84.0
728.28,100.0
728.34,92.0
728.41,110.0
728.47,103.0
728.53,107.0
728.59,97.0
728.66,92.0
728.72,114.0
728.78,108.0
728.85,121.0
728.91,107.0
728.97,111.0
729.04,109.0
729.1,101.0
729.16,102.0
729.22,97.0
729.29,111.0
729.35,104.0
729.41,100.0
729.48,107.0
729.54,96.0
729.6,96.0
729.67,93.0
729.73,91.0
729.79,100.0
729.85,100.0
729.92,115.0
729.98,100.0
730.04,100.0
730.11,98.0
730.17,108.0
730.23,93.0
730.3,102.0
730.36,91.0
730.42,89.0
730.48,84.0
730.55,72.0
730.61,100.0
730.67,106.0
730.74,89.0
730.8,81.0
730.86,67.0
730.93,74.0
730.99,113.0
731.05,104.0
731.11,97.0
731.18,84.0
731.24,88.0
731.3,118.0
731.37,105.0
731.43,116.0
731.49,125.0
731.56,127.0
731.62,105.0
731.68,115.0
731.74,111.0
731.81,109.0
731.87,125.0
731.93,130.0
732.0,133.0
732.06,144.0
732.12,144.0
732.19,151.0
732.25,148.0
732.31,137.0
732.37,133.0
732.44,133.0
732.5,124.0
732.56,126.0
732.63,139.0
732.69,130.0
732.75,154.0
732.82,144.0
732.88,150.0
732.94,122.0
733.0,104.0
733.07,100.0
733.13,107.0
733.19,136.0
733.26,128.0
733.32,136.0
733.38,114.0
733.45,122.0
733.51,141.0
733.57,133.0
733.63,146.0
733.7,133.0
733.76,165.0
733.82,166.0
733.89,166.0
733.95,165.0
734.01,167.0
734.08,177.0
734.14,177.0
734.2,170.0
734.26,195.0
734.33,197.0
734.39,198.0
734.45,184.0
734.52,166.0
734.58,178.0
734.64,171.0
734.71,171.0
734.77,193.0
734.83,185.0
734.89,193.0
734.96,198.0
735.02,212.0
735.08,194.0
735.15,209.0
735.21,199.0
735.27,195.0
735.34,211.0
735.4,202.0
735.46,198.0
735.52,206.0
735.59,193.0
735.65,187.0
735.71,199.0
735.78,195.0
735.84,220.0
735.9,231.0
735.97,200.0
736.03,199.0
736.09,189.0
736.15,184.0
736.22,182.0
736.28,202.0
736.34,196.0
736.41,188.0
736.47,192.0
736.53,198.0
736.6,163.0
736.66,188.0
736.72,199.0
736.78,206.0
736.85,193.0
736.91,182.0
736.97,198.0
737.04,213.0
737.1,203.0
737.16,201.0
737.23,188.0
737.29,172.0
737.35,182.0
737.41,169.0
737.48,156.0
737.54,166.0
737.6,176.0
737.67,185.0
737.73,171.0
737.79,187.0
737.86,169.0
737.92,170.0
737.98,158.0
738.04,165.0
738.11,174.0
738.17,168.0
738.23,163.0
738.3,143.0
738.36,151.0
738.42,151.0
738.49,163.0
738.55,140.0
738.61,124.0
738.67,144.0
738.74,150.0
738.8,146.0
738.86,152.0
738.93,164.0
738.99,143.0
739.05,129.0
739.12,135.0
739.18,109.0
739.24,119.0
739.3,124.0
739.37,107.0
739.43,122.0
739.49,132.0
739.56,122.0
739.62,111.0
739.68,117.0
739.75,91.0
739.81,107.0
739.87,102.0
739.93,109.0
740.0,105.0
740.06,107.0
740.12,109.0
740.19,96.0
740.25,106.0
740.31,92.0
740.38,81.0
740.44,111.0
740.5,100.0
740.56,101.0
740.63,128.0
740.69,125.0
740.75,124.0
740.82,115.0
740.88,115.0
740.94,117.0
741.01,110.0
741.07,97.0
741.13,99.0
741.19,101.0
741.26,97.0
741.32,111.0
741.38,106.0
741.45,92.0
741.51,110.0
741.57,122.0
741.64,113.0
741.7,108.0
741.76,117.0
741.82,120.0
741.89,136.0
741.95,121.0
742.01,128.0
742.08,128.0
742.14,120.0
742.2,133.0
742.27,141.0
742.33,129.0
742.39,148.0
742.45,129.0
742.52,134.0
742.58,128.0
742.64,116.0
742.71,107.0
742.77,129.0
742.83,134.0
742.9,111.0
742.96,124.0
743.02,121.0
743.08,129.0
743.15,100.0
743.21,118.0
743.27,110.0
743.34,122.0
743.4,111.0
743.46,124.0
743.53,130.0
743.59,128.0
743.65,133.0
743.71,122.0
743.78,130.0
743.84,122.0
743.9,105.0
743.97,96.0
744.03,118.0
744.09,105.0
744.16,92.0
744.22,99.0
744.28,88.0
744.34,105.0
744.41,118.0
744.47,124.0
744.53,114.0
744.6,120.0
744.66,113.0
744.72,120.0
744.79,107.0
744.85,120.0
744.91,107.0
744.97,109.0
745.04,125.0
745.1,121.0
745.16,129.0
745.23,135.0
745.29,101.0
745.35,102.0
745.42,108.0
745.48,110.0
745.54,112.0
745.6,121.0
745.67,117.0
745.73,110.0
745.79,113.0
745.86,111.0
745.92,88.0
745.98,119.0
746.05,110.0
746.11,125.0
746.17,96.0
746.23,113.0
746.3,96.0
746.36,93.0
746.42,108.0
746.49,94.0
746.55,97.0
746.61,102.0
746.68,101.0
746.74,91.0
746.8,111.0
746.86,115.0
746.93,120.0
746.99,132.0
747.05,116.0
747.12,137.0
747.18,150.0
747.24,137.0
747.31,122.0
747.37,106.0
747.43,111.0
747.49,113.0
747.56,121.0
747.62,114.0
747.68,119.0
747.75,132.0
747.81,120.0
747.87,110.0
747.94,121.0
748.0,124.0
748.06,108.0
748.12,96.0
748.19,102.0
748.25,103.0
748.31,82.0
748.38,96.0
748.44,105.0
748.5,118.0
748.57,110.0
748.63,104.0
748.69,114.0
748.75,121.0
748.82,129.0
748.88,99.0
748.94,131.0
749.01,118.0
749.07,115.0
749.13,129.0
749.2,128.0
749.26,140.0
749.32,146.0
749.38,121.0
749.45,103.0
749.51,115.0
749.57,125.0
749.64,133.0
749.7,130.0
749.76,120.0
749.83,122.0
749.89,149.0
749.95,158.0
750.01,131.0
750.08,145.0
750.14,151.0
750.2,159.0
750.27,155.0
750.33,146.0
750.39,151.0
750.46,133.0
750.52,153.0
750.58,147.0
750.64,142.0
750.71,153.0
750.77,151.0
750.83,139.0
750.9,136.0
750.96,131.0
751.02,139.0
751.09,167.0
751.15,166.0
751.21,170.0
751.27,180.0
751.34,177.0
751.4,185.0
751.46,162.0
751.53,173.0
751.59,167.0
751.65,167.0
751.72,166.0
751.78,163.0
751.84,148.0
751.9,157.0
751.97,151.0
752.03,168.0
752.09,161.0
752.16,159.0
752.22,143.0
752.28,163.0
752.35,162.0
752.41,141.0
752.47,147.0
752.53,149.0
752.6,157.0
752.66,158.0
752.72,157.0
752.79,143.0
752.85,162.0
752.91,142.0
752.98,139.0
753.04,128.0
753.1,127.0
753.16,139.0
753.23,118.0
753.29,134.0
753.35,131.0
753.42,136.0
753.48,113.0
753.54,119.0
753.61,120.0
753.67,111.0
753.73,128.0
753.79,125.0
753.86,132.0
753.92,114.0
753.98,113.0
754.05,130.0
754.11,130.0
754.17,120.0
754.24,147.0
754.3,140.0
754.36,143.0
754.42,131.0
754.49,126.0
754.55,125.0
754.61,129.0
754.68,133.0
754.74,145.0
754.8,140.0
754.87,137.0
754.93,116.0
754.99,119.0
755.05,102.0
755.12,111.0
755.18,110.0
755.24,96.0
755.31,86.0
755.37,115.0
755.43,107.0
755.5,121.0
755.56,104.0
755.62,76.0
755.68,84.0
755.75,86.0
755.81,86.0
755.87,96.0
755.94,97.0
756.0,81.0
756.06,63.0
756.13,69.0
756.19,59.0
756.25,53.0
756.31,47.0
756.38,60.0
756.44,77.0
756.5,80.0
756.57,68.0
756.63,78.0
756.69,85.0
756.76,71.0
756.82,59.0
756.88,61.0
756.94,78.0
757.01,56.0
757.07,64.0
757.13,85.0
757.2,81.0
757.26,66.0
757.32,71.0
757.39,64.0
757.45,42.0
757.51,25.0
757.57,49.0
757.64,64.0
757.7,72.0
757.76,60.0
757.83,69.0
757.89,80.0
757.95,67.0
758.02,77.0
758.08,82.0
758.14,92.0
758.2,81.0
758.27,89.0
758.33,113.0
758.39,117.0
758.46,99.0
758.52,107.0
758.58,105.0
758.65,109.0
758.71,118.0
758.77,124.0
758.83,120.0
758.9,110.0
758.96,138.0
759.02,131.0
759.09,134.0
759.15,133.0
759.21,139.0
759.28,127.0
759.34,118.0
759.4,106.0
759.46,108.0
759.53,108.0
759.59,117.0
759.65,103.0
759.72,115.0
759.78,151.0
759.84,135.0
759.91,129.0
759.97,125.0
760.03,128.0
760.09,118.0
760.16,122.0
760.22,126.0
760.28,117.0
760.35,124.0
760.41,108.0
760.47,111.0
760.54,102.0
760.6,114.0
760.66,126.0
760.72,119.0
760.79,117.0
760.85,116.0
760.91,102.0
760.98,120.0
761.04,113.0
761.1,118.0
761.17,138.0
761.23,135.0
761.29,116.0
761.35,96.0
761.42,116.0
761.48,116.0
761.54,133.0
761.61,133.0
761.67,133.0
761.73,127.0
761.8,124.0
761.86,143.0
761.92,148.0
761.98,138.0
762.05,136.0
762.11,117.0
762.17,148.0
762.24,143.0
762.3,152.0
762.36,158.0
762.43,141.0
762.49,165.0
762.55,144.0
762.61,158.0
762.68,138.0
762.74,161.0
762.8,165.0
762.87,159.0
762.93,173.0
762.99,160.0
763.06,167.0
763.12,173.0
763.18,153.0
763.24,169.0
763.31,195.0
763.37,198.0
763.43,166.0
763.5,162.0
763.56,177.0
763.62,175.0
763.69,162.0
763.75,156.0
763.81,170.0
763.87,165.0
763.94,177.0
764.0,175.0
764.06,185.0
764.13,199.0
764.19,196.0
764.25,201.0
764.32,212.0
764.38,226.0
764.44,221.0
764.5,214.0
764.57,207.0
764.63,218.0
764.69,223.0
764.76,212.0
764.82,221.0
764.88,202.0
764.95,215.0
765.01,204.0
765.07,189.0
765.13,214.0
765.2,208.0
765.26,200.0
765.32,174.0
765.39,199.0
765.45,204.0
765.51,202.0
765.58,207.0
765.64,199.0
765.7,215.0
765.76,192.0
765.83,188.0
765.89,201.0
765.95,206.0
766.02,190.0
766.08,180.0
766.14,193.0
766.21,203.0
766.27,185.0
766.33,210.0
766.39,218.0
766.46,205.0
766.52,204.0
766.58,216.0
766.65,223.0
766.71,233.0
766.77,229.0
766.84,246.0
766.9,235.0
766.96,237.0
767.02,242.0
767.09,241.0
767.15,237.0
767.21,241.0
767.28,252.0
767.34,254.0
767.4,232.0
767.47,213.0
767.53,222.0
767.59,217.0
767.65,223.0
767.72,239.0
767.78,248.0
767.84,244.0
767.91,237.0
767.97,263.0
768.03,259.0
768.1,239.0
768.16,238.0
768.22,250.0
768.28,264.0
768.35,250.0
768.41,256.0
768.47,265.0
768.54,251.0
768.6,261.0
768.66,268.0
768.73,278.0
768.79,257.0
768.85,235.0
768.91,254.0
768.98,256.0
769.04,258.0
769.1,258.0
769.17,264.0
769.23,263.0
769.29,245.0
769.36,245.0
769.42,244.0
769.48,254.0
769.54,248.0
769.61,257.0
769.67,274.0
769.73,280.0
769.8,251.0
769.86,261.0
769.92,261.0
769.99,256.0
770.05,282.0
770.11,257.0
770.17,244.0
770.24,257.0
770.3,267.0
770.36,249.0
770.43,254.0
770.49,251.0
770.55,256.0
770.62,273.0
770.68,253.0
770.74,246.0
770.8,225.0
770.87,229.0
770.93,237.0
770.99,203.0
771.06,229.0
771.12,242.0
771.18,230.0
771.25,213.0
771.31,224.0
771.37,223.0
771.43,218.0
771.5,200.0
771.56,199.0
771.62,202.0
771.69,187.0
771.75,184.0
771.81,162.0
771.88,171.0
771.94,183.0
772.0,177.0
772.06,160.0
772.13,179.0
772.19,185.0
772.25,171.0
772.32,171.0
772.38,162.0
772.44,169.0
772.51,158.0
772.57,142.0
772.63,151.0
772.69,153.0
772.76,154.0
772.82,168.0
772.88,176.0
772.95,164.0
773.01,156.0
773.07,162.0
773.14,157.0
773.2,162.0
773.26,155.0
773.32,130.0
773.39,127.0
773.45,131.0
773.51,127.0
773.58,103.0
773.64,124.0
773.7,124.0
773.77,114.0
773.83,107.0
773.89,107.0
773.95,122.0
774.02,148.0
774.08,120.0
774.14,114.0
774.21,118.0
774.27,90.0
774.33,91.0
774.4,118.0
774.46,131.0
774.52,106.0
774.58,97.0
774.65,107.0
774.71,87.0
774.77,101.0
774.84,124.0
774.9,93.0
774.96,105.0
775.03,113.0
775.09,121.0
775.15,117.0
775.21,128.0
775.28,160.0
775.34,157.0
775.4,151.0
775.47,132.0
775.53,129.0
775.59,130.0
775.66,123.0
775.72,147.0
775.78,129.0
775.84,124.0
775.91,134.0
775.97,115.0
776.03,122.0
776.1,124.0
776.16,140.0
776.22,141.0
776.29,133.0
776.35,134.0
776.41,137.0
776.47,135.0
776.54,129.0
776.6,118.0
776.66,126.0
776.73,136.0
776.79,143.0
776.85,135.0
776.92,146.0
776.98,129.0
777.04,141.0
777.1,148.0
777.17,137.0
777.23,141.0
777.29,129.0
777.36,133.0
777.42,125.0
777.48,130.0
777.55,126.0
777.61,116.0
777.67,135.0
777.73,127.0
777.8,122.0
777.86,136.0
777.92,126.0
777.99,125.0
778.05,127.0
778.11,126.0
778.18,118.0
778.24,137.0
778.3,141.0
778.36,146.0
778.43,130.0
778.49,128.0
778.55,129.0
778.62,137.0
778.68,130.0
778.74,115.0
778.81,107.0
778.87,116.0
778.93,117.0
778.99,119.0
779.06,97.0
779.12,111.0
779.18,88.0
779.25,105.0
779.31,111.0
779.37,86.0
779.44,98.0
779.5,117.0
779.56,114.0
779.62,122.0
779.69,108.0
779.75,111.0
779.81,99.0
779.88,85.0
779.94,101.0
780.0,100.0
780.07,100.0
780.13,110.0
780.19,95.0
780.25,128.0
780.32,123.0
780.38,122.0
780.44,125.0
780.51,104.0
780.57,121.0
780.63,122.0
780.7,112.0
780.76,122.0
780.82,121.0
780.88,118.0
780.95,127.0
781.01,153.0
781.07,140.0
781.14,123.0
781.2,124.0
781.26,132.0
781.33,120.0
781.39,129.0
781.45,130.0
781.51,120.0
781.58,101.0
781.64,119.0
781.7,129.0
781.77,125.0
781.83,131.0
781.89,136.0
781.96,119.0
782.02,113.0
782.08,106.0
782.14,92.0
782.21,85.0
782.27,96.0
782.33,86.0
782.4,87.0
782.46,97.0
782.52,98.0
782.59,108.0
782.65,96.0
782.71,105.0
782.77,105.0
782.84,95.0
782.9,110.0
782.96,105.0
783.03,114.0
783.09,94.0
783.15,96.0
783.22,113.0
783.28,111.0
783.34,111.0
783.4,117.0
783.47,111.0
783.53,108.0
783.59,105.0
783.66,114.0
783.72,127.0
783.78,136.0
783.85,124.0
783.91,138.0
783.97,128.0
784.03,139.0
784.1,157.0
784.16,176.0
784.22,179.0
784.29,159.0
784.35,161.0
784.41,174.0
784.48,176.0
784.54,183.0
784.6,195.0
784.66,181.0
784.73,192.0
784.79,183.0
784.85,174.0
784.92,166.0
784.98,157.0
785.04,136.0
785.11,137.0
785.17,167.0
785.23,144.0
785.29,147.0
785.36,149.0
785.42,148.0
785.48,149.0
785.55,138.0
785.61,144.0
785.67,151.0
785.74,132.0
785.8,151.0
785.86,141.0
785.92,144.0
785.99,147.0
786.05,151.0
786.11,165.0
786.18,174.0
786.24,156.0
786.3,169.0
786.37,173.0
786.43,163.0
786.49,170.0
786.55,168.0
786.62,182.0
786.68,177.0
786.74,162.0
786.81,173.0
786.87,189.0
786.93,185.0
787.0,181.0
787.06,183.0
787.12,166.0
787.18,171.0
787.25,176.0
787.31,179.0
787.37,154.0
787.44,173.0
787.5,165.0
787.56,150.0
787.63,165.0
787.69,161.0
787.75,160.0
787.81,166.0
787.88,160.0
787.94,165.0
788.0,168.0
788.07,175.0
788.13,180.0
788.19,154.0
788.26,133.0
788.32,133.0
788.38,119.0
788.44,121.0
788.51,127.0
788.57,126.0
788.63,85.0
788.7,80.0
788.76,78.0
788.82,83.0
788.89,96.0
788.95,67.0
789.01,74.0
789.07,60.0
789.14,37.0
789.2,35.0
789.26,38.0
789.33,58.0
789.39,62.0
789.45,50.0
789.52,47.0
789.58,55.0
789.64,69.0
789.7,72.0
789.77,46.0
789.83,34.0
789.89,46.0
789.96,58.0
790.02,33.0
790.08,44.0
790.15,39.0
790.21,34.0
790.27,33.0
790.33,32.0
790.4,12.0
790.46,29.0
790.52,38.0
790.59,15.0
790.65,27.0
790.71,37.0
790.78,19.0
790.84,13.0
790.9,9.0
790.96,20.0
791.03,18.0
791.09,25.0
791.15,20.0
791.22,16.0
791.28,54.0
791.34,38.0
791.41,27.0
791.47,43.0
791.53,34.0
791.59,48.0
791.66,50.0
791.72,41.0
791.78,47.0
791.85,32.0
791.91,49.0
791.97,70.0
792.04,67.0
792.1,80.0
792.16,58.0
792.22,72.0
792.29,66.0
792.35,67.0
792.41,72.0
792.48,77.0
792.54,83.0
792.6,91.0
792.67,88.0
792.73,63.0
792.79,56.0
792.85,54.0
792.92,55.0
792.98,46.0
793.04,66.0
793.11,86.0
793.17,68.0
793.23,74.0
793.3,68.0
793.36,101.0
793.42,88.0
793.48,66.0
793.55,68.0
793.61,56.0
793.67,69.0
793.74,68.0
793.8,45.0
793.86,68.0
793.93,71.0
793.99,56.0
794.05,54.0
794.11,70.0
794.18,47.0
794.24,58.0
794.3,70.0
794.37,62.0
794.43,74.0
794.49,92.0
794.56,109.0
794.62,113.0
794.68,105.0
794.74,110.0
794.81,114.0
794.87,78.0
794.93,75.0
795.0,70.0
795.06,77.0
795.12,70.0
795.19,89.0
795.25,56.0
795.31,70.0
795.37,97.0
795.44,94.0
795.5,102.0
795.56,105.0
795.63,114.0
795.69,109.0
795.75,127.0
795.82,111.0
795.88,100.0
795.94,119.0
796.0,129.0
796.07,137.0
796.13,138.0
796.19,151.0
796.26,153.0
796.32,142.0
796.38,130.0
796.45,125.0
796.51,103.0
796.57,119.0
796.63,111.0
796.7,125.0
796.76,133.0
796.82,114.0
796.89,114.0
796.95,117.0
797.01,110.0
797.08,104.0
797.14,111.0
797.2,130.0
797.26,112.0
797.33,115.0
797.39,131.0
797.45,132.0
797.52,129.0
797.58,129.0
797.64,139.0
797.71,154.0
797.77,147.0
797.83,148.0
797.89,164.0
797.96,158.0
798.02,151.0
798.08,152.0
798.15,139.0
798.21,155.0
798.27,148.0
798.34,155.0
798.4,151.0
798.46,125.0
798.52,142.0
798.59,132.0
798.65,142.0
798.71,152.0
798.78,157.0
798.84,148.0
798.9,169.0
798.97,169.0
799.03,163.0
799.09,169.0
799.15,167.0
799.22,140.0
799.28,146.0
799.34,143.0
799.41,143.0
799.47,156.0
799.53,163.0
799.6,168.0
799.66,162.0
799.72,153.0
799.78,181.0
799.85,162.0
799.91,174.0
799.97,196.0
800.04,174.0
800.1,166.0
800.16,172.0
800.23,167.0
800.29,164.0
800.35,175.0
800.41,170.0
800.48,192.0
800.54,180.0
800.6,177.0
800.67,192.0
800.73,175.0
800.79,182.0
800.86,179.0
800.92,176.0
800.98,182.0
801.04,188.0
801.11,189.0
801.17,173.0
801.23,195.0
801.3,204.0
801.36,195.0
801.42,210.0
801.49,199.0
801.55,216.0
801.61,228.0
801.67,211.0
801.74,215.0
801.8,232.0
801.86,235.0
801.93,218.0
801.99,232.0
802.05,247.0
802.12,241.0
802.18,228.0
802.24,219.0
802.3,231.0
802.37,242.0
802.43,230.0
802.49,236.0
802.56,242.0
802.62,254.0
802.68,251.0
802.75,238.0
802.81,220.0
802.87,221.0
802.93,217.0
803.0,228.0
803.06,227.0
803.12,218.0
803.19,233.0
803.25,231.0
803.31,225.0
803.38,216.0
803.44,218.0
803.5,204.0
803.56,224.0
803.63,212.0
803.69,207.0
803.75,217.0
803.82,206.0
803.88,192.0
803.94,193.0
804.01,192.0
804.07,210.0
804.13,188.0
804.19,183.0
804.26,190.0
804.32,181.0
804.38,192.0
804.45,177.0
804.51,169.0
804.57,193.0
804.64,185.0
804.7,157.0
804.76,181.0
804.82,185.0
804.89,179.0
804.95,178.0
805.01,182.0
805.08,160.0
805.14,149.0
805.2,144.0
805.27,150.0
805.33,133.0
805.39,137.0
805.45,162.0
805.52,134.0
805.58,135.0
805.64,159.0
805.71,147.0
805.77,144.0
805.83,149.0
805.9,158.0
805.96,153.0
806.02,144.0
806.08,133.0
806.15,139.0
806.21,138.0
806.27,128.0
806.34,122.0
806.4,129.0
806.46,141.0
806.53,144.0
806.59,142.0
806.65,137.0
806.71,124.0
806.78,108.0
806.84,136.0
806.9,110.0
806.97,132.0
807.03,149.0
807.09,110.0
807.16,107.0
807.22,113.0
807.28,126.0
807.34,115.0
807.41,125.0
807.47,130.0
807.53,134.0
807.6,120.0
807.66,105.0
807.72,125.0
807.79,124.0
807.85,117.0
807.91,110.0
807.97,120.0
808.04,103.0
808.1,118.0
808.16,98.0
808.23,114.0
808.29,103.0
808.35,96.0
808.42,109.0
808.48,112.0
808.54,99.0
808.6,106.0
808.67,118.0
808.73,108.0
808.79,108.0
808.86,108.0
808.92,114.0
808.98,100.0
809.05,111.0
809.11,133.0
809.17,117.0
809.23,147.0
809.3,139.0
809.36,144.0
809.42,138.0
809.49,123.0
809.55,124.0
809.61,127.0
809.68,128.0
809.74,127.0
809.8,127.0
809.86,141.0
809.93,149.0
809.99,155.0
810.05,144.0
810.12,132.0
810.18,151.0
810.24,155.0
810.31,146.0
810.37,154.0
810.43,147.0
810.49,140.0
810.56,140.0
810.62,146.0
810.68,145.0
810.75,116.0
810.81,122.0
810.87,136.0
810.94,131.0
811.0,119.0
811.06,112.0
811.12,99.0
811.19,96.0
811.25,93.0
811.31,81.0
811.38,78.0
811.44,96.0
811.5,108.0
811.57,113.0
811.63,121.0
811.69,96.0
811.75,103.0
811.82,107.0
811.88,105.0
811.94,110.0
812.01,104.0
812.07,107.0
812.13,112.0
812.2,139.0
812.26,126.0
812.32,118.0
812.38,133.0
812.45,119.0
812.51,107.0
812.57,112.0
812.64,133.0
812.7,116.0
812.76,116.0
812.83,116.0
812.89,116.0
812.95,142.0
813.01,130.0
813.08,144.0
813.14,136.0
813.2,126.0
813.27,134.0
813.33,140.0
813.39,145.0
813.46,138.0
813.52,133.0
813.58,158.0
813.64,154.0
813.71,170.0
813.77,139.0
813.83,132.0
813.9,147.0
813.96,142.0
814.02,141.0
814.09,132.0
814.15,125.0
814.21,138.0
814.27,130.0
814.34,138.0
814.4,135.0
814.46,136.0
814.53,144.0
814.59,139.0
814.65,150.0
814.72,141.0
814.78,138.0
814.84,118.0
814.9,130.0
814.97,131.0
815.03,118.0
815.09,95.0
815.16,115.0
815.22,110.0
815.28,108.0
815.35,104.0
815.41,106.0
815.47,110.0
815.53,108.0
815.6,109.0
815.66,113.0
815.72,105.0
815.79,107.0
815.85,102.0
815.91,110.0
815.98,99.0
816.04,78.0
816.1,94.0
816.16,99.0
816.23,103.0
816.29,117.0
816.35,129.0
816.42,107.0
816.48,132.0
816.54,122.0
816.61,119.0
816.67,110.0
816.73,94.0
816.79,114.0
816.86,118.0
816.92,121.0
816.98,137.0
817.05,144.0
817.11,136.0
817.17,142.0
817.24,131.0
817.3,153.0
817.36,132.0
817.42,153.0
817.49,159.0
817.55,155.0
817.61,170.0
817.68,152.0
817.74,169.0
817.8,175.0
817.87,150.0
817.93,156.0
817.99,155.0
818.05,147.0
818.12,143.0
818.18,152.0
818.24,152.0
818.31,141.0
818.37,153.0
818.43,170.0
818.5,172.0
818.56,184.0
818.62,182.0
818.68,179.0
818.75,166.0
818.81,158.0
818.87,152.0
818.94,173.0
819.0,174.0
819.06,174.0
819.13,186.0
819.19,167.0
819.25,192.0
819.31,188.0
819.38,178.0
819.44,181.0
819.5,188.0
819.57,186.0
819.63,195.0
819.69,195.0
819.76,217.0
819.82,209.0
819.88,190.0
819.94,194.0
820.01,179.0
820.07,205.0
820.13,179.0
820.2,189.0
820.26,205.0
820.32,196.0
820.39,217.0
820.45,201.0
820.51,214.0
820.57,238.0
820.64,222.0
820.7,220.0
820.76,218.0
820.83,199.0
820.89,200.0
820.95,205.0
821.02,197.0
821.08,198.0
821.14,195.0
821.2,180.0
821.27,165.0
821.33,159.0
821.39,190.0
821.46,190.0
821.52,171.0
821.58,173.0
821.65,180.0
821.71,156.0
821.77,147.0
821.83,173.0
821.9,177.0
821.96,175.0
822.02,164.0
822.09,184.0
822.15,190.0
822.21,173.0
822.28,182.0
822.34,200.0
822.4,208.0
822.46,188.0
822.53,194.0
822.59,191.0
822.65,191.0
822.72,192.0
822.78,188.0
822.84,170.0
822.91,179.0
822.97,162.0
823.03,143.0
823.09,141.0
823.16,150.0
823.22,140.0
823.28,140.0
823.35,155.0
823.41,134.0
823.47,147.0
823.54,135.0
823.6,126.0
823.66,126.0
823.72,110.0
823.79,116.0
823.85,118.0
823.91,98.0
823.98,110.0
824.04,127.0
824.1,115.0
824.17,102.0
824.23,124.0
824.29,122.0
824.35,133.0
824.42,129.0
824.48,141.0
824.54,153.0
824.61,131.0
824.67,137.0
824.73,118.0
824.8,129.0
824.86,124.0
824.92,111.0
824.98,104.0
825.05,111.0
825.11,116.0
825.17,116.0
825.24,119.0
825.3,113.0
825.36,107.0
825.43,123.0
825.49,103.0
825.55,96.0
825.61,100.0
825.68,114.0
825.74,125.0
825.8,127.0
825.87,121.0
825.93,118.0
825.99,119.0
826.06,123.0
826.12,113.0
826.18,110.0
826.24,126.0
826.31,122.0
826.37,136.0
826.43,142.0
826.5,127.0
826.56,135.0
826.62,124.0
826.69,121.0
826.75,121.0
826.81,135.0
826.87,121.0
826.94,130.0
827.0,122.0
827.06,126.0
827.13,145.0
827.19,135.0
827.25,125.0
827.32,115.0
827.38,147.0
827.44,134.0
827.5,151.0
827.57,131.0
827.63,118.0
827.69,113.0
827.76,123.0
827.82,144.0
827.88,106.0
827.95,121.0
828.01,121.0
828.07,125.0
828.13,139.0
828.2,130.0
828.26,127.0
828.32,147.0
828.39,151.0
828.45,141.0
828.51,144.0
828.58,174.0
828.64,156.0
828.7,164.0
828.76,157.0
828.83,157.0
828.89,156.0
828.95,159.0
829.02,153.0
829.08,145.0
829.14,122.0
829.21,130.0
829.27,151.0
829.33,130.0
829.39,129.0
829.46,133.0
829.52,134.0
829.58,114.0
829.65,123.0
829.71,133.0
829.77,138.0
829.84,132.0
829.9,124.0
829.96,116.0
830.02,91.0
830.09,113.0
830.15,115.0
830.21,92.0
830.28,83.0
830.34,96.0
830.4,97.0
830.47,97.0
830.53,92.0
830.59,100.0
830.65,106.0
830.72,104.0
830.78,102.0
830.84,116.0
830.91,144.0
830.97,159.0
831.03,146.0
831.1,151.0
831.16,158.0
831.22,163.0
831.28,150.0
831.35,166.0
831.41,148.0
831.47,151.0
831.54,163.0
831.6,174.0
831.66,166.0
831.73,149.0
831.79,145.0
831.85,155.0
831.91,146.0
831.98,166.0
832.04,148.0
832.1,147.0
832.17,158.0
832.23,135.0
832.29,140.0
832.36,151.0
832.42,139.0
832.48,138.0
832.54,160.0
832.61,146.0
832.67,128.0
832.73,111.0
832.8,107.0
832.86,136.0
832.92,146.0
832.99,143.0
833.05,123.0
833.11,118.0
833.17,126.0
833.24,116.0
833.3,115.0
833.36,139.0
833.43,130.0
833.49,118.0
833.55,119.0
833.62,122.0
833.68,131.0
833.74,151.0
833.8,148.0
833.87,158.0
833.93,142.0
833.99,130.0
834.06,146.0
834.12,165.0
834.18,145.0
834.25,143.0
834.31,142.0
834.37,178.0
834.43,169.0
834.5,147.0
834.56,172.0
834.62,166.0
834.69,177.0
834.75,170.0
834.81,176.0
834.88,180.0
834.94,175.0
835.0,175.0
835.06,183.0
835.13,209.0
835.19,190.0
835.25,206.0
835.32,207.0
835.38,213.0
835.44,213.0
835.51,219.0
835.57,209.0
835.63,201.0
835.69,191.0
835.76,217.0
835.82,203.0
835.88,213.0
835.95,210.0
836.01,199.0
836.07,203.0
836.14,205.0
836.2,215.0
836.26,213.0
836.32,203.0
836.39,211.0
836.45,213.0
836.51,203.0
836.58,197.0
836.64,203.0
836.7,202.0
836.77,222.0
836.83,224.0
836.89,228.0
836.95,246.0
837.02,229.0
837.08,221.0
837.14,227.0
837.21,214.0
837.27,219.0
837.33,221.0
837.4,232.0
837.46,248.0
837.52,230.0
837.58,232.0
837.65,221.0
837.71,234.0
837.77,225.0
837.84,236.0
837.9,254.0
837.96,244.0
838.03,234.0
838.09,213.0
838.15,208.0
838.21,207.0
838.28,206.0
838.34,210.0
838.4,214.0
838.47,195.0
838.53,182.0
838.59,151.0
838.66,161.0
838.72,138.0
838.78,105.0
838.84,135.0
838.91,145.0
838.97,173.0
839.03,140.0
839.1,185.0
839.16,174.0
839.22,162.0
839.29,176.0
839.35,170.0
839.41,160.0
839.47,144.0
839.54,152.0
839.6,171.0
839.66,157.0
839.73,174.0
839.79,181.0
839.85,168.0
839.92,182.0
839.98,169.0
840.04,154.0
840.1,151.0
840.17,165.0
840.23,168.0
840.29,172.0
840.36,152.0
840.42,150.0
840.48,137.0
840.55,118.0
840.61,144.0
840.67,112.0
840.73,100.0
840.8,105.0
840.86,111.0
840.92,138.0
840.99,151.0
841.05,145.0
841.11,132.0
841.18,143.0
841.24,127.0
841.3,127.0
841.36,155.0
841.43,154.0
841.49,133.0
841.55,131.0
841.62,172.0
841.68,150.0
841.74,154.0
841.81,144.0
841.87,152.0
841.93,143.0
841.99,133.0
842.06,128.0
842.12,158.0
842.18,145.0
842.25,165.0
842.31,164.0
842.37,153.0
842.44,143.0
842.5,118.0
842.56,164.0
842.62,166.0
842.69,157.0
842.75,140.0
842.81,129.0
842.88,138.0
842.94,154.0
843.0,173.0
843.07,170.0
843.13,143.0
843.19,141.0
843.25,124.0
843.32,108.0
843.38,118.0
843.44,112.0
843.51,119.0
843.57,153.0
843.63,170.0
843.7,151.0
843.76,129.0
843.82,124.0
843.88,89.0
843.95,102.0
844.01,78.0
844.07,70.0
844.14,65.0
844.2,73.0
844.26,85.0
844.33,89.0
844.39,78.0
844.45,51.0
844.51,79.0
844.58,86.0
844.64,133.0
844.7,154.0
844.77,140.0
844.83,135.0
844.89,146.0
844.96,138.0
845.02,146.0
845.08,134.0
845.14,132.0
845.21,147.0
845.27,119.0
845.33,94.0
845.4,100.0
845.46,112.0
845.52,94.0
845.59,89.0
845.65,94.0
845.71,93.0
845.77,102.0
845.84,123.0
845.9,125.0
845.96,108.0
846.03,104.0
846.09,118.0
846.15,122.0
846.22,127.0
846.28,102.0
846.34,102.0
846.4,124.0
846.47,113.0
846.53,135.0
846.59,133.0
846.66,135.0
846.72,144.0
846.78,133.0
846.85,156.0
846.91,154.0
846.97,171.0
847.03,175.0
847.1,204.0
847.16,196.0
847.22,151.0
847.29,171.0
847.35,154.0
847.41,173.0
847.48,193.0
847.54,210.0
847.6,206.0
847.66,146.0
847.73,163.0
847.79,150.0
847.85,139.0
847.92,164.0
847.98,175.0
848.04,183.0
848.11,168.0
848.17,177.0
848.23,184.0
848.29,158.0
848.36,160.0
848.42,132.0
848.48,127.0
848.55,119.0
848.61,108.0
848.67,146.0
848.74,121.0
848.8,132.0
848.86,105.0
848.92,107.0
848.99,111.0
849.05,107.0
849.11,131.0
849.18,135.0
849.24,129.0
849.3,128.0
849.37,138.0
849.43,129.0
849.49,119.0
849.55,121.0
849.62,137.0
849.68,155.0
849.74,168.0
849.81,194.0
849.87,184.0
849.93,153.0
850.0,147.0
850.06,160.0
850.12,155.0
850.18,179.0
850.25,151.0
850.31,179.0
850.37,174.0
850.44,171.0
850.5,178.0
850.56,185.0
850.63,143.0
850.69,120.0
850.75,138.0
850.81,127.0
850.88,134.0
850.94,151.0
851.0,142.0
851.07,136.0
851.13,127.0
851.19,125.0
851.26,132.0
851.32,150.0
851.38,131.0
851.44,133.0
851.51,127.0
851.57,115.0
851.63,130.0
851.7,135.0
851.76,139.0
851.82,124.0
851.89,144.0
851.95,150.0
852.01,154.0
852.07,141.0
852.14,149.0
852.2,152.0
852.26,170.0
852.33,168.0
852.39,170.0
852.45,174.0
852.52,169.0
852.58,184.0
852.64,188.0
852.7,184.0
852.77,196.0
852.83,206.0
852.89,207.0
852.96,209.0
853.02,206.0
853.08,221.0
853.15,213.0
853.21,218.0
853.27,223.0
853.33,209.0
853.4,198.0
853.46,232.0
853.52,205.0
853.59,220.0
853.65,215.0
853.71,192.0
853.78,196.0
853.84,207.0
853.9,228.0
853.96,209.0
854.03,221.0
854.09,246.0
854.15,191.0
854.22,184.0
854.28,184.0
854.34,175.0
854.41,173.0
854.47,170.0
854.53,148.0
854.59,149.0
854.66,179.0
854.72,168.0
854.78,177.0
854.85,166.0
854.91,175.0
854.97,171.0
855.04,158.0
855.1,134.0
855.16,159.0
855.22,164.0
855.29,159.0
855.35,135.0
855.41,124.0
855.48,134.0
855.54,143.0
855.6,124.0
855.67,141.0
855.73,136.0
855.79,134.0
855.85,151.0
855.92,144.0
855.98,144.0
856.04,143.0
856.11,135.0
856.17,129.0
856.23,149.0
856.3,158.0
856.36,123.0
856.42,120.0
856.48,104.0
856.55,118.0
856.61,122.0
856.67,114.0
856.74,113.0
856.8,92.0
856.86,87.0
856.93,73.0
856.99,69.0
857.05,69.0
857.11,82.0
857.18,82.0
857.24,74.0
857.3,63.0
857.37,55.0
857.43,78.0
857.49,93.0
857.56,78.0
857.62,84.0
857.68,97.0
857.74,116.0
857.81,125.0
857.87,107.0
857.93,119.0
858.0,92.0
858.06,80.0
858.12,72.0
858.19,74.0
858.25,96.0
858.31,96.0
858.37,87.0
858.44,92.0
858.5,94.0
858.56,91.0
858.63,103.0
858.69,117.0
858.75,108.0
858.82,125.0
858.88,111.0
858.94,151.0
859.0,161.0
859.07,152.0
859.13,150.0
859.19,142.0
859.26,124.0
859.32,130.0
859.38,155.0
859.45,141.0
859.51,137.0
859.57,119.0
859.63,103.0
859.7,118.0
859.76,103.0
859.82,130.0
859.89,117.0
859.95,94.0
860.01,83.0
860.08,74.0
860.14,105.0
860.2,103.0
860.26,100.0
860.33,80.0
860.39,78.0
860.45,81.0
860.52,94.0
860.58,113.0
860.64,103.0
860.71,104.0
860.77,111.0
860.83,93.0
860.89,104.0
860.96,132.0
861.02,115.0
861.08,100.0
861.15,90.0
861.21,98.0
861.27,113.0
861.34,129.0
861.4,130.0
861.46,111.0
861.52,108.0
861.59,111.0
861.65,121.0
861.71,102.0
861.78,104.0
861.84,103.0
861.9,97.0
861.97,99.0
862.03,83.0
862.09,55.0
862.15,85.0
862.22,89.0
862.28,95.0
862.34,89.0
862.41,83.0
862.47,96.0
862.53,108.0
862.6,99.0
862.66,119.0
862.72,111.0
862.78,83.0
862.85,107.0
862.91,136.0
862.97,134.0
863.04,101.0
863.1,91.0
863.16,85.0
863.23,94.0
863.29,85.0
863.35,105.0
863.41,137.0
863.48,113.0
863.54,127.0
863.6,94.0
863.67,130.0
863.73,111.0
863.79,95.0
863.86,121.0
863.92,118.0
863.98,135.0
864.04,120.0
864.11,126.0
864.17,133.0
864.23,121.0
864.3,133.0
864.36,124.0
864.42,122.0
864.49,100.0
864.55,100.0
864.61,101.0
864.67,83.0
864.74,100.0
864.8,114.0
864.86,120.0
864.93,148.0
864.99,146.0
865.05,158.0
865.12,140.0
865.18,116.0
865.24,136.0
865.3,123.0
865.37,127.0
865.43,138.0
865.49,135.0
865.56,132.0
865.62,121.0
865.68,128.0
865.75,125.0
865.81,127.0
865.87,119.0
865.93,108.0
866.0,104.0
866.06,108.0
866.12,111.0
866.19,93.0
866.25,90.0
866.31,111.0
866.38,140.0
866.44,133.0
866.5,122.0
866.56,129.0
866.63,143.0
866.69,156.0
866.75,169.0
866.82,161.0
866.88,158.0
866.94,157.0
867.01,169.0
867.07,163.0
867.13,177.0
867.19,181.0
867.26,190.0
867.32,148.0
867.38,164.0
867.45,172.0
867.51,173.0
867.57,178.0
867.64,186.0
867.7,199.0
867.76,198.0
867.82,188.0
867.89,187.0
867.95,183.0
868.01,183.0
868.08,181.0
868.14,162.0
868.2,190.0
868.27,210.0
868.33,210.0
868.39,200.0
868.45,206.0
868.52,204.0
868.58,190.0
868.64,193.0
868.71,170.0
868.77,179.0
868.83,175.0
868.9,162.0
868.96,185.0
869.02,190.0
869.08,204.0
869.15,221.0
869.21,204.0
869.27,209.0
869.34,236.0
869.4,228.0
869.46,225.0
869.53,203.0
869.59,206.0
869.65,210.0
869.71,211.0
869.78,219.0
869.84,223.0
869.9,220.0
869.97,206.0
870.03,229.0
870.09,237.0
870.16,237.0
870.22,246.0
870.28,249.0
870.34,239.0
870.41,276.0
870.47,264.0
870.53,268.0
870.6,262.0
870.66,264.0
870.72,254.0
870.79,245.0
870.85,258.0
870.91,259.0
870.97,252.0
871.04,257.0
871.1,225.0
871.16,238.0
871.23,234.0
871.29,220.0
871.35,202.0
871.42,197.0
871.48,202.0
871.54,212.0
871.6,205.0
871.67,204.0
871.73,206.0
871.79,187.0
871.86,208.0
871.92,192.0
871.98,185.0
872.05,182.0
872.11,173.0
872.17,167.0
872.23,179.0
872.3,196.0
872.36,197.0
872.42,183.0
872.49,168.0
872.55,175.0
872.61,178.0
872.68,170.0
872.74,177.0
872.8,175.0
872.86,145.0
872.93,171.0
872.99,193.0
873.05,222.0
873.12,217.0
873.18,184.0
873.24,223.0
873.31,214.0
873.37,201.0
873.43,207.0
873.49,208.0
873.56,199.0
873.62,197.0
873.68,190.0
873.75,180.0
873.81,175.0
873.87,168.0
873.94,150.0
874.0,120.0
874.06,147.0
874.12,177.0
874.19,144.0
874.25,137.0
874.31,139.0
874.38,154.0
874.44,156.0
874.5,149.0
874.57,149.0
874.63,110.0
874.69,115.0
874.75,136.0
874.82,108.0
874.88,126.0
874.94,118.0
875.01,135.0
875.07,111.0
875.13,97.0
875.2,114.0
875.26,96.0
875.32,91.0
875.38,88.0
875.45,107.0
875.51,134.0
875.57,124.0
875.64,115.0
875.7,108.0
875.76,122.0
875.83,127.0
875.89,135.0
875.95,125.0
876.01,121.0
876.08,123.0
876.14,124.0
876.2,134.0
876.27,126.0
876.33,143.0
876.39,130.0
876.46,124.0
876.52,121.0
876.58,124.0
876.64,103.0
876.71,125.0
876.77,121.0
876.83,103.0
876.9,101.0
876.96,96.0
877.02,89.0
877.09,96.0
877.15,81.0
877.21,73.0
877.27,60.0
877.34,65.0
877.4,67.0
877.46,69.0
877.53,56.0
877.59,48.0
877.65,49.0
877.72,71.0
877.78,73.0
877.84,65.0
877.9,78.0
877.97,70.0
878.03,76.0
878.09,89.0
878.16,67.0
878.22,59.0
878.28,60.0
878.35,45.0
878.41,38.0
878.47,41.0
878.53,39.0
878.6,53.0
878.66,62.0
878.72,55.0
878.79,46.0
878.85,70.0
878.91,54.0
878.98,59.0
879.04,60.0
879.1,29.0
879.16,17.0
879.23,6.0
879.29,23.0
879.35,30.0
879.42,20.0
879.48,30.0
879.54,33.0
879.61,23.0
879.67,3.0
879.73,-2.0
879.79,48.0
879.86,51.0
879.92,36.0
879.98,70.0
880.05,57.0
880.11,56.0
880.17,67.0
880.24,80.0
880.3,79.0
880.36,99.0
880.42,93.0
880.49,74.0
880.55,81.0
880.61,55.0
880.68,60.0
880.74,80.0
880.8,69.0
880.87,80.0
880.93,82.0
880.99,72.0
881.05,84.0
881.12,64.0
881.18,75.0
881.24,77.0
881.31,82.0
881.37,70.0
881.43,81.0
881.5,96.0
881.56,63.0
881.62,73.0
881.68,76.0
881.75,64.0
881.81,69.0
881.87,79.0
881.94,81.0
882.0,61.0
882.06,70.0
882.13,55.0
882.19,55.0
882.25,55.0
882.31,44.0
882.38,51.0
882.44,56.0
882.5,36.0
882.57,34.0
882.63,46.0
882.69,45.0
882.76,56.0
882.82,75.0
882.88,55.0
882.94,66.0
883.01,53.0
883.07,48.0
883.13,52.0
883.2,73.0
883.26,61.0
883.32,71.0
883.39,91.0
883.45,77.0
883.51,75.0
883.57,78.0
883.64,84.0
883.7,83.0
883.76,57.0
883.83,51.0
883.89,67.0
883.95,82.0
884.02,71.0
884.08,61.0
884.14,60.0
884.2,95.0
884.27,88.0
884.33,108.0
884.39,99.0
884.46,102.0
884.52,121.0
884.58,122.0
884.65,136.0
884.71,130.0
884.77,138.0
884.83,152.0
884.9,133.0
884.96,131.0
885.02,138.0
885.09,142.0
885.15,163.0
885.21,177.0
885.28,168.0
885.34,158.0
885.4,163.0
885.46,140.0
885.53,142.0
885.59,154.0
885.65,155.0
885.72,144.0
885.78,133.0
885.84,150.0
885.91,131.0
885.97,132.0
886.03,129.0
886.09,123.0
886.16,113.0
886.22,125.0
886.28,139.0
886.35,140.0
886.41,151.0
886.47,158.0
886.54,172.0
886.6,173.0
886.66,158.0
886.72,165.0
886.79,174.0
886.85,180.0
886.91,207.0
886.98,208.0
887.04,201.0
887.1,202.0
887.17,203.0
887.23,184.0
887.29,190.0
887.35,217.0
887.42,224.0
887.48,226.0
887.54,229.0
887.61,233.0
887.67,217.0
887.73,226.0
887.8,232.0
887.86,198.0
887.92,213.0
887.98,216.0
888.05,218.0
888.11,230.0
888.17,212.0
888.24,211.0
888.3,198.0
888.36,193.0
888.43,199.0
888.49,207.0
888.55,177.0
888.61,169.0
888.68,179.0
888.74,177.0
888.8,166.0
888.87,157.0
888.93,163.0
888.99,165.0
889.06,151.0
889.12,144.0
889.18,146.0
889.24,151.0
889.31,171.0
889.37,158.0
889.43,176.0
889.5,168.0
889.56,168.0
889.62,155.0
889.69,147.0
889.75,143.0
889.81,148.0
889.87,158.0
889.94,153.0
890.0,149.0
890.06,171.0
890.13,176.0
890.19,183.0
890.25,154.0
890.32,159.0
890.38,154.0
890.44,149.0
890.5,161.0
890.57,169.0
890.63,187.0
890.69,187.0
890.76,191.0
890.82,179.0
890.88,173.0
890.95,165.0
891.01,174.0
891.07,175.0
891.13,152.0
891.2,144.0
891.26,149.0
891.32,150.0
891.39,160.0
891.45,158.0
891.51,167.0
891.58,155.0
891.64,146.0
891.7,144.0
891.76,120.0
891.83,126.0
891.89,138.0
891.95,124.0
892.02,121.0
892.08,140.0
892.14,136.0
892.21,137.0
892.27,143.0
892.33,131.0
892.39,125.0
892.46,157.0
892.52,157.0
892.58,146.0
892.65,141.0
892.71,150.0
892.77,126.0
892.84,128.0
892.9,106.0
892.96,131.0
893.02,136.0
893.09,126.0
893.15,126.0
893.21,137.0
893.28,138.0
893.34,173.0
893.4,158.0
893.47,139.0
893.53,127.0
893.59,138.0
893.65,136.0
893.72,133.0
893.78,110.0
893.84,121.0
893.91,122.0
893.97,103.0
894.03,124.0
894.1,114.0
894.16,129.0
894.22,114.0
894.28,116.0
894.35,125.0
894.41,125.0
894.47,121.0
894.54,139.0
894.6,128.0
894.66,127.0
894.73,133.0
894.79,136.0
894.85,151.0
894.91,161.0
894.98,145.0
895.04,139.0
895.1,142.0
895.17,125.0
895.23,144.0
895.29,111.0
895.36,136.0
895.42,117.0
895.48,110.0
895.54,93.0
895.61,105.0
895.67,101.0
895.73,111.0
895.8,121.0
895.86,103.0
895.92,99.0
895.99,92.0
896.05,114.0
896.11,102.0
896.17,110.0
896.24,130.0
896.3,102.0
896.36,111.0
896.43,121.0
896.49,116.0
896.55,119.0
896.62,127.0
896.68,129.0
896.74,127.0
896.8,127.0
896.87,116.0
896.93,98.0
896.99,125.0
897.06,117.0
897.12,108.0
897.18,95.0
897.25,104.0
897.31,99.0
897.37,121.0
897.43,99.0
897.5,114.0
897.56,123.0
897.62,105.0
897.69,126.0
897.75,115.0
897.81,105.0
897.88,118.0
897.94,136.0
898.0,122.0
898.06,107.0
898.13,112.0
898.19,81.0
898.25,100.0
898.32,102.0
898.38,99.0
898.44,106.0
898.51,111.0
898.57,138.0
898.63,120.0
898.69,138.0
898.76,127.0
898.82,135.0
898.88,151.0
898.95,152.0
899.01,152.0
899.07,139.0
899.14,130.0
899.2,108.0
899.26,114.0
899.32,130.0
899.39,104.0
899.45,141.0
899.51,139.0
899.58,126.0
899.64,121.0
899.7,110.0
899.77,100.0
899.83,114.0
899.89,102.0
899.95,107.0
900.02,107.0
900.08,113.0
900.14,133.0
900.21,121.0
900.27,94.0
900.33,96.0
900.4,115.0
900.46,97.0
900.52,101.0
900.58,116.0
900.65,133.0
900.71,136.0
900.77,119.0
900.84,121.0
900.9,95.0
900.96,104.0
901.03,96.0
901.09,85.0
901.15,79.0
901.21,105.0
901.28,121.0
901.34,119.0
901.4,121.0
901.47,135.0
901.53,130.0
901.59,106.0
901.66,93.0
901.72,105.0
901.78,102.0
901.84,97.0
901.91,111.0
901.97,104.0
902.03,119.0
902.1,135.0
902.16,132.0
902.22,141.0
902.29,163.0
902.35,159.0
902.41,157.0
902.47,165.0
902.54,169.0
902.6,158.0
902.66,165.0
902.73,163.0
902.79,149.0
902.85,165.0
902.92,166.0
902.98,168.0
903.04,163.0
903.1,178.0
903.17,170.0
903.23,181.0
903.29,170.0
903.36,159.0
903.42,154.0
903.48,157.0
903.55,172.0
903.61,165.0
903.67,165.0
903.73,172.0
903.8,181.0
903.86,179.0
903.92,188.0
903.99,202.0
904.05,184.0
904.11,191.0
904.18,194.0
904.24,179.0
904.3,199.0
904.36,195.0
904.43,184.0
904.49,191.0
904.55,190.0
904.62,186.0
904.68,190.0
904.74,192.0
904.81,201.0
904.87,210.0
904.93,209.0
904.99,200.0
905.06,207.0
905.12,220.0
905.18,228.0
905.25,223.0
905.31,214.0
905.37,217.0
905.44,209.0
905.5,221.0
905.56,207.0
905.62,216.0
905.69,217.0
905.75,214.0
905.81,198.0
905.88,217.0
905.94,217.0
906.0,191.0
906.07,211.0
906.13,223.0
906.19,185.0
906.25,200.0
906.32,207.0
906.38,205.0
906.44,209.0
906.51,221.0
906.57,215.0
906.63,218.0
906.7,230.0
906.76,224.0
906.82,216.0
906.88,209.0
906.95,232.0
907.01,205.0
907.07,204.0
907.14,182.0
907.2,195.0
907.26,188.0
907.33,175.0
907.39,174.0
907.45,182.0
907.51,189.0
907.58,176.0
907.64,165.0
907.7,183.0
907.77,184.0
907.83,182.0
907.89,197.0
907.96,179.0
908.02,183.0
908.08,181.0
908.14,182.0
908.21,187.0
908.27,168.0
908.33,187.0
908.4,157.0
908.46,166.0
908.52,169.0
908.59,155.0
908.65,173.0
908.71,194.0
908.77,192.0
908.84,158.0
908.9,160.0
908.96,191.0
909.03,195.0
909.09,192.0
909.15,201.0
909.22,209.0
909.28,203.0
909.34,192.0
909.4,204.0
909.47,202.0
909.53,225.0
909.59,194.0
909.66,183.0
909.72,202.0
909.78,189.0
909.85,202.0
909.91,185.0
909.97,196.0
910.03,202.0
910.1,187.0
910.16,192.0
910.22,197.0
910.29,161.0
910.35,169.0
910.41,154.0
910.48,162.0
910.54,164.0
910.6,132.0
910.66,151.0
910.73,133.0
910.79,135.0
910.85,151.0
910.92,146.0
910.98,150.0
911.04,147.0
911.11,130.0
911.17,143.0
911.23,140.0
911.29,128.0
911.36,121.0
911.42,116.0
911.48,137.0
911.55,136.0
911.61,113.0
911.67,114.0
911.74,121.0
911.8,105.0
911.86,121.0
911.92,123.0
911.99,110.0
912.05,108.0
912.11,104.0
912.18,119.0
912.24,135.0
912.3,122.0
912.37,103.0
912.43,128.0
912.49,136.0
912.55,139.0
912.62,150.0
912.68,142.0
912.74,118.0
912.81,158.0
912.87,158.0
912.93,143.0
913.0,126.0
913.06,153.0
913.12,180.0
913.18,179.0
913.25,180.0
913.31,180.0
913.37,172.0
913.44,175.0
913.5,183.0
913.56,138.0
913.63,155.0
913.69,144.0
913.75,129.0
913.81,159.0
913.88,150.0
913.94,155.0
914.0,151.0
914.07,144.0
914.13,131.0
914.19,121.0
914.26,124.0
914.32,118.0
914.38,103.0
914.44,122.0
914.51,124.0
914.57,130.0
914.63,130.0
914.7,127.0
914.76,138.0
914.82,129.0
914.89,149.0
914.95,149.0
915.01,148.0
915.07,138.0
915.14,135.0
915.2,139.0
915.26,132.0
915.33,126.0
915.39,122.0
915.45,149.0
915.52,143.0
915.58,147.0
915.64,162.0
915.7,162.0
915.77,155.0
915.83,153.0
915.89,135.0
915.96,124.0
916.02,113.0
916.08,130.0
916.15,113.0
916.21,100.0
916.27,104.0
916.33,109.0
916.4,106.0
916.46,105.0
916.52,99.0
916.59,116.0
916.65,133.0
916.71,106.0
916.78,94.0
916.84,73.0
916.9,77.0
916.96,105.0
917.03,105.0
917.09,111.0
917.15,114.0
917.22,115.0
917.28,114.0
917.34,109.0
917.41,130.0
917.47,130.0
917.53,129.0
917.59,143.0
917.66,132.0
917.72,126.0
917.78,138.0
917.85,125.0
917.91,118.0
917.97,118.0
918.04,116.0
918.1,129.0
918.16,124.0
918.22,126.0
918.29,147.0
918.35,136.0
918.41,143.0
918.48,147.0
918.54,135.0
918.6,151.0
918.67,150.0
918.73,125.0
918.79,138.0
918.85,145.0
918.92,134.0
918.98,145.0
919.04,140.0
919.11,149.0
919.17,132.0
919.23,121.0
919.3,139.0
919.36,136.0
919.42,158.0
919.48,150.0
919.55,153.0
919.61,161.0
919.67,159.0
919.74,167.0
919.8,144.0
919.86,143.0
919.93,157.0
919.99,161.0
920.05,157.0
920.11,169.0
920.18,170.0
920.24,165.0
920.3,176.0
920.37,172.0
920.43,162.0
920.49,169.0
920.56,180.0
920.62,187.0
920.68,204.0
920.74,206.0
920.81,199.0
920.87,191.0
920.93,183.0
921.0,191.0
921.06,189.0
921.12,188.0
921.19,211.0
921.25,198.0
921.31,196.0
921.37,188.0
921.44,175.0
921.5,167.0
921.56,141.0
921.63,151.0
921.69,152.0
921.75,169.0
921.82,165.0
921.88,151.0
921.94,150.0
922.0,146.0
922.07,136.0
922.13,136.0
922.19,143.0
922.26,145.0
922.32,141.0
922.38,133.0
922.45,137.0
922.51,127.0
922.57,119.0
922.63,136.0
922.7,135.0
922.76,141.0
922.82,136.0
922.89,139.0
922.95,131.0
923.01,118.0
923.08,123.0
923.14,135.0
923.2,132.0
923.26,139.0
923.33,121.0
923.39,127.0
923.45,110.0
923.52,143.0
923.58,138.0
923.64,131.0
923.71,122.0
923.77,130.0
923.83,118.0
923.89,106.0
923.96,114.0
924.02,117.0
924.08,124.0
924.15,127.0
924.21,119.0
924.27,106.0
924.34,88.0
924.4,102.0
924.46,114.0
924.52,89.0
924.59,82.0
924.65,109.0
924.71,75.0
924.78,74.0
924.84,103.0
924.9,104.0
924.97,88.0
925.03,84.0
925.09,86.0
925.15,102.0
925.22,77.0
925.28,89.0
925.34,88.0
925.41,96.0
925.47,120.0
925.53,124.0
925.6,121.0
925.66,122.0
925.72,118.0
925.78,118.0
925.85,133.0
925.91,125.0
925.97,139.0
926.04,134.0
926.1,128.0
926.16,122.0
926.23,106.0
926.29,121.0
926.35,144.0
926.41,123.0
926.48,121.0
926.54,135.0
926.6,115.0
926.67,115.0
926.73,110.0
926.79,120.0
926.86,113.0
926.92,107.0
926.98,91.0
927.04,99.0
927.11,94.0
927.17,77.0
927.23,87.0
927.3,74.0
927.36,77.0
927.42,94.0
927.49,83.0
927.55,89.0
927.61,63.0
927.67,80.0
927.74,76.0
927.8,55.0
927.86,62.0
927.93,45.0
927.99,53.0
928.05,62.0
928.12,51.0
928.18,60.0
928.24,75.0
928.3,84.0
928.37,48.0
928.43,38.0
928.49,56.0
928.56,73.0
928.62,70.0
928.68,72.0
928.75,89.0
928.81,83.0
928.87,97.0
928.93,96.0
929.0,92.0
929.06,77.0
929.12,90.0
929.19,69.0
929.25,67.0
929.31,70.0
929.38,79.0
929.44,92.0
929.5,89.0
929.56,97.0
929.63,72.0
929.69,72.0
929.75,107.0
929.82,123.0
929.88,119.0
929.94,122.0
930.01,94.0
930.07,87.0
930.13,83.0
930.19,80.0
930.26,78.0
930.32,85.0
930.38,107.0
930.45,112.0
930.51,111.0
930.57,116.0
930.64,130.0
930.7,126.0
930.76,129.0
930.82,122.0
930.89,111.0
930.95,125.0
931.01,114.0
931.08,128.0
931.14,129.0
931.2,125.0
931.27,119.0
931.33,114.0
931.39,107.0
931.45,128.0
931.52,117.0
931.58,124.0
931.64,130.0
931.71,119.0
931.77,122.0
931.83,116.0
931.9,121.0
931.96,131.0
932.02,132.0
932.08,125.0
932.15,128.0
932.21,110.0
932.27,120.0
932.34,141.0
932.4,119.0
932.46,110.0
932.53,118.0
932.59,120.0
932.65,121.0
932.71,113.0
932.78,107.0
932.84,127.0
932.9,110.0
932.97,115.0
933.03,107.0
933.09,124.0
933.16,131.0
933.22,113.0
933.28,121.0
933.34,131.0
933.41,159.0
933.47,158.0
933.53,143.0
933.6,160.0
933.66,158.0
933.72,160.0
933.79,169.0
933.85,164.0
933.91,171.0
933.97,183.0
934.04,165.0
934.1,184.0
934.16,190.0
934.23,191.0
934.29,198.0
934.35,188.0
934.42,204.0
934.48,198.0
934.54,193.0
934.6,177.0
934.67,181.0
934.73,187.0
934.79,180.0
934.86,201.0
934.92,176.0
934.98,182.0
935.05,180.0
935.11,186.0
935.17,186.0
935.23,212.0
935.3,190.0
935.36,201.0
935.42,199.0
935.49,202.0
935.55,202.0
935.61,216.0
935.68,227.0
935.74,245.0
935.8,231.0
935.86,231.0
935.93,228.0
935.99,243.0
936.05,251.0
936.12,238.0
936.18,234.0
936.24,249.0
936.31,257.0
936.37,251.0
936.43,255.0
936.49,246.0
936.56,248.0
936.62,267.0
936.68,265.0
936.75,270.0
936.81,270.0
936.87,294.0
936.94,276.0
937.0,263.0
937.06,240.0
937.12,256.0
937.19,251.0
937.25,261.0
937.31,256.0
937.38,241.0
937.44,245.0
937.5,243.0
937.57,248.0
937.63,234.0
937.69,250.0
937.75,216.0
937.82,222.0
937.88,224.0
937.94,242.0
938.01,221.0
938.07,236.0
938.13,241.0
938.2,210.0
938.26,232.0
938.32,216.0
938.38,227.0
938.45,212.0
938.51,214.0
938.57,238.0
938.64,228.0
938.7,225.0
938.76,241.0
938.83,230.0
938.89,227.0
938.95,240.0
939.01,238.0
939.08,248.0
939.14,231.0
939.2,241.0
939.27,231.0
939.33,236.0
939.39,232.0
939.46,216.0
939.52,238.0
939.58,221.0
939.64,232.0
939.71,250.0
939.77,228.0
939.83,246.0
939.9,240.0
939.96,240.0
940.02,239.0
940.09,236.0
940.15,246.0
940.21,230.0
940.27,239.0
940.34,261.0
940.4,253.0
940.46,263.0
940.53,253.0
940.59,238.0
940.65,223.0
940.72,222.0
940.78,213.0
940.84,220.0
940.9,219.0
940.97,212.0
941.03,226.0
941.09,225.0
941.16,219.0
941.22,216.0
941.28,207.0
941.35,204.0
941.41,217.0
941.47,210.0
941.53,197.0
941.6,180.0
941.66,177.0
941.72,180.0
941.79,159.0
941.85,157.0
941.91,147.0
941.98,167.0
942.04,164.0
942.1,163.0
942.16,165.0
942.23,168.0
942.29,163.0
942.35,152.0
942.42,153.0
942.48,147.0
942.54,152.0
942.61,143.0
942.67,153.0
942.73,149.0
942.79,139.0
942.86,131.0
942.92,140.0
942.98,137.0
943.05,128.0
943.11,129.0
943.17,124.0
943.24,147.0
943.3,148.0
943.36,149.0
943.42,152.0
943.49,165.0
943.55,150.0
943.61,153.0
943.68,163.0
943.74,180.0
943.8,145.0
943.87,129.0
943.93,140.0
943.99,138.0
944.05,134.0
944.12,138.0
944.18,136.0
944.24,141.0
944.31,124.0
944.37,132.0
944.43,144.0
944.5,128.0
944.56,109.0
944.62,117.0
944.68,112.0
944.75,100.0
944.81,100.0
944.87,113.0
944.94,102.0
945.0,107.0
945.06,107.0
945.13,101.0
945.19,84.0
945.25,92.0
945.31,114.0
945.38,100.0
945.44,108.0
945.5,98.0
945.57,90.0
945.63,120.0
945.69,94.0
945.76,77.0
945.82,78.0
945.88,88.0
945.94,78.0
946.01,89.0
946.07,68.0
946.13,63.0
946.2,78.0
946.26,58.0
946.32,80.0
946.39,45.0
946.45,61.0
946.51,70.0
946.57,79.0
946.64,91.0
946.7,95.0
946.76,79.0
946.83,82.0
946.89,62.0
946.95,81.0
947.02,91.0
947.08,53.0
947.14,56.0
947.2,61.0
947.27,80.0
947.33,88.0
947.39,86.0
947.46,81.0
947.52,95.0
947.58,82.0
947.65,76.0
947.71,80.0
947.77,77.0
947.83,86.0
947.9,95.0
947.96,86.0
948.02,88.0
948.09,72.0
948.15,66.0
948.21,89.0
948.28,63.0
948.34,91.0
948.4,91.0
948.46,83.0
948.53,94.0
948.59,92.0
948.65,55.0
948.72,77.0
948.78,80.0
948.84,74.0
948.91,70.0
948.97,64.0
949.03,76.0
949.09,57.0
949.16,66.0
949.22,61.0
949.28,74.0
949.35,67.0
949.41,44.0
949.47,58.0
949.54,50.0
949.6,63.0
949.66,42.0
949.72,40.0
949.79,62.0
949.85,29.0
949.91,42.0
949.98,33.0
950.04,34.0
950.1,60.0
950.17,26.0
950.23,23.0
950.29,29.0
950.35,26.0
950.42,37.0
950.48,43.0
950.54,17.0
950.61,33.0
950.67,30.0
950.73,42.0
950.8,44.0
950.86,54.0
950.92,65.0
950.98,67.0
951.05,90.0
951.11,99.0
951.17,107.0
951.24,105.0
951.3,121.0
951.36,138.0
951.43,124.0
951.49,124.0
951.55,105.0
951.61,134.0
951.68,117.0
951.74,117.0
951.8,139.0
951.87,103.0
951.93,107.0
951.99,99.0
952.06,98.0
952.12,125.0
952.18,113.0
952.24,114.0
952.31,103.0
952.37,120.0
952.43,131.0
952.5,124.0
952.56,140.0
952.62,146.0
952.69,146.0
952.75,150.0
952.81,139.0
952.87,133.0
952.94,139.0
953.0,148.0
953.06,144.0
953.13,151.0
953.19,146.0
953.25,152.0
953.32,182.0
953.38,162.0
953.44,158.0
953.5,156.0
953.57,161.0
953.63,169.0
953.69,172.0
953.76,180.0
953.82,190.0
953.88,157.0
953.95,143.0
954.01,164.0
954.07,153.0
954.13,159.0
954.2,158.0
954.26,153.0
954.32,149.0
954.39,138.0
954.45,161.0
954.51,156.0
954.58,169.0
954.64,163.0
954.7,191.0
954.76,187.0
954.83,172.0
954.89,190.0
954.95,200.0
955.02,191.0
955.08,186.0
955.14,218.0
955.21,226.0
955.27,226.0
955.33,221.0
955.39,221.0
955.46,220.0
955.52,220.0
955.58,232.0
955.65,253.0
955.71,248.0
955.77,230.0
955.84,223.0
955.9,215.0
955.96,235.0
956.02,237.0
956.09,226.0
956.15,244.0
956.21,240.0
956.28,233.0
956.34,222.0
956.4,220.0
956.47,217.0
956.53,195.0
956.59,207.0
956.65,211.0
956.72,220.0
956.78,221.0
956.84,230.0
956.91,234.0
956.97,205.0
957.03,219.0
957.1,229.0
957.16,248.0
957.22,216.0
957.28,215.0
957.35,207.0
957.41,235.0
957.47,226.0
957.54,223.0
957.6,237.0
957.66,225.0
957.73,227.0
957.79,211.0
957.85,239.0
957.91,251.0
957.98,233.0
958.04,259.0
958.1,244.0
958.17,241.0
958.23,218.0
958.29,249.0
958.36,234.0
958.42,264.0
958.48,250.0
958.54,239.0
958.61,245.0
958.67,243.0
958.73,235.0
958.8,242.0
958.86,253.0
958.92,239.0
958.99,256.0
959.05,248.0
959.11,258.0
959.17,250.0
959.24,262.0
959.3,262.0
959.36,261.0
959.43,270.0
959.49,261.0
959.55,267.0
959.62,247.0
959.68,223.0
959.74,208.0
959.8,227.0
959.87,213.0
959.93,233.0
959.99,217.0
960.06,233.0
960.12,230.0
960.18,206.0
960.25,231.0
960.31,210.0
960.37,218.0
960.43,214.0
960.5,215.0
960.56,207.0
960.62,198.0
960.69,205.0
960.75,204.0
960.81,221.0
960.88,207.0
960.94,202.0
961.0,186.0
961.06,195.0
961.13,179.0
961.19,174.0
961.25,173.0
961.32,180.0
961.38,189.0
961.44,184.0
961.51,192.0
961.57,180.0
961.63,176.0
961.69,207.0
961.76,217.0
961.82,201.0
961.88,182.0
961.95,183.0
962.01,210.0
962.07,197.0
962.14,171.0
962.2,180.0
962.26,195.0
962.32,189.0
962.39,183.0
962.45,150.0
962.51,158.0
962.58,140.0
962.64,140.0
962.7,155.0
962.77,146.0
962.83,163.0
962.89,158.0
962.95,138.0
963.02,139.0
963.08,131.0
963.14,139.0
963.21,140.0
963.27,131.0
963.33,125.0
963.4,140.0
963.46,121.0
963.52,117.0
963.58,139.0
963.65,127.0
963.71,125.0
963.77,115.0
963.84,105.0
963.9,125.0
963.96,124.0
964.03,93.0
964.09,94.0
964.15,112.0
964.21,125.0
964.28,120.0
964.34,119.0
964.4,130.0
964.47,110.0
964.53,116.0
964.59,116.0
964.66,144.0
964.72,132.0
964.78,116.0
964.84,111.0
964.91,114.0
964.97,95.0
965.03,99.0
965.1,116.0
965.16,100.0
965.22,103.0
965.29,79.0
965.35,95.0
965.41,92.0
965.47,100.0
965.54,107.0
965.6,108.0
965.66,96.0
965.73,96.0
965.79,70.0
965.85,34.0
965.92,63.0
965.98,63.0
966.04,62.0
966.1,54.0
966.17,55.0
966.23,86.0
966.29,75.0
966.36,65.0
966.42,63.0
966.48,52.0
966.55,54.0
966.61,52.0
966.67,73.0
966.73,76.0
966.8,77.0
966.86,70.0
966.92,73.0
966.99,84.0
967.05,76.0
967.11,79.0
967.18,85.0
967.24,84.0
967.3,76.0
967.36,85.0
967.43,67.0
967.49,71.0
967.55,77.0
967.62,65.0
967.68,68.0
967.74,60.0
967.81,54.0
967.87,52.0
967.93,72.0
967.99,73.0
968.06,88.0
968.12,72.0
968.18,83.0
968.25,84.0
968.31,63.0
968.37,62.0
968.44,59.0
968.5,81.0
968.56,76.0
968.62,91.0
968.69,87.0
968.75,77.0
968.81,76.0
968.88,114.0
968.94,86.0
969.0,98.0
969.07,81.0
969.13,82.0
969.19,98.0
969.25,110.0
969.32,120.0
969.38,124.0
969.44,140.0
969.51,129.0
969.57,142.0
969.63,141.0
969.7,162.0
969.76,164.0
969.82,185.0
969.88,171.0
969.95,160.0
970.01,158.0
970.07,171.0
970.14,166.0
970.2,181.0
970.26,196.0
970.33,176.0
970.39,162.0
970.45,162.0
970.51,149.0
970.58,168.0
970.64,134.0
970.7,139.0
970.77,152.0
970.83,140.0
970.89,156.0
970.96,150.0
971.02,157.0
971.08,147.0
971.14,148.0
971.21,127.0
971.27,121.0
971.33,132.0
971.4,119.0
971.46,110.0
971.52,122.0
971.59,129.0
971.65,128.0
971.71,120.0
971.77,125.0
971.84,147.0
971.9,131.0
971.96,151.0
972.03,138.0
972.09,143.0
972.15,149.0
972.22,152.0
972.28,131.0
972.34,106.0
972.4,117.0
972.47,125.0
972.53,125.0
972.59,128.0
972.66,148.0
972.72,147.0
972.78,124.0
972.85,113.0
972.91,147.0
972.97,146.0
973.03,173.0
973.1,154.0
973.16,166.0
973.22,162.0
973.29,158.0
973.35,162.0
973.41,162.0
973.48,188.0
973.54,176.0
973.6,163.0
973.66,150.0
973.73,159.0
973.79,143.0
973.85,170.0
973.92,173.0
973.98,178.0
974.04,158.0
974.11,157.0
974.17,175.0
974.23,176.0
974.29,177.0
974.36,182.0
974.42,162.0
974.48,165.0
974.55,154.0
974.61,144.0
974.67,154.0
974.74,155.0
974.8,179.0
974.86,159.0
974.92,138.0
974.99,136.0
975.05,129.0
975.11,171.0
975.18,144.0
975.24,147.0
975.3,146.0
975.37,157.0
975.43,160.0
975.49,155.0
975.55,182.0
975.62,165.0
975.68,166.0
975.74,172.0
975.81,161.0
975.87,155.0
975.93,145.0
976.0,172.0
976.06,189.0
976.12,183.0
976.18,170.0
976.25,153.0
976.31,179.0
976.37,180.0
976.44,181.0
976.5,169.0
976.56,177.0
976.63,170.0
976.69,160.0
976.75,167.0
976.81,168.0
976.88,177.0
976.94,190.0
977.0,183.0
977.07,187.0
977.13,168.0
977.19,166.0
977.26,162.0
977.32,158.0
977.38,169.0
977.44,159.0
977.51,153.0
977.57,157.0
977.63,165.0
977.7,165.0
977.76,176.0
977.82,167.0
977.89,165.0
977.95,156.0
978.01,174.0
978.07,180.0
978.14,161.0
978.2,160.0
978.26,146.0
978.33,157.0
978.39,157.0
978.45,129.0
978.52,130.0
978.58,154.0
978.64,151.0
978.7,149.0
978.77,158.0
978.83,138.0
978.89,155.0
978.96,165.0
979.02,158.0
979.08,178.0
979.15,177.0
979.21,165.0
979.27,158.0
979.33,145.0
979.4,145.0
979.46,137.0
979.52,114.0
979.59,143.0
979.65,139.0
979.71,140.0
979.78,148.0
979.84,141.0
979.9,120.0
979.96,123.0
980.03,127.0
980.09,113.0
980.15,121.0
980.22,130.0
980.28,119.0
980.34,130.0
980.41,143.0
980.47,107.0
980.53,132.0
980.59,112.0
980.66,100.0
980.72,126.0
980.78,123.0
980.85,126.0
980.91,119.0
980.97,115.0
981.04,115.0
981.1,119.0
981.16,100.0
981.22,118.0
981.29,116.0
981.35,115.0
981.41,121.0
981.48,103.0
981.54,90.0
981.6,87.0
981.67,88.0
981.73,102.0
981.79,111.0
981.85,106.0
981.92,117.0
981.98,130.0
982.04,136.0
982.11,129.0
982.17,125.0
982.23,106.0
982.3,114.0
982.36,99.0
982.42,92.0
982.48,108.0
982.55,104.0
982.61,91.0
982.67,96.0
982.74,99.0
982.8,107.0
982.86,98.0
982.93,100.0
982.99,81.0
983.05,99.0
983.11,99.0
983.18,74.0
983.24,81.0
983.3,71.0
983.37,78.0
983.43,82.0
983.49,101.0
983.56,89.0
983.62,73.0
983.68,64.0
983.74,69.0
983.81,88.0
983.87,99.0
983.93,97.0
984.0,81.0
984.06,84.0
984.12,82.0
984.19,94.0
984.25,98.0
984.31,92.0
984.37,93.0
984.44,106.0
984.5,112.0
984.56,87.0
984.63,113.0
984.69,92.0
984.75,77.0
984.82,94.0
984.88,99.0
984.94,66.0
985.0,65.0
985.07,83.0
985.13,85.0
985.19,108.0
985.26,109.0
985.32,90.0
985.38,102.0
985.45,120.0
985.51,119.0
985.57,124.0
985.63,115.0
985.7,111.0
985.76,144.0
985.82,149.0
985.89,154.0
985.95,164.0
986.01,168.0
986.08,182.0
986.14,172.0
986.2,198.0
986.26,173.0
986.33,179.0
986.39,160.0
986.45,145.0
986.52,166.0
986.58,175.0
986.64,187.0
986.71,159.0
986.77,175.0
986.83,194.0
986.89,168.0
986.96,176.0
987.02,183.0
987.08,194.0
987.15,220.0
987.21,202.0
987.27,212.0
987.34,214.0
987.4,210.0
987.46,203.0
987.52,196.0
987.59,196.0
987.65,208.0
987.71,219.0
987.78,211.0
987.84,201.0
987.9,201.0
987.97,205.0
988.03,214.0
988.09,209.0
988.15,200.0
988.22,201.0
988.28,221.0
988.34,204.0
988.41,204.0
988.47,209.0
988.53,200.0
988.6,198.0
988.66,216.0
988.72,210.0
988.78,218.0
988.85,218.0
988.91,210.0
988.97,186.0
989.04,198.0
989.1,198.0
989.16,201.0
989.23,204.0
989.29,207.0
989.35,228.0
989.41,238.0
989.48,230.0
989.54,223.0
989.6,228.0
989.67,233.0
989.73,208.0
989.79,227.0
989.86,202.0
989.92,204.0
989.98,212.0
990.04,225.0
990.11,216.0
990.17,231.0
990.23,210.0
990.3,199.0
990.36,191.0
990.42,187.0
990.49,201.0
990.55,205.0
990.61,217.0
990.67,201.0
990.74,195.0
990.8,204.0
990.86,208.0
990.93,213.0
990.99,181.0
991.05,188.0
991.12,206.0
991.18,194.0
991.24,205.0
991.3,169.0
991.37,196.0
991.43,198.0
991.49,186.0
991.56,181.0
991.62,183.0
991.68,198.0
991.75,194.0
991.81,197.0
991.87,191.0
991.93,205.0
992.0,191.0
992.06,185.0
992.12,184.0
992.19,199.0
992.25,201.0
992.31,215.0
992.38,201.0
992.44,190.0
992.5,204.0
992.56,197.0
992.63,207.0
992.69,212.0
992.75,209.0
992.82,219.0
992.88,216.0
992.94,193.0
993.01,202.0
993.07,223.0
993.13,205.0
993.19,201.0
993.26,222.0
993.32,198.0
993.38,198.0
993.45,202.0
993.51,202.0
993.57,201.0
993.64,193.0
993.7,191.0
993.76,179.0
993.82,180.0
993.89,173.0
993.95,187.0
994.01,202.0
994.08,163.0
994.14,173.0
994.2,184.0
994.27,171.0
994.33,161.0
994.39,155.0
994.45,152.0
994.52,143.0
994.58,141.0
994.64,153.0
994.71,154.0
994.77,146.0
994.83,134.0
994.9,124.0
994.96,135.0
995.02,149.0
995.08,136.0
995.15,158.0
995.21,165.0
995.27,155.0
995.34,158.0
995.4,170.0
995.46,165.0
995.53,183.0
995.59,178.0
995.65,147.0
995.71,152.0
995.78,158.0
995.84,156.0
995.9,129.0
995.97,158.0
996.03,170.0
996.09,146.0
996.16,157.0
996.22,149.0
996.28,139.0
996.34,125.0
996.41,126.0
996.47,144.0
996.53,142.0
996.6,99.0
996.66,118.0
996.72,119.0
996.79,127.0
996.85,124.0
996.91,111.0
996.97,140.0
997.04,129.0
997.1,141.0
997.16,140.0
997.23,124.0
997.29,133.0
997.35,133.0
997.42,146.0
997.48,166.0
997.54,156.0
997.6,135.0
997.67,133.0
997.73,132.0
997.79,133.0
997.86,107.0
997.92,132.0
997.98,117.0
998.05,121.0
998.11,115.0
998.17,141.0
998.23,137.0
998.3,115.0
998.36,100.0
998.42,99.0
998.49,103.0
998.55,111.0
998.61,87.0
998.68,108.0
998.74,127.0
998.8,113.0
998.86,124.0
998.93,125.0
998.99,132.0
999.05,113.0
999.12,125.0
999.18,130.0
999.24,136.0
999.31,141.0
999.37,136.0
999.43,143.0
999.49,131.0
999.56,129.0
999.62,143.0
999.68,128.0
999.75,118.0
999.81,120.0
999.87,106.0
