timestamp,intensity
0,-272.0
0.06,-276.0
0.13,-276.0
0.19,-261.0
0.25,-272.0
0.32,-292.0
0.38,-259.0
0.44,-288.0
0.5,-285.0
0.57,-285.0
0.63,-287.0
0.69,-296.0
0.76,-304.0
0.82,-276.0
0.88,-269.0
0.94,-256.0
1.01,-251.0
1.07,-258.0
1.13,-273.0
1.2,-284.0
1.26,-280.0
1.32,-282.0
1.39,-264.0
1.45,-248.0
1.51,-259.0
1.57,-259.0
1.64,-252.0
1.7,-250.0
1.76,-261.0
1.83,-251.0
1.89,-250.0
1.95,-261.0
2.02,-241.0
2.08,-251.0
2.14,-247.0
2.2,-251.0
2.27,-254.0
2.33,-242.0
2.39,-232.0
2.46,-217.0
2.52,-215.0
2.58,-210.0
2.65,-225.0
2.71,-207.0
2.77,-203.0
2.84,-223.0
2.9,-240.0
2.96,-238.0
3.02,-238.0
3.09,-227.0
3.15,-239.0
3.21,-233.0
3.28,-211.0
3.34,-229.0
3.4,-235.0
3.47,-226.0
3.53,-242.0
3.59,-238.0
3.65,-248.0
3.72,-243.0
3.78,-228.0
3.84,-242.0
3.91,-243.0
3.97,-239.0
4.03,-239.0
4.1,-230.0
4.16,-226.0
4.22,-241.0
4.28,-237.0
4.35,-229.0
4.41,-225.0
4.47,-215.0
4.54,-228.0
4.6,-220.0
4.66,-227.0
4.73,-227.0
4.79,-232.0
4.85,-229.0
4.91,-227.0
4.98,-246.0
5.04,-259.0
5.1,-259.0
5.17,-257.0
5.23,-259.0
5.29,-255.0
5.35,-264.0
5.42,-252.0
5.48,-259.0
5.54,-282.0
5.61,-278.0
5.67,-273.0
5.73,-267.0
5.8,-270.0
5.86,-267.0
5.92,-259.0
5.98,-255.0
6.05,-246.0
6.11,-257.0
6.17,-233.0
6.24,-233.0
6.3,-242.0
6.36,-254.0
6.43,-244.0
6.49,-251.0
6.55,-234.0
6.61,-208.0
6.68,-207.0
6.74,-221.0
6.8,-232.0
6.87,-218.0
6.93,-232.0
6.99,-229.0
7.06,-232.0
7.12,-239.0
7.18,-237.0
7.24,-244.0
7.31,-257.0
7.37,-269.0
7.43,-266.0
7.5,-250.0
7.56,-259.0
7.62,-254.0
7.69,-281.0
7.75,-261.0
7.81,-266.0
7.87,-261.0
7.94,-262.0
8.0,-268.0
8.06,-255.0
8.13,-247.0
8.19,-249.0
8.25,-269.0
8.32,-248.0
8.38,-267.0
8.44,-259.0
8.5,-236.0
8.57,-249.0
8.63,-251.0
8.69,-254.0
8.76,-268.0
8.82,-248.0
8.88,-253.0
8.95,-250.0
9.01,-230.0
9.07,-241.0
9.13,-261.0
9.2,-251.0
9.26,-245.0
9.32,-277.0
9.39,-274.0
9.45,-256.0
9.51,-269.0
9.58,-284.0
9.64,-277.0
9.7,-277.0
9.77,-264.0
9.83,-253.0
9.89,-231.0
9.95,-247.0
10.02,-244.0
10.08,-243.0
10.14,-271.0
10.21,-263.0
10.27,-260.0
10.33,-255.0
10.4,-254.0
10.46,-243.0
10.52,-239.0
10.58,-234.0
10.65,-234.0
10.71,-227.0
10.77,-214.0
10.84,-181.0
10.9,-182.0
10.96,-199.0
11.03,-208.0
11.09,-229.0
11.15,-245.0
11.21,-226.0
11.28,-223.0
11.34,-214.0
11.4,-224.0
11.47,-237.0
11.53,-224.0
11.59,-211.0
11.66,-228.0
11.72,-252.0
11.78,-230.0
11.84,-218.0
11.91,-227.0
11.97,-217.0
12.03,-214.0
12.1,-207.0
12.16,-214.0
12.22,-211.0
12.29,-217.0
12.35,-218.0
12.41,-228.0
12.47,-210.0
12.54,-201.0
12.6,-191.0
12.66,-184.0
12.73,-184.0
12.79,-182.0
12.85,-195.0
12.92,-203.0
12.98,-203.0
13.04,-215.0
13.1,-199.0
13.17,-207.0
13.23,-210.0
13.29,-210.0
13.36,-216.0
13.42,-214.0
13.48,-207.0
13.55,-202.0
13.61,-207.0
13.67,-211.0
13.73,-224.0
13.8,-215.0
13.86,-215.0
13.92,-209.0
13.99,-215.0
14.05,-230.0
14.11,-225.0
14.18,-237.0
14.24,-252.0
14.3,-252.0
14.36,-243.0
14.43,-249.0
14.49,-266.0
14.55,-277.0
14.62,-265.0
14.68,-264.0
14.74,-262.0
14.81,-262.0
14.87,-265.0
14.93,-260.0
14.99,-256.0
15.06,-255.0
15.12,-232.0
15.18,-229.0
15.25,-226.0
15.31,-229.0
15.37,-210.0
15.44,-200.0
15.5,-205.0
15.56,-182.0
15.62,-215.0
15.69,-192.0
15.75,-204.0
15.81,-227.0
15.88,-207.0
15.94,-197.0
16.0,-169.0
16.07,-181.0
16.13,-189.0
16.19,-201.0
16.25,-191.0
16.32,-200.0
16.38,-199.0
16.44,-173.0
16.51,-199.0
16.57,-209.0
16.63,-189.0
16.7,-193.0
16.76,-213.0
16.82,-206.0
16.88,-211.0
16.95,-211.0
17.01,-212.0
17.07,-233.0
17.14,-220.0
17.2,-232.0
17.26,-222.0
17.33,-219.0
17.39,-225.0
17.45,-226.0
17.51,-239.0
17.58,-214.0
17.64,-231.0
17.7,-260.0
17.77,-248.0
17.83,-253.0
17.89,-263.0
17.96,-252.0
18.02,-248.0
18.08,-248.0
18.14,-251.0
18.21,-229.0
18.27,-226.0
18.33,-215.0
18.4,-226.0
18.46,-222.0
18.52,-220.0
18.59,-205.0
18.65,-199.0
18.71,-220.0
18.77,-208.0
18.84,-210.0
18.9,-224.0
18.96,-206.0
19.03,-211.0
19.09,-237.0
19.15,-208.0
19.22,-200.0
19.28,-214.0
19.34,-229.0
19.4,-215.0
19.47,-237.0
19.53,-229.0
19.59,-215.0
19.66,-235.0
19.72,-228.0
19.78,-219.0
19.84,-222.0
19.91,-227.0
19.97,-210.0
20.03,-211.0
20.1,-215.0
20.16,-211.0
20.22,-204.0
20.29,-200.0
20.35,-224.0
20.41,-220.0
20.47,-208.0
20.54,-211.0
20.6,-206.0
20.66,-216.0
20.73,-208.0
20.79,-208.0
20.85,-232.0
20.92,-217.0
20.98,-213.0
21.04,-205.0
21.1,-206.0
21.17,-212.0
21.23,-220.0
21.29,-226.0
21.36,-228.0
21.42,-236.0
21.48,-243.0
21.55,-245.0
21.61,-232.0
21.67,-203.0
21.73,-206.0
21.8,-223.0
21.86,-226.0
21.92,-219.0
21.99,-225.0
22.05,-244.0
22.11,-256.0
22.18,-251.0
22.24,-253.0
22.3,-253.0
22.36,-265.0
22.43,-265.0
22.49,-269.0
22.55,-269.0
22.62,-285.0
22.68,-263.0
22.74,-244.0
22.81,-260.0
22.87,-266.0
22.93,-254.0
22.99,-255.0
23.06,-270.0
23.12,-275.0
23.18,-276.0
23.25,-262.0
23.31,-261.0
23.37,-272.0
23.44,-270.0
23.5,-254.0
23.56,-266.0
23.62,-254.0
23.69,-246.0
23.75,-243.0
23.81,-242.0
23.88,-243.0
23.94,-253.0
24.0,-266.0
24.07,-228.0
24.13,-228.0
24.19,-237.0
24.25,-242.0
24.32,-253.0
24.38,-251.0
24.44,-223.0
24.51,-234.0
24.57,-242.0
24.63,-242.0
24.7,-236.0
24.76,-217.0
24.82,-221.0
24.88,-218.0
24.95,-235.0
25.01,-222.0
25.07,-222.0
25.14,-240.0
25.2,-225.0
25.26,-205.0
25.33,-222.0
25.39,-209.0
25.45,-222.0
25.51,-225.0
25.58,-216.0
25.64,-209.0
25.7,-196.0
25.77,-193.0
25.83,-212.0
25.89,-211.0
25.96,-214.0
26.02,-197.0
26.08,-198.0
26.14,-195.0
26.21,-175.0
26.27,-166.0
26.33,-175.0
26.4,-178.0
26.46,-178.0
26.52,-198.0
26.59,-174.0
26.65,-167.0
26.71,-157.0
26.77,-168.0
26.84,-156.0
26.9,-141.0
26.96,-152.0
27.03,-150.0
27.09,-143.0
27.15,-136.0
27.22,-141.0
27.28,-132.0
27.34,-130.0
27.4,-146.0
27.47,-155.0
27.53,-157.0
27.59,-122.0
27.66,-139.0
27.72,-146.0
27.78,-139.0
27.85,-168.0
27.91,-173.0
27.97,-137.0
28.03,-132.0
28.1,-140.0
28.16,-130.0
28.22,-122.0
28.29,-120.0
28.35,-136.0
28.41,-148.0
28.48,-158.0
28.54,-159.0
28.6,-143.0
28.66,-140.0
28.73,-127.0
28.79,-116.0
28.85,-134.0
28.92,-147.0
28.98,-134.0
29.04,-134.0
29.11,-113.0
29.17,-124.0
29.23,-121.0
29.29,-118.0
29.36,-112.0
29.42,-121.0
29.48,-109.0
29.55,-106.0
29.61,-106.0
29.67,-108.0
29.74,-106.0
29.8,-102.0
29.86,-130.0
29.92,-124.0
29.99,-124.0
30.05,-133.0
30.11,-116.0
30.18,-142.0
30.24,-156.0
30.3,-158.0
30.37,-169.0
30.43,-176.0
30.49,-156.0
30.55,-184.0
30.62,-194.0
30.68,-182.0
30.74,-184.0
30.81,-191.0
30.87,-176.0
30.93,-181.0
31.0,-196.0
31.06,-181.0
31.12,-201.0
31.18,-208.0
31.25,-216.0
31.31,-205.0
31.37,-166.0
31.44,-179.0
31.5,-195.0
31.56,-179.0
31.63,-198.0
31.69,-185.0
31.75,-171.0
31.81,-177.0
31.88,-177.0
31.94,-171.0
32.0,-162.0
32.07,-168.0
32.13,-158.0
32.19,-174.0
32.26,-177.0
32.32,-173.0
32.38,-184.0
32.44,-196.0
32.51,-185.0
32.57,-173.0
32.63,-183.0
32.7,-183.0
32.76,-175.0
32.82,-185.0
32.89,-196.0
32.95,-200.0
33.01,-196.0
33.07,-181.0
33.14,-177.0
33.2,-160.0
33.26,-170.0
33.33,-167.0
33.39,-169.0
33.45,-158.0
33.52,-163.0
33.58,-159.0
33.64,-145.0
33.7,-156.0
33.77,-140.0
33.83,-159.0
33.89,-140.0
33.96,-131.0
34.02,-147.0
34.08,-140.0
34.15,-142.0
34.21,-149.0
34.27,-143.0
34.33,-146.0
34.4,-158.0
34.46,-142.0
34.52,-137.0
34.59,-154.0
34.65,-161.0
34.71,-157.0
34.78,-171.0
34.84,-168.0
34.9,-154.0
34.96,-165.0
35.03,-144.0
35.09,-161.0
35.15,-130.0
35.22,-126.0
35.28,-133.0
35.34,-136.0
35.41,-121.0
35.47,-113.0
35.53,-115.0
35.59,-107.0
35.66,-105.0
35.72,-114.0
35.78,-94.0
35.85,-107.0
35.91,-95.0
35.97,-124.0
36.04,-145.0
36.1,-117.0
36.16,-110.0
36.22,-106.0
36.29,-91.0
36.35,-99.0
36.41,-91.0
36.48,-96.0
36.54,-89.0
36.6,-80.0
36.67,-80.0
36.73,-106.0
36.79,-76.0
36.85,-96.0
36.92,-86.0
36.98,-71.0
37.04,-77.0
37.11,-89.0
37.17,-85.0
37.23,-110.0
37.3,-119.0
37.36,-116.0
37.42,-118.0
37.48,-87.0
37.55,-89.0
37.61,-118.0
37.67,-116.0
37.74,-114.0
37.8,-106.0
37.86,-88.0
37.93,-99.0
37.99,-84.0
38.05,-75.0
38.12,-76.0
38.18,-88.0
38.24,-88.0
38.3,-71.0
38.37,-55.0
38.43,-79.0
38.49,-92.0
38.56,-91.0
38.62,-72.0
38.68,-93.0
38.75,-96.0
38.81,-89.0
38.87,-88.0
38.93,-101.0
39.0,-113.0
39.06,-120.0
39.12,-128.0
39.19,-143.0
39.25,-127.0
39.31,-117.0
39.38,-127.0
39.44,-136.0
39.5,-133.0
39.56,-122.0
39.63,-136.0
39.69,-133.0
39.75,-131.0
39.82,-149.0
39.88,-151.0
39.94,-149.0
40.01,-136.0
40.07,-145.0
40.13,-129.0
40.19,-124.0
40.26,-122.0
40.32,-114.0
40.38,-118.0
40.45,-112.0
40.51,-102.0
40.57,-116.0
40.64,-93.0
40.7,-85.0
40.76,-103.0
40.82,-120.0
40.89,-142.0
40.95,-111.0
41.01,-115.0
41.08,-93.0
41.14,-87.0
41.2,-97.0
41.27,-104.0
41.33,-96.0
41.39,-85.0
41.45,-93.0
41.52,-101.0
41.58,-92.0
41.64,-91.0
41.71,-87.0
41.77,-89.0
41.83,-69.0
41.9,-83.0
41.96,-80.0
42.02,-71.0
42.08,-67.0
42.15,-76.0
42.21,-89.0
42.27,-76.0
42.34,-96.0
42.4,-91.0
42.46,-64.0
42.53,-92.0
42.59,-81.0
42.65,-69.0
42.71,-81.0
42.78,-90.0
42.84,-108.0
42.9,-117.0
42.97,-76.0
43.03,-84.0
43.09,-84.0
43.16,-85.0
43.22,-74.0
43.28,-70.0
43.34,-79.0
43.41,-74.0
43.47,-74.0
43.53,-69.0
43.6,-70.0
43.66,-51.0
43.72,-36.0
43.79,-50.0
43.85,-58.0
43.91,-50.0
43.97,-49.0
44.04,-65.0
44.1,-49.0
44.16,-59.0
44.23,-56.0
44.29,-54.0
44.35,-59.0
44.42,-50.0
44.48,-53.0
44.54,-54.0
44.6,-67.0
44.67,-55.0
44.73,-61.0
44.79,-22.0
44.86,-32.0
44.92,-34.0
44.98,-49.0
45.05,-61.0
45.11,-54.0
45.17,-63.0
45.23,-61.0
45.3,-51.0
45.36,-55.0
45.42,-46.0
45.49,-38.0
45.55,-60.0
45.61,-74.0
45.68,-87.0
45.74,-64.0
45.8,-69.0
45.86,-67.0
45.93,-78.0
45.99,-85.0
46.05,-90.0
46.12,-80.0
46.18,-85.0
46.24,-90.0
46.31,-87.0
46.37,-90.0
46.43,-111.0
46.49,-113.0
46.56,-114.0
46.62,-108.0
46.68,-101.0
46.75,-110.0
46.81,-118.0
46.87,-119.0
46.94,-97.0
47.0,-119.0
47.06,-114.0
47.12,-93.0
47.19,-91.0
47.25,-107.0
47.31,-116.0
47.38,-98.0
47.44,-91.0
47.5,-92.0
47.57,-73.0
47.63,-79.0
47.69,-79.0
47.75,-84.0
47.82,-86.0
47.88,-103.0
47.94,-88.0
48.01,-95.0
48.07,-93.0
48.13,-83.0
48.2,-79.0
48.26,-88.0
48.32,-83.0
48.38,-71.0
48.45,-65.0
48.51,-72.0
48.57,-73.0
48.64,-54.0
48.7,-48.0
48.76,-49.0
48.83,-80.0
48.89,-85.0
48.95,-71.0
49.01,-77.0
49.08,-85.0
49.14,-83.0
49.2,-59.0
49.27,-47.0
49.33,-53.0
49.39,-57.0
49.46,-44.0
49.52,-46.0
49.58,-47.0
49.64,-43.0
49.71,-57.0
49.77,-44.0
49.83,-43.0
49.9,-90.0
49.96,-51.0
50.02,-52.0
50.09,-46.0
50.15,-20.0
50.21,-53.0
50.27,-44.0
50.34,-60.0
50.4,-56.0
50.46,-67.0
50.53,-79.0
50.59,-64.0
50.65,-61.0
50.72,-77.0
50.78,-74.0
50.84,-74.0
50.9,-73.0
50.97,-52.0
51.03,-65.0
51.09,-51.0
51.16,-51.0
51.22,-53.0
51.28,-44.0
51.35,-61.0
51.41,-59.0
51.47,-45.0
51.53,-41.0
51.6,-49.0
51.66,-41.0
51.72,-49.0
51.79,-32.0
51.85,-26.0
51.91,-34.0
51.98,-26.0
52.04,-35.0
52.1,-40.0
52.16,-43.0
52.23,-46.0
52.29,-40.0
52.35,-40.0
52.42,-39.0
52.48,-34.0
52.54,-26.0
52.61,-28.0
52.67,-26.0
52.73,-31.0
52.79,-30.0
52.86,-27.0
52.92,-33.0
52.98,-25.0
53.05,-34.0
53.11,-35.0
53.17,-39.0
53.24,-50.0
53.3,-44.0
53.36,-37.0
53.42,-39.0
53.49,-35.0
53.55,-43.0
53.61,-28.0
53.68,-20.0
53.74,-34.0
53.8,-36.0
53.87,-37.0
53.93,-23.0
53.99,-51.0
54.05,-52.0
54.12,-29.0
54.18,-55.0
54.24,-47.0
54.31,-49.0
54.37,-48.0
54.43,-25.0
54.5,-46.0
54.56,-46.0
54.62,-48.0
54.68,-36.0
54.75,-36.0
54.81,-36.0
54.87,-34.0
54.94,-27.0
55.0,-33.0
55.06,-35.0
55.13,-14.0
55.19,-4.0
55.25,-51.0
55.31,-42.0
55.38,-54.0
55.44,-58.0
55.5,-53.0
55.57,-50.0
55.63,-44.0
55.69,-53.0
55.76,-61.0
55.82,-51.0
55.88,-46.0
55.94,-66.0
56.01,-67.0
56.07,-68.0
56.13,-68.0
56.2,-69.0
56.26,-73.0
56.32,-85.0
56.39,-52.0
56.45,-72.0
56.51,-87.0
56.57,-93.0
56.64,-102.0
56.7,-93.0
56.76,-90.0
56.83,-104.0
56.89,-84.0
56.95,-106.0
57.02,-102.0
57.08,-89.0
57.14,-81.0
57.2,-77.0
57.27,-86.0
57.33,-85.0
57.39,-75.0
57.46,-90.0
57.52,-89.0
57.58,-77.0
57.65,-56.0
57.71,-67.0
57.77,-77.0
57.83,-79.0
57.9,-79.0
57.96,-82.0
58.02,-69.0
58.09,-107.0
58.15,-101.0
58.21,-97.0
58.28,-98.0
58.34,-95.0
58.4,-84.0
58.46,-68.0
58.53,-85.0
58.59,-68.0
58.65,-71.0
58.72,-80.0
58.78,-78.0
58.84,-71.0
58.91,-88.0
58.97,-77.0
59.03,-73.0
59.09,-71.0
59.16,-89.0
59.22,-75.0
59.28,-73.0
59.35,-88.0
59.41,-87.0
59.47,-100.0
59.54,-82.0
59.6,-83.0
59.66,-81.0
59.72,-72.0
59.79,-76.0
59.85,-62.0
59.91,-71.0
59.98,-72.0
60.04,-57.0
60.1,-78.0
60.17,-64.0
60.23,-65.0
60.29,-77.0
60.35,-76.0
60.42,-55.0
60.48,-48.0
60.54,-50.0
60.61,-38.0
60.67,-29.0
60.73,-40.0
60.8,-37.0
60.86,-41.0
60.92,-42.0
60.98,-38.0
61.05,-33.0
61.11,-37.0
61.17,-29.0
61.24,-23.0
61.3,-12.0
61.36,-25.0
61.43,-28.0
61.49,-28.0
61.55,-23.0
61.61,-16.0
61.68,-10.0
61.74,-21.0
61.8,-19.0
61.87,-15.0
61.93,-35.0
61.99,-33.0
62.06,-25.0
62.12,-36.0
62.18,-26.0
62.24,-30.0
62.31,-27.0
62.37,-26.0
62.43,-13.0
62.5,-31.0
62.56,-41.0
62.62,-36.0
62.69,-54.0
62.75,-59.0
62.81,-61.0
62.87,-66.0
62.94,-36.0
63.0,-24.0
63.06,-42.0
63.13,-39.0
63.19,-46.0
63.25,-54.0
63.32,-53.0
63.38,-72.0
63.44,-51.0
63.5,-51.0
63.57,-40.0
63.63,-41.0
63.69,-55.0
63.76,-48.0
63.82,-32.0
63.88,-21.0
63.95,-38.0
64.01,-51.0
64.07,-52.0
64.13,-54.0
64.2,-54.0
64.26,-39.0
64.32,-43.0
64.39,-38.0
64.45,-46.0
64.51,-45.0
64.58,-37.0
64.64,-61.0
64.7,-53.0
64.76,-47.0
64.83,-53.0
64.89,-52.0
64.95,-52.0
65.02,-50.0
65.08,-50.0
65.14,-58.0
65.21,-42.0
65.27,-30.0
65.33,-63.0
65.39,-44.0
65.46,-33.0
65.52,-29.0
65.58,-43.0
65.65,-26.0
65.71,-22.0
65.77,-38.0
65.84,-59.0
65.9,-36.0
65.96,-12.0
66.02,-41.0
66.09,-46.0
66.15,-20.0
66.21,-10.0
66.28,-15.0
66.34,-14.0
66.4,2.0
66.47,-21.0
66.53,-23.0
66.59,-26.0
66.65,1.0
66.72,-19.0
66.78,-25.0
66.84,-23.0
66.91,-17.0
66.97,-20.0
67.03,-21.0
67.1,-28.0
67.16,-22.0
67.22,-32.0
67.28,-52.0
67.35,-57.0
67.41,-56.0
67.47,-48.0
67.54,-43.0
67.6,-55.0
67.66,-49.0
67.73,-43.0
67.79,-40.0
67.85,-52.0
67.91,-62.0
67.98,-49.0
68.04,-38.0
68.1,-17.0
68.17,-32.0
68.23,-23.0
68.29,-30.0
68.36,-38.0
68.42,-23.0
68.48,-14.0
68.54,-7.0
68.61,-15.0
68.67,-27.0
68.73,-23.0
68.8,0.0
68.86,7.0
68.92,-14.0
68.99,-10.0
69.05,-17.0
69.11,11.0
69.17,-9.0
69.24,-27.0
69.3,-35.0
69.36,-44.0
69.43,-28.0
69.49,-13.0
69.55,-33.0
69.62,-42.0
69.68,-36.0
69.74,-28.0
69.8,-28.0
69.87,-12.0
69.93,-3.0
69.99,15.0
70.06,12.0
70.12,14.0
70.18,22.0
70.25,4.0
70.31,28.0
70.37,11.0
70.43,6.0
70.5,7.0
70.56,22.0
70.62,23.0
70.69,9.0
70.75,16.0
70.81,8.0
70.88,9.0
70.94,-7.0
71.0,-5.0
71.06,-29.0
71.13,-27.0
71.19,-20.0
71.25,5.0
71.32,-6.0
71.38,-25.0
71.44,-5.0
71.51,-9.0
71.57,-16.0
71.63,-22.0
71.69,-14.0
71.76,-12.0
71.82,-33.0
71.88,-40.0
71.95,-25.0
72.01,-25.0
72.07,-18.0
72.14,-22.0
72.2,-32.0
72.26,-28.0
72.32,-26.0
72.39,-32.0
72.45,-22.0
72.51,-10.0
72.58,-14.0
72.64,-24.0
72.7,-53.0
72.77,-52.0
72.83,-34.0
72.89,-33.0
72.95,-71.0
73.02,-49.0
73.08,-38.0
73.14,-50.0
73.21,-38.0
73.27,-41.0
73.33,-53.0
73.4,-42.0
73.46,-61.0
73.52,-42.0
73.58,-43.0
73.65,-41.0
73.71,-42.0
73.77,-39.0
73.84,-54.0
73.9,-59.0
73.96,-30.0
74.03,-29.0
74.09,-28.0
74.15,-35.0
74.21,-43.0
74.28,-31.0
74.34,-20.0
74.4,-38.0
74.47,-30.0
74.53,-25.0
74.59,-24.0
74.66,-41.0
74.72,-39.0
74.78,-21.0
74.84,-14.0
74.91,-29.0
74.97,-25.0
75.03,-35.0
75.1,-30.0
75.16,-19.0
75.22,-51.0
75.29,-27.0
75.35,-29.0
75.41,-35.0
75.47,-10.0
75.54,-12.0
75.6,-9.0
75.66,0.0
75.73,6.0
75.79,31.0
75.85,22.0
75.92,22.0
75.98,24.0
76.04,21.0
76.1,18.0
76.17,19.0
76.23,40.0
76.29,25.0
76.36,35.0
76.42,47.0
76.48,53.0
76.55,53.0
76.61,35.0
76.67,36.0
76.73,18.0
76.8,22.0
76.86,30.0
76.92,21.0
76.99,48.0
77.05,39.0
77.11,48.0
77.18,55.0
77.24,43.0
77.3,40.0
77.36,53.0
77.43,55.0
77.49,53.0
77.55,71.0
77.62,55.0
77.68,46.0
77.74,43.0
77.81,39.0
77.87,51.0
77.93,52.0
77.99,55.0
78.06,56.0
78.12,51.0
78.18,51.0
78.25,54.0
78.31,43.0
78.37,36.0
78.44,49.0
78.5,45.0
78.56,47.0
78.62,40.0
78.69,41.0
78.75,54.0
78.81,48.0
78.88,41.0
78.94,43.0
79.0,43.0
79.07,27.0
79.13,33.0
79.19,46.0
79.25,22.0
79.32,49.0
79.38,51.0
79.44,58.0
79.51,78.0
79.57,65.0
79.63,51.0
79.7,50.0
79.76,63.0
79.82,67.0
79.88,57.0
79.95,51.0
80.01,60.0
80.07,50.0
80.14,54.0
80.2,66.0
80.26,63.0
80.33,56.0
80.39,64.0
80.45,54.0
80.51,62.0
80.58,48.0
80.64,40.0
80.7,37.0
80.77,30.0
80.83,31.0
80.89,25.0
80.96,17.0
81.02,20.0
81.08,25.0
81.14,13.0
81.21,11.0
81.27,28.0
81.33,16.0
81.4,21.0
81.46,6.0
81.52,25.0
81.59,30.0
81.65,10.0
81.71,43.0
81.77,21.0
81.84,21.0
81.9,26.0
81.96,16.0
82.03,33.0
82.09,25.0
82.15,28.0
82.22,26.0
82.28,30.0
82.34,29.0
82.4,33.0
82.47,33.0
82.53,33.0
82.59,32.0
82.66,56.0
82.72,38.0
82.78,39.0
82.85,57.0
82.91,45.0
82.97,46.0
83.03,59.0
83.1,37.0
83.16,33.0
83.22,32.0
83.29,42.0
83.35,37.0
83.41,22.0
83.48,43.0
83.54,29.0
83.6,34.0
83.66,46.0
83.73,60.0
83.79,47.0
83.85,48.0
83.92,52.0
83.98,54.0
84.04,58.0
84.11,41.0
84.17,45.0
84.23,37.0
84.29,34.0
84.36,37.0
84.42,49.0
84.48,40.0
84.55,21.0
84.61,16.0
84.67,19.0
84.74,36.0
84.8,18.0
84.86,1.0
84.92,16.0
84.99,26.0
85.05,12.0
85.11,16.0
85.18,33.0
85.24,56.0
85.3,42.0
85.37,28.0
85.43,21.0
85.49,22.0
85.55,38.0
85.62,17.0
85.68,23.0
85.74,33.0
85.81,21.0
85.87,11.0
85.93,18.0
86.0,9.0
86.06,7.0
86.12,6.0
86.18,11.0
86.25,22.0
86.31,25.0
86.37,40.0
86.44,30.0
86.5,47.0
86.56,32.0
86.63,35.0
86.69,32.0
86.75,17.0
86.81,42.0
86.88,41.0
86.94,46.0
87.0,41.0
87.07,48.0
87.13,33.0
87.19,32.0
87.26,34.0
87.32,40.0
87.38,30.0
87.44,29.0
87.51,52.0
87.57,50.0
87.63,60.0
87.7,58.0
87.76,61.0
87.82,43.0
87.89,40.0
87.95,57.0
88.01,35.0
88.07,36.0
88.14,43.0
88.2,36.0
88.26,49.0
88.33,54.0
88.39,53.0
88.45,54.0
88.52,42.0
88.58,42.0
88.64,43.0
88.7,70.0
88.77,58.0
88.83,44.0
88.89,58.0
88.96,48.0
89.02,87.0
89.08,76.0
89.15,70.0
89.21,61.0
89.27,61.0
89.33,62.0
89.4,67.0
89.46,51.0
89.52,20.0
89.59,45.0
89.65,28.0
89.71,20.0
89.78,10.0
89.84,-1.0
89.9,10.0
89.96,6.0
90.03,3.0
90.09,8.0
90.15,-3.0
90.22,-5.0
90.28,-13.0
90.34,10.0
90.41,-14.0
90.47,-7.0
90.53,15.0
90.59,9.0
90.66,-9.0
90.72,8.0
90.78,10.0
90.85,7.0
90.91,11.0
90.97,-9.0
91.04,22.0
91.1,16.0
91.16,1.0
91.22,18.0
91.29,-6.0
91.35,4.0
91.41,19.0
91.48,18.0
91.54,20.0
91.6,14.0
91.67,24.0
91.73,31.0
91.79,22.0
91.85,27.0
91.92,41.0
91.98,25.0
92.04,11.0
92.11,-7.0
92.17,15.0
92.23,35.0
92.3,27.0
92.36,33.0
92.42,43.0
92.48,33.0
92.55,31.0
92.61,18.0
92.67,24.0
92.74,27.0
92.8,32.0
92.86,11.0
92.93,36.0
92.99,16.0
93.05,18.0
93.11,34.0
93.18,9.0
93.24,24.0
93.3,28.0
93.37,23.0
93.43,25.0
93.49,22.0
93.56,24.0
93.62,18.0
93.68,30.0
93.74,30.0
93.81,37.0
93.87,48.0
93.93,35.0
94.0,49.0
94.06,49.0
94.12,38.0
94.19,43.0
94.25,26.0
94.31,35.0
94.37,55.0
94.44,52.0
94.5,67.0
94.56,64.0
94.63,68.0
94.69,65.0
94.75,40.0
94.82,48.0
94.88,51.0
94.94,62.0
95.0,25.0
95.07,28.0
95.13,64.0
95.19,53.0
95.26,28.0
95.32,57.0
95.38,62.0
95.45,44.0
95.51,41.0
95.57,44.0
95.63,46.0
95.7,46.0
95.76,42.0
95.82,57.0
95.89,25.0
95.95,28.0
96.01,43.0
96.08,54.0
96.14,40.0
96.2,31.0
96.26,27.0
96.33,25.0
96.39,34.0
96.45,36.0
96.52,48.0
96.58,19.0
96.64,38.0
96.71,11.0
96.77,24.0
96.83,29.0
96.89,9.0
96.96,24.0
97.02,28.0
97.08,45.0
97.15,5.0
97.21,12.0
97.27,26.0
97.34,43.0
97.4,19.0
97.46,18.0
97.52,25.0
97.59,23.0
97.65,26.0
97.71,17.0
97.78,22.0
97.84,21.0
97.9,34.0
97.97,21.0
98.03,23.0
98.09,39.0
98.15,33.0
98.22,27.0
98.28,29.0
98.34,47.0
98.41,49.0
98.47,16.0
98.53,45.0
98.6,54.0
98.66,38.0
98.72,55.0
98.78,51.0
98.85,35.0
98.91,35.0
98.97,29.0
99.04,40.0
99.1,40.0
99.16,59.0
99.23,38.0
99.29,24.0
99.35,33.0
99.41,30.0
99.48,46.0
99.54,35.0
99.6,37.0
99.67,46.0
99.73,37.0
99.79,55.0
99.86,57.0
99.92,47.0
99.98,42.0
100.04,35.0
100.11,43.0
100.17,41.0
100.23,41.0
100.3,37.0
100.36,38.0
100.42,36.0
100.49,23.0
100.55,26.0
100.61,32.0
100.67,38.0
100.74,47.0
100.8,31.0
100.86,20.0
100.93,11.0
100.99,2.0
101.05,-15.0
101.12,21.0
101.18,23.0
101.24,43.0
101.3,32.0
101.37,56.0
101.43,42.0
101.49,14.0
101.56,46.0
101.62,50.0
101.68,47.0
101.75,42.0
101.81,38.0
101.87,24.0
101.93,38.0
102.0,58.0
102.06,23.0
102.12,19.0
102.19,24.0
102.25,46.0
102.31,47.0
102.38,59.0
102.44,50.0
102.5,67.0
102.56,55.0
102.63,49.0
102.69,59.0
102.75,53.0
102.82,46.0
102.88,52.0
102.94,48.0
103.01,48.0
103.07,52.0
103.13,43.0
103.19,33.0
103.26,31.0
103.32,47.0
103.38,45.0
103.45,33.0
103.51,48.0
103.57,39.0
103.64,42.0
103.7,44.0
103.76,28.0
103.82,37.0
103.89,40.0
103.95,20.0
104.01,29.0
104.08,41.0
104.14,48.0
104.2,30.0
104.27,30.0
104.33,26.0
104.39,21.0
104.45,16.0
104.52,10.0
104.58,36.0
104.64,15.0
104.71,28.0
104.77,33.0
104.83,26.0
104.9,37.0
104.96,18.0
105.02,27.0
105.08,50.0
105.15,10.0
105.21,25.0
105.27,26.0
105.34,38.0
105.4,10.0
105.46,36.0
105.53,19.0
105.59,15.0
105.65,33.0
105.71,43.0
105.78,42.0
105.84,54.0
105.9,54.0
105.97,14.0
106.03,29.0
106.09,35.0
106.16,33.0
106.22,51.0
106.28,40.0
106.34,38.0
106.41,44.0
106.47,21.0
106.53,20.0
106.6,31.0
106.66,29.0
106.72,39.0
106.79,17.0
106.85,21.0
106.91,15.0
106.97,21.0
107.04,2.0
107.1,-8.0
107.16,-8.0
107.23,0.0
107.29,11.0
107.35,1.0
107.42,-12.0
107.48,-23.0
107.54,-5.0
107.6,1.0
107.67,-13.0
107.73,-19.0
107.79,-18.0
107.86,-4.0
107.92,-18.0
107.98,-15.0
108.05,-25.0
108.11,-13.0
108.17,-6.0
108.23,19.0
108.3,3.0
108.36,-12.0
108.42,-22.0
108.49,-32.0
108.55,-20.0
108.61,-18.0
108.68,-5.0
108.74,16.0
108.8,4.0
108.86,7.0
108.93,7.0
108.99,5.0
109.05,-3.0
109.12,15.0
109.18,1.0
109.24,8.0
109.31,9.0
109.37,14.0
109.43,15.0
109.49,13.0
109.56,19.0
109.62,8.0
109.68,18.0
109.75,-6.0
109.81,1.0
109.87,14.0
109.94,18.0
110.0,19.0
110.06,17.0
110.12,32.0
110.19,35.0
110.25,44.0
110.31,39.0
110.38,7.0
110.44,36.0
110.5,39.0
110.57,47.0
110.63,44.0
110.69,32.0
110.75,40.0
110.82,33.0
110.88,8.0
110.94,0.0
111.01,18.0
111.07,32.0
111.13,14.0
111.2,1.0
111.26,-6.0
111.32,-5.0
111.38,-27.0
111.45,12.0
111.51,-1.0
111.57,0.0
111.64,-13.0
111.7,-9.0
111.76,-6.0
111.83,-26.0
111.89,-23.0
111.95,4.0
112.01,11.0
112.08,10.0
112.14,2.0
112.2,14.0
112.27,31.0
112.33,-7.0
112.39,-2.0
112.46,-6.0
112.52,-9.0
112.58,-22.0
112.64,-16.0
112.71,-16.0
112.77,1.0
112.83,-8.0
112.9,2.0
112.96,2.0
113.02,12.0
113.09,19.0
113.15,22.0
113.21,-1.0
113.27,13.0
113.34,12.0
113.4,15.0
113.46,13.0
113.53,20.0
113.59,23.0
113.65,14.0
113.72,10.0
113.78,20.0
113.84,-4.0
113.9,25.0
113.97,29.0
114.03,0.0
114.09,11.0
114.16,13.0
114.22,17.0
114.28,9.0
114.35,14.0
114.41,20.0
114.47,29.0
114.53,-2.0
114.6,-26.0
114.66,-15.0
114.72,-19.0
114.79,-22.0
114.85,-30.0
114.91,-20.0
114.98,-16.0
115.04,-7.0
115.1,-19.0
115.16,-14.0
115.23,19.0
115.29,9.0
115.35,16.0
115.42,20.0
115.48,22.0
115.54,15.0
115.61,-1.0
115.67,-3.0
115.73,2.0
115.79,42.0
115.86,39.0
115.92,29.0
115.98,16.0
116.05,21.0
116.11,27.0
116.17,23.0
116.24,35.0
116.3,53.0
116.36,60.0
116.42,52.0
116.49,47.0
116.55,55.0
116.61,40.0
116.68,42.0
116.74,33.0
116.8,36.0
116.87,60.0
116.93,20.0
116.99,41.0
117.05,36.0
117.12,28.0
117.18,19.0
117.24,15.0
117.31,25.0
117.37,36.0
117.43,25.0
117.5,36.0
117.56,32.0
117.62,14.0
117.68,34.0
117.75,26.0
117.81,7.0
117.87,23.0
117.94,24.0
118.0,-4.0
118.06,-2.0
118.13,0.0
118.19,-6.0
118.25,-10.0
118.31,-13.0
118.38,-22.0
118.44,-13.0
118.5,-25.0
118.57,-7.0
118.63,-6.0
118.69,-23.0
118.76,0.0
118.82,-24.0
118.88,-5.0
118.94,17.0
119.01,2.0
119.07,1.0
119.13,-10.0
119.2,-1.0
119.26,-10.0
119.32,3.0
119.39,-15.0
119.45,14.0
119.51,11.0
119.57,-4.0
119.64,12.0
119.7,26.0
119.76,27.0
119.83,13.0
119.89,19.0
119.95,31.0
120.02,32.0
120.08,41.0
120.14,41.0
120.2,37.0
120.27,45.0
120.33,49.0
120.39,44.0
120.46,29.0
120.52,37.0
120.58,31.0
120.65,13.0
120.71,41.0
120.77,28.0
120.83,52.0
120.9,58.0
120.96,44.0
121.02,46.0
121.09,51.0
121.15,50.0
121.21,74.0
121.28,59.0
121.34,40.0
121.4,59.0
121.46,46.0
121.53,35.0
121.59,52.0
121.65,52.0
121.72,67.0
121.78,80.0
121.84,63.0
121.91,72.0
121.97,46.0
122.03,47.0
122.09,59.0
122.16,58.0
122.22,29.0
122.28,37.0
122.35,28.0
122.41,39.0
122.47,37.0
122.54,47.0
122.6,48.0
122.66,34.0
122.72,39.0
122.79,28.0
122.85,17.0
122.91,16.0
122.98,13.0
123.04,10.0
123.1,-3.0
123.17,7.0
123.23,24.0
123.29,20.0
123.35,26.0
123.42,7.0
123.48,-3.0
123.54,1.0
123.61,-16.0
123.67,-13.0
123.73,2.0
123.8,8.0
123.86,-1.0
123.92,-6.0
123.98,5.0
124.05,18.0
124.11,30.0
124.17,30.0
124.24,12.0
124.3,25.0
124.36,37.0
124.43,40.0
124.49,32.0
124.55,32.0
124.61,65.0
124.68,66.0
124.74,60.0
124.8,49.0
124.87,59.0
124.93,50.0
124.99,57.0
125.06,58.0
125.12,55.0
125.18,53.0
125.24,59.0
125.31,59.0
125.37,67.0
125.43,58.0
125.5,32.0
125.56,26.0
125.62,20.0
125.69,27.0
125.75,4.0
125.81,18.0
125.87,25.0
125.94,26.0
126.0,33.0
126.06,39.0
126.13,35.0
126.19,46.0
126.25,25.0
126.32,26.0
126.38,24.0
126.44,50.0
126.5,34.0
126.57,36.0
126.63,41.0
126.69,61.0
126.76,46.0
126.82,44.0
126.88,50.0
126.95,46.0
127.01,50.0
127.07,42.0
127.13,23.0
127.2,33.0
127.26,50.0
127.32,39.0
127.39,17.0
127.45,44.0
127.51,45.0
127.58,38.0
127.64,47.0
127.7,60.0
127.76,70.0
127.83,72.0
127.89,60.0
127.95,58.0
128.02,46.0
128.08,56.0
128.14,68.0
128.21,52.0
128.27,53.0
128.33,46.0
128.39,52.0
128.46,53.0
128.52,65.0
128.58,51.0
128.65,33.0
128.71,55.0
128.77,61.0
128.84,43.0
128.9,47.0
128.96,46.0
129.02,52.0
129.09,27.0
129.15,30.0
129.21,56.0
129.28,38.0
129.34,35.0
129.4,13.0
129.47,46.0
129.53,47.0
129.59,46.0
129.65,39.0
129.72,48.0
129.78,53.0
129.84,41.0
129.91,28.0
129.97,36.0
130.03,45.0
130.1,41.0
130.16,48.0
130.22,33.0
130.28,37.0
130.35,34.0
130.41,54.0
130.47,29.0
130.54,33.0
130.6,36.0
130.66,15.0
130.73,24.0
130.79,29.0
130.85,11.0
130.91,38.0
130.98,60.0
131.04,54.0
131.1,43.0
131.17,41.0
131.23,52.0
131.29,39.0
131.36,26.0
131.42,38.0
131.48,55.0
131.54,44.0
131.61,46.0
131.67,80.0
131.73,68.0
131.8,70.0
131.86,71.0
131.92,70.0
131.99,75.0
132.05,74.0
132.11,64.0
132.17,74.0
132.24,68.0
132.3,61.0
132.36,51.0
132.43,52.0
132.49,62.0
132.55,66.0
132.62,83.0
132.68,51.0
132.74,52.0
132.8,69.0
132.87,82.0
132.93,68.0
132.99,67.0
133.06,57.0
133.12,71.0
133.18,72.0
133.25,74.0
133.31,93.0
133.37,75.0
133.43,80.0
133.5,83.0
133.56,91.0
133.62,82.0
133.69,85.0
133.75,91.0
133.81,60.0
133.88,96.0
133.94,67.0
134.0,63.0
134.06,78.0
134.13,46.0
134.19,48.0
134.25,49.0
134.32,37.0
134.38,46.0
134.44,63.0
134.51,70.0
134.57,57.0
134.63,57.0
134.69,54.0
134.76,36.0
134.82,55.0
134.88,52.0
134.95,54.0
135.01,55.0
135.07,58.0
135.14,54.0
135.2,40.0
135.26,69.0
135.32,61.0
135.39,63.0
135.45,77.0
135.51,81.0
135.58,107.0
135.64,77.0
135.7,66.0
135.77,65.0
135.83,66.0
135.89,80.0
135.95,40.0
136.02,61.0
136.08,74.0
136.14,88.0
136.21,62.0
136.27,39.0
136.33,61.0
136.4,74.0
136.46,87.0
136.52,72.0
136.58,76.0
136.65,99.0
136.71,77.0
136.77,96.0
136.84,76.0
136.9,59.0
136.96,60.0
137.03,83.0
137.09,88.0
137.15,77.0
137.21,70.0
137.28,85.0
137.34,76.0
137.4,64.0
137.47,72.0
137.53,64.0
137.59,58.0
137.66,61.0
137.72,67.0
137.78,74.0
137.84,56.0
137.91,33.0
137.97,59.0
138.03,58.0
138.1,55.0
138.16,63.0
138.22,45.0
138.29,59.0
138.35,61.0
138.41,42.0
138.47,35.0
138.54,53.0
138.6,42.0
138.66,51.0
138.73,54.0
138.79,61.0
138.85,78.0
138.92,71.0
138.98,62.0
139.04,76.0
139.1,68.0
139.17,71.0
139.23,83.0
139.29,71.0
139.36,87.0
139.42,85.0
139.48,72.0
139.55,47.0
139.61,54.0
139.67,63.0
139.73,57.0
139.8,58.0
139.86,50.0
139.92,77.0
139.99,59.0
140.05,38.0
140.11,39.0
140.18,38.0
140.24,43.0
140.3,53.0
140.36,38.0
140.43,42.0
140.49,32.0
140.55,49.0
140.62,46.0
140.68,33.0
140.74,17.0
140.81,32.0
140.87,30.0
140.93,49.0
140.99,62.0
141.06,42.0
141.12,21.0
141.18,5.0
141.25,17.0
141.31,29.0
141.37,37.0
141.44,50.0
141.5,54.0
141.56,52.0
141.62,35.0
141.69,18.0
141.75,26.0
141.81,24.0
141.88,17.0
141.94,28.0
142.0,13.0
142.07,45.0
142.13,39.0
142.19,58.0
142.25,65.0
142.32,31.0
142.38,34.0
142.44,40.0
142.51,56.0
142.57,27.0
142.63,40.0
142.7,41.0
142.76,29.0
142.82,36.0
142.88,36.0
142.95,28.0
143.01,46.0
143.07,53.0
143.14,56.0
143.2,42.0
143.26,60.0
143.33,38.0
143.39,47.0
143.45,61.0
143.51,64.0
143.58,63.0
143.64,77.0
143.7,65.0
143.77,53.0
143.83,66.0
143.89,57.0
143.96,50.0
144.02,45.0
144.08,41.0
144.14,54.0
144.21,37.0
144.27,42.0
144.33,32.0
144.4,12.0
144.46,39.0
144.52,48.0
144.59,51.0
144.65,54.0
144.71,55.0
144.77,36.0
144.84,55.0
144.9,51.0
144.96,43.0
145.03,54.0
145.09,33.0
145.15,38.0
145.22,54.0
145.28,61.0
145.34,45.0
145.4,67.0
145.47,75.0
145.53,64.0
145.59,61.0
145.66,64.0
145.72,53.0
145.78,45.0
145.85,47.0
145.91,33.0
145.97,69.0
146.03,63.0
146.1,72.0
146.16,72.0
146.22,58.0
146.29,65.0
146.35,54.0
146.41,50.0
146.47,44.0
146.54,56.0
146.6,61.0
146.66,79.0
146.73,57.0
146.79,42.0
146.85,55.0
146.92,35.0
146.98,47.0
147.04,54.0
147.1,65.0
147.17,40.0
147.23,60.0
147.29,64.0
147.36,78.0
147.42,51.0
147.48,61.0
147.55,80.0
147.61,69.0
147.67,68.0
147.73,61.0
147.8,74.0
147.86,70.0
147.92,85.0
147.99,80.0
148.05,83.0
148.11,88.0
148.18,98.0
148.24,90.0
148.3,72.0
148.36,66.0
148.43,72.0
148.49,62.0
148.55,45.0
148.62,71.0
148.68,68.0
148.74,71.0
148.81,60.0
148.87,56.0
148.93,89.0
148.99,70.0
149.06,65.0
149.12,60.0
149.18,44.0
149.25,61.0
149.31,53.0
149.37,72.0
149.44,62.0
149.5,63.0
149.56,79.0
149.62,90.0
149.69,89.0
149.75,65.0
149.81,68.0
149.88,67.0
149.94,47.0
150.0,64.0
150.07,64.0
150.13,53.0
150.19,66.0
150.25,67.0
150.32,71.0
150.38,54.0
150.44,79.0
150.51,83.0
150.57,86.0
150.63,90.0
150.7,87.0
150.76,76.0
150.82,81.0
150.88,83.0
150.95,63.0
151.01,57.0
151.07,50.0
151.14,43.0
151.2,44.0
151.26,49.0
151.33,39.0
151.39,40.0
151.45,55.0
151.51,47.0
151.58,61.0
151.64,47.0
151.7,60.0
151.77,79.0
151.83,65.0
151.89,58.0
151.96,75.0
152.02,65.0
152.08,66.0
152.14,50.0
152.21,64.0
152.27,61.0
152.33,61.0
152.4,47.0
152.46,55.0
152.52,49.0
152.59,69.0
152.65,60.0
152.71,41.0
152.77,68.0
152.84,85.0
152.9,86.0
152.96,62.0
153.03,62.0
153.09,54.0
153.15,49.0
153.22,49.0
153.28,45.0
153.34,58.0
153.4,62.0
153.47,35.0
153.53,55.0
153.59,38.0
153.66,50.0
153.72,16.0
153.78,27.0
153.85,45.0
153.91,28.0
153.97,33.0
154.03,61.0
154.1,47.0
154.16,28.0
154.22,64.0
154.29,63.0
154.35,58.0
154.41,47.0
154.48,41.0
154.54,38.0
154.6,60.0
154.66,50.0
154.73,53.0
154.79,10.0
154.85,22.0
154.92,55.0
154.98,60.0
155.04,50.0
155.11,33.0
155.17,50.0
155.23,47.0
155.29,54.0
155.36,79.0
155.42,71.0
155.48,52.0
155.55,69.0
155.61,94.0
155.67,70.0
155.74,42.0
155.8,63.0
155.86,58.0
155.92,78.0
155.99,51.0
156.05,53.0
156.11,65.0
156.18,60.0
156.24,69.0
156.3,58.0
156.37,46.0
156.43,39.0
156.49,34.0
156.55,52.0
156.62,69.0
156.68,45.0
156.74,50.0
156.81,46.0
156.87,35.0
156.93,44.0
157.0,26.0
157.06,27.0
157.12,25.0
157.18,16.0
157.25,38.0
157.31,22.0
157.37,14.0
157.44,43.0
157.5,52.0
157.56,50.0
157.63,45.0
157.69,51.0
157.75,44.0
157.81,50.0
157.88,42.0
157.94,57.0
158.0,59.0
158.07,63.0
158.13,76.0
158.19,76.0
158.26,64.0
158.32,65.0
158.38,80.0
158.44,65.0
158.51,69.0
158.57,74.0
158.63,70.0
158.7,75.0
158.76,63.0
158.82,88.0
158.89,83.0
158.95,69.0
159.01,85.0
159.07,77.0
159.14,90.0
159.2,64.0
159.26,49.0
159.33,68.0
159.39,65.0
159.45,83.0
159.52,80.0
159.58,60.0
159.64,56.0
159.7,69.0
159.77,46.0
159.83,40.0
159.89,46.0
159.96,87.0
160.02,77.0
160.08,72.0
160.15,77.0
160.21,86.0
160.27,88.0
160.33,68.0
160.4,79.0
160.46,69.0
160.52,70.0
160.59,60.0
160.65,68.0
160.71,86.0
160.78,78.0
160.84,102.0
160.9,95.0
160.96,100.0
161.03,85.0
161.09,84.0
161.15,99.0
161.22,95.0
161.28,76.0
161.34,84.0
161.41,94.0
161.47,82.0
161.53,89.0
161.59,106.0
161.66,104.0
161.72,84.0
161.78,83.0
161.85,85.0
161.91,66.0
161.97,71.0
162.04,80.0
162.1,66.0
162.16,72.0
162.22,57.0
162.29,50.0
162.35,52.0
162.41,49.0
162.48,55.0
162.54,50.0
162.6,67.0
162.67,84.0
162.73,69.0
162.79,49.0
162.85,47.0
162.92,45.0
162.98,41.0
163.04,40.0
163.11,39.0
163.17,36.0
163.23,29.0
163.3,23.0
163.36,43.0
163.42,54.0
163.48,22.0
163.55,33.0
163.61,41.0
163.67,19.0
163.74,-2.0
163.8,-3.0
163.86,5.0
163.93,2.0
163.99,8.0
164.05,3.0
164.11,-6.0
164.18,8.0
164.24,-19.0
164.3,-32.0
164.37,-22.0
164.43,-21.0
164.49,-12.0
164.56,-22.0
164.62,-14.0
164.68,0.0
164.74,-2.0
164.81,-12.0
164.87,-1.0
164.93,15.0
165.0,-10.0
165.06,-14.0
165.12,19.0
165.19,1.0
165.25,-3.0
165.31,8.0
165.37,8.0
165.44,15.0
165.5,5.0
165.56,23.0
165.63,11.0
165.69,1.0
165.75,30.0
165.82,14.0
165.88,17.0
165.94,19.0
166.0,31.0
166.07,14.0
166.13,-5.0
166.19,-1.0
166.26,3.0
166.32,49.0
166.38,35.0
166.45,54.0
166.51,64.0
166.57,54.0
166.63,57.0
166.7,45.0
166.76,49.0
166.82,56.0
166.89,53.0
166.95,48.0
167.01,47.0
167.08,57.0
167.14,68.0
167.2,66.0
167.26,65.0
167.33,62.0
167.39,71.0
167.45,48.0
167.52,53.0
167.58,39.0
167.64,6.0
167.71,32.0
167.77,32.0
167.83,32.0
167.89,-7.0
167.96,-10.0
168.02,-20.0
168.08,-15.0
168.15,-38.0
168.21,-16.0
168.27,16.0
168.34,8.0
168.4,2.0
168.46,-9.0
168.52,-2.0
168.59,0.0
168.65,25.0
168.71,14.0
168.78,22.0
168.84,41.0
168.9,20.0
168.97,23.0
169.03,7.0
169.09,7.0
169.15,-8.0
169.22,-1.0
169.28,12.0
169.34,26.0
169.41,17.0
169.47,22.0
169.53,27.0
169.6,24.0
169.66,15.0
169.72,24.0
169.78,9.0
169.85,9.0
169.91,19.0
169.97,6.0
170.04,-4.0
170.1,5.0
170.16,11.0
170.23,10.0
170.29,10.0
170.35,21.0
170.41,25.0
170.48,1.0
170.54,2.0
170.6,-1.0
170.67,-7.0
170.73,11.0
170.79,25.0
170.86,20.0
170.92,22.0
170.98,15.0
171.04,24.0
171.11,13.0
171.17,32.0
171.23,5.0
171.3,2.0
171.36,13.0
171.42,26.0
171.49,24.0
171.55,9.0
171.61,24.0
171.67,32.0
171.74,38.0
171.8,24.0
171.86,0.0
171.93,9.0
171.99,16.0
172.05,37.0
172.12,2.0
172.18,26.0
172.24,41.0
172.3,43.0
172.37,34.0
172.43,22.0
172.49,29.0
172.56,40.0
172.62,33.0
172.68,51.0
172.75,62.0
172.81,40.0
172.87,57.0
172.93,46.0
173.0,40.0
173.06,41.0
173.12,52.0
173.19,47.0
173.25,19.0
173.31,23.0
173.38,30.0
173.44,24.0
173.5,40.0
173.56,22.0
173.63,21.0
173.69,40.0
173.75,27.0
173.82,44.0
173.88,43.0
173.94,32.0
174.01,36.0
174.07,24.0
174.13,33.0
174.19,39.0
174.26,34.0
174.32,38.0
174.38,44.0
174.45,32.0
174.51,30.0
174.57,49.0
174.64,21.0
174.7,25.0
174.76,27.0
174.82,46.0
174.89,41.0
174.95,36.0
175.01,25.0
175.08,20.0
175.14,44.0
175.2,38.0
175.27,30.0
175.33,43.0
175.39,30.0
175.45,33.0
175.52,27.0
175.58,38.0
175.64,33.0
175.71,38.0
175.77,49.0
175.83,43.0
175.9,63.0
175.96,55.0
176.02,53.0
176.08,36.0
176.15,58.0
176.21,40.0
176.27,37.0
176.34,47.0
176.4,39.0
176.46,33.0
176.53,43.0
176.59,58.0
176.65,63.0
176.71,44.0
176.78,25.0
176.84,55.0
176.9,70.0
176.97,44.0
177.03,65.0
177.09,68.0
177.16,48.0
177.22,62.0
177.28,53.0
177.34,46.0
177.41,52.0
177.47,62.0
177.53,47.0
177.6,35.0
177.66,36.0
177.72,42.0
177.79,31.0
177.85,42.0
177.91,41.0
177.97,28.0
178.04,37.0
178.1,33.0
178.16,25.0
178.23,53.0
178.29,65.0
178.35,71.0
178.42,55.0
178.48,42.0
178.54,44.0
178.6,47.0
178.67,47.0
178.73,37.0
178.79,33.0
178.86,23.0
178.92,15.0
178.98,47.0
179.05,30.0
179.11,22.0
179.17,37.0
179.23,33.0
179.3,32.0
179.36,43.0
179.42,33.0
179.49,34.0
179.55,22.0
179.61,29.0
179.68,33.0
179.74,22.0
179.8,-17.0
179.86,3.0
179.93,24.0
179.99,6.0
180.05,7.0
180.12,27.0
180.18,27.0
180.24,24.0
180.31,27.0
180.37,27.0
180.43,14.0
180.49,28.0
180.56,24.0
180.62,15.0
180.68,36.0
180.75,35.0
180.81,26.0
180.87,18.0
180.94,24.0
181.0,18.0
181.06,21.0
181.12,40.0
181.19,23.0
181.25,5.0
181.31,11.0
181.38,22.0
181.44,37.0
181.5,35.0
181.57,25.0
181.63,31.0
181.69,32.0
181.75,36.0
181.82,29.0
181.88,46.0
181.94,40.0
182.01,25.0
182.07,10.0
182.13,18.0
182.2,24.0
182.26,16.0
182.32,40.0
182.38,42.0
182.45,30.0
182.51,14.0
182.57,32.0
182.64,34.0
182.7,55.0
182.76,58.0
182.83,52.0
182.89,73.0
182.95,34.0
183.01,40.0
183.08,36.0
183.14,34.0
183.2,60.0
183.27,36.0
183.33,44.0
183.39,37.0
183.46,29.0
183.52,13.0
183.58,21.0
183.64,36.0
183.71,38.0
183.77,49.0
183.83,50.0
183.9,51.0
183.96,62.0
184.02,70.0
184.09,75.0
184.15,82.0
184.21,80.0
184.27,92.0
184.34,95.0
184.4,72.0
184.46,76.0
184.53,79.0
184.59,96.0
184.65,91.0
184.72,101.0
184.78,80.0
184.84,79.0
184.9,71.0
184.97,78.0
185.03,71.0
185.09,65.0
185.16,76.0
185.22,87.0
185.28,97.0
185.35,76.0
185.41,84.0
185.47,77.0
185.53,74.0
185.6,58.0
185.66,87.0
185.72,87.0
185.79,87.0
185.85,93.0
185.91,77.0
185.98,108.0
186.04,82.0
186.1,79.0
186.16,85.0
186.23,102.0
186.29,107.0
186.35,100.0
186.42,109.0
186.48,103.0
186.54,109.0
186.61,98.0
186.67,112.0
186.73,82.0
186.79,74.0
186.86,74.0
186.92,79.0
186.98,76.0
187.05,97.0
187.11,97.0
187.17,75.0
187.24,104.0
187.3,82.0
187.36,110.0
187.42,114.0
187.49,103.0
187.55,112.0
187.61,94.0
187.68,88.0
187.74,94.0
187.8,103.0
187.87,87.0
187.93,119.0
187.99,126.0
188.05,112.0
188.12,122.0
188.18,87.0
188.24,106.0
188.31,105.0
188.37,90.0
188.43,108.0
188.5,106.0
188.56,110.0
188.62,111.0
188.68,97.0
188.75,96.0
188.81,101.0
188.87,83.0
188.94,74.0
189.0,58.0
189.06,58.0
189.13,47.0
189.19,60.0
189.25,74.0
189.31,55.0
189.38,65.0
189.44,84.0
189.5,82.0
189.57,59.0
189.63,67.0
189.69,64.0
189.76,64.0
189.82,74.0
189.88,57.0
189.94,46.0
190.01,85.0
190.07,76.0
190.13,73.0
190.2,76.0
190.26,51.0
190.32,25.0
190.39,37.0
190.45,43.0
190.51,22.0
190.57,10.0
190.64,34.0
190.7,45.0
190.76,36.0
190.83,26.0
190.89,45.0
190.95,55.0
191.02,33.0
191.08,25.0
191.14,17.0
191.2,36.0
191.27,33.0
191.33,32.0
191.39,25.0
191.46,29.0
191.52,22.0
191.58,35.0
191.65,44.0
191.71,47.0
191.77,51.0
191.83,57.0
191.9,54.0
191.96,46.0
192.02,56.0
192.09,59.0
192.15,69.0
192.21,76.0
192.28,57.0
192.34,87.0
192.4,72.0
192.46,61.0
192.53,69.0
192.59,55.0
192.65,54.0
192.72,74.0
192.78,85.0
192.84,113.0
192.91,63.0
192.97,68.0
193.03,81.0
193.09,88.0
193.16,66.0
193.22,58.0
193.28,76.0
193.35,63.0
193.41,59.0
193.47,53.0
193.54,48.0
193.6,49.0
193.66,62.0
193.72,77.0
193.79,73.0
193.85,65.0
193.91,69.0
193.98,68.0
194.04,73.0
194.1,80.0
194.17,67.0
194.23,58.0
194.29,68.0
194.35,58.0
194.42,74.0
194.48,70.0
194.54,73.0
194.61,54.0
194.67,62.0
194.73,63.0
194.8,63.0
194.86,74.0
194.92,72.0
194.98,54.0
195.05,54.0
195.11,49.0
195.17,84.0
195.24,90.0
195.3,54.0
195.36,71.0
195.43,71.0
195.49,71.0
195.55,48.0
195.61,52.0
195.68,60.0
195.74,60.0
195.8,57.0
195.87,47.0
195.93,55.0
195.99,50.0
196.06,69.0
196.12,50.0
196.18,47.0
196.24,37.0
196.31,40.0
196.37,30.0
196.43,50.0
196.5,71.0
196.56,58.0
196.62,71.0
196.69,58.0
196.75,59.0
196.81,77.0
196.87,63.0
196.94,58.0
197.0,61.0
197.06,64.0
197.13,66.0
197.19,61.0
197.25,70.0
197.32,93.0
197.38,69.0
197.44,61.0
197.5,69.0
197.57,43.0
197.63,64.0
197.69,53.0
197.76,70.0
197.82,87.0
197.88,87.0
197.95,60.0
198.01,54.0
198.07,56.0
198.13,65.0
198.2,71.0
198.26,58.0
198.32,51.0
198.39,64.0
198.45,51.0
198.51,46.0
198.58,40.0
198.64,52.0
198.7,51.0
198.76,55.0
198.83,63.0
198.89,67.0
198.95,56.0
199.02,55.0
199.08,76.0
199.14,59.0
199.21,77.0
199.27,72.0
199.33,65.0
199.39,61.0
199.46,54.0
199.52,62.0
199.58,43.0
199.65,41.0
199.71,49.0
199.77,16.0
199.84,10.0
199.9,34.0
199.96,58.0
200.02,61.0
200.09,44.0
200.15,57.0
200.21,68.0
200.28,61.0
200.34,66.0
200.4,66.0
200.47,69.0
200.53,80.0
200.59,73.0
200.65,87.0
200.72,90.0
200.78,69.0
200.84,76.0
200.91,95.0
200.97,71.0
201.03,61.0
201.1,87.0
201.16,105.0
201.22,105.0
201.28,87.0
201.35,90.0
201.41,107.0
201.47,104.0
201.54,98.0
201.6,99.0
201.66,95.0
201.73,97.0
201.79,109.0
201.85,94.0
201.91,108.0
201.98,114.0
202.04,90.0
202.1,91.0
202.17,95.0
202.23,95.0
202.29,117.0
202.36,120.0
202.42,121.0
202.48,109.0
202.54,116.0
202.61,134.0
202.67,149.0
202.73,132.0
202.8,143.0
202.86,148.0
202.92,139.0
202.99,132.0
203.05,115.0
203.11,118.0
203.17,135.0
203.24,123.0
203.3,143.0
203.36,124.0
203.43,120.0
203.49,118.0
203.55,107.0
203.62,128.0
203.68,109.0
203.74,108.0
203.8,106.0
203.87,100.0
203.93,113.0
203.99,98.0
204.06,83.0
204.12,76.0
204.18,87.0
204.25,97.0
204.31,99.0
204.37,89.0
204.43,88.0
204.5,98.0
204.56,102.0
204.62,97.0
204.69,89.0
204.75,85.0
204.81,83.0
204.88,76.0
204.94,82.0
205.0,98.0
205.06,104.0
205.13,101.0
205.19,105.0
205.25,94.0
205.32,91.0
205.38,124.0
205.44,107.0
205.51,90.0
205.57,93.0
205.63,114.0
205.69,115.0
205.76,101.0
205.82,109.0
205.88,92.0
205.95,122.0
206.01,107.0
206.07,103.0
206.14,94.0
206.2,86.0
206.26,108.0
206.32,84.0
206.39,98.0
206.45,78.0
206.51,82.0
206.58,80.0
206.64,70.0
206.7,94.0
206.77,87.0
206.83,92.0
206.89,94.0
206.95,64.0
207.02,80.0
207.08,76.0
207.14,55.0
207.21,46.0
207.27,54.0
207.33,52.0
207.4,65.0
207.46,68.0
207.52,58.0
207.58,53.0
207.65,50.0
207.71,45.0
207.77,53.0
207.84,29.0
207.9,44.0
207.96,55.0
208.03,54.0
208.09,46.0
208.15,44.0
208.21,51.0
208.28,49.0
208.34,43.0
208.4,27.0
208.47,40.0
208.53,30.0
208.59,40.0
208.66,46.0
208.72,24.0
208.78,33.0
208.84,40.0
208.91,48.0
208.97,50.0
209.03,35.0
209.1,43.0
209.16,44.0
209.22,43.0
209.29,42.0
209.35,43.0
209.41,37.0
209.47,55.0
209.54,45.0
209.6,51.0
209.66,45.0
209.73,52.0
209.79,52.0
209.85,48.0
209.92,66.0
209.98,62.0
210.04,92.0
210.1,69.0
210.17,88.0
210.23,82.0
210.29,81.0
210.36,71.0
210.42,72.0
210.48,76.0
210.55,69.0
210.61,76.0
210.67,72.0
210.73,76.0
210.8,55.0
210.86,51.0
210.92,59.0
210.99,54.0
211.05,49.0
211.11,56.0
211.18,55.0
211.24,68.0
211.3,73.0
211.36,64.0
211.43,60.0
211.49,71.0
211.55,82.0
211.62,62.0
211.68,47.0
211.74,25.0
211.81,42.0
211.87,41.0
211.93,52.0
211.99,36.0
212.06,36.0
212.12,43.0
212.18,48.0
212.25,36.0
212.31,56.0
212.37,21.0
212.44,46.0
212.5,54.0
212.56,35.0
212.62,44.0
212.69,19.0
212.75,33.0
212.81,32.0
212.88,41.0
212.94,33.0
213.0,22.0
213.07,38.0
213.13,43.0
213.19,35.0
213.25,34.0
213.32,38.0
213.38,58.0
213.44,53.0
213.51,45.0
213.57,42.0
213.63,41.0
213.7,62.0
213.76,74.0
213.82,63.0
213.88,63.0
213.95,89.0
214.01,59.0
214.07,50.0
214.14,28.0
214.2,57.0
214.26,46.0
214.33,37.0
214.39,60.0
214.45,32.0
214.51,29.0
214.58,36.0
214.64,22.0
214.7,26.0
214.77,16.0
214.83,12.0
214.89,13.0
214.96,-4.0
215.02,19.0
215.08,39.0
215.14,49.0
215.21,30.0
215.27,10.0
215.33,25.0
215.4,17.0
215.46,27.0
215.52,33.0
215.59,36.0
215.65,31.0
215.71,19.0
215.77,38.0
215.84,31.0
215.9,24.0
215.96,34.0
216.03,33.0
216.09,37.0
216.15,36.0
216.22,43.0
216.28,49.0
216.34,47.0
216.4,57.0
216.47,69.0
216.53,43.0
216.59,36.0
216.66,29.0
216.72,43.0
216.78,25.0
216.85,35.0
216.91,42.0
216.97,46.0
217.03,41.0
217.1,34.0
217.16,51.0
217.22,63.0
217.29,58.0
217.35,61.0
217.41,54.0
217.48,39.0
217.54,53.0
217.6,48.0
217.66,45.0
217.73,46.0
217.79,37.0
217.85,42.0
217.92,43.0
217.98,42.0
218.04,50.0
218.11,41.0
218.17,50.0
218.23,44.0
218.29,43.0
218.36,37.0
218.42,39.0
218.48,50.0
218.55,45.0
218.61,49.0
218.67,55.0
218.74,45.0
218.8,50.0
218.86,54.0
218.92,52.0
218.99,60.0
219.05,47.0
219.11,61.0
219.18,60.0
219.24,75.0
219.3,72.0
219.37,80.0
219.43,81.0
219.49,80.0
219.55,71.0
219.62,80.0
219.68,87.0
219.74,68.0
219.81,83.0
219.87,82.0
219.93,79.0
220.0,71.0
220.06,73.0
220.12,80.0
220.18,64.0
220.25,53.0
220.31,67.0
220.37,57.0
220.44,65.0
220.5,47.0
220.56,46.0
220.63,28.0
220.69,25.0
220.75,40.0
220.81,48.0
220.88,53.0
220.94,44.0
221.0,55.0
221.07,53.0
221.13,74.0
221.19,51.0
221.26,50.0
221.32,50.0
221.38,31.0
221.44,64.0
221.51,46.0
221.57,47.0
221.63,51.0
221.7,54.0
221.76,51.0
221.82,49.0
221.89,65.0
221.95,61.0
222.01,60.0
222.07,49.0
222.14,41.0
222.2,55.0
222.26,44.0
222.33,61.0
222.39,41.0
222.45,37.0
222.52,53.0
222.58,59.0
222.64,55.0
222.7,54.0
222.77,41.0
222.83,57.0
222.89,46.0
222.96,42.0
223.02,39.0
223.08,29.0
223.15,31.0
223.21,45.0
223.27,22.0
223.33,21.0
223.4,25.0
223.46,4.0
223.52,6.0
223.59,16.0
223.65,24.0
223.71,27.0
223.78,9.0
223.84,14.0
223.9,13.0
223.96,18.0
224.03,24.0
224.09,10.0
224.15,-5.0
224.22,-8.0
224.28,-3.0
224.34,17.0
224.41,33.0
224.47,8.0
224.53,-7.0
224.59,-15.0
224.66,-34.0
224.72,-23.0
224.78,7.0
224.85,8.0
224.91,18.0
224.97,13.0
225.04,21.0
225.1,41.0
225.16,26.0
225.22,15.0
225.29,15.0
225.35,37.0
225.41,40.0
225.48,37.0
225.54,27.0
225.6,32.0
225.67,18.0
225.73,27.0
225.79,44.0
225.85,14.0
225.92,10.0
225.98,19.0
226.04,31.0
226.11,35.0
226.17,12.0
226.23,9.0
226.3,8.0
226.36,1.0
226.42,10.0
226.48,11.0
226.55,7.0
226.61,6.0
226.67,-24.0
226.74,-28.0
226.8,6.0
226.86,0.0
226.93,0.0
226.99,-1.0
227.05,0.0
227.11,7.0
227.18,22.0
227.24,28.0
227.3,15.0
227.37,19.0
227.43,22.0
227.49,21.0
227.56,13.0
227.62,26.0
227.68,26.0
227.74,17.0
227.81,8.0
227.87,25.0
227.93,42.0
228.0,30.0
228.06,27.0
228.12,39.0
228.19,34.0
228.25,41.0
228.31,47.0
228.37,46.0
228.44,47.0
228.5,47.0
228.56,58.0
228.63,46.0
228.69,32.0
228.75,28.0
228.82,29.0
228.88,47.0
228.94,49.0
229.0,40.0
229.07,47.0
229.13,55.0
229.19,35.0
229.26,26.0
229.32,46.0
229.38,40.0
229.45,14.0
229.51,29.0
229.57,24.0
229.63,25.0
229.7,32.0
229.76,26.0
229.82,31.0
229.89,15.0
229.95,18.0
230.01,10.0
230.08,-5.0
230.14,8.0
230.2,13.0
230.26,12.0
230.33,9.0
230.39,10.0
230.45,17.0
230.52,0.0
230.58,32.0
230.64,29.0
230.71,28.0
230.77,-8.0
230.83,10.0
230.89,21.0
230.96,18.0
231.02,5.0
231.08,-7.0
231.15,19.0
231.21,22.0
231.27,4.0
231.34,-6.0
231.4,9.0
231.46,10.0
231.52,19.0
231.59,12.0
231.65,0.0
231.71,16.0
231.78,21.0
231.84,23.0
231.9,12.0
231.97,9.0
232.03,0.0
232.09,11.0
232.15,7.0
232.22,10.0
232.28,40.0
232.34,23.0
232.41,8.0
232.47,9.0
232.53,7.0
232.6,22.0
232.66,15.0
232.72,35.0
232.78,26.0
232.85,21.0
232.91,18.0
232.97,30.0
233.04,23.0
233.1,19.0
233.16,11.0
233.23,15.0
233.29,26.0
233.35,5.0
233.41,4.0
233.48,6.0
233.54,30.0
233.6,25.0
233.67,20.0
233.73,22.0
233.79,15.0
233.86,31.0
233.92,26.0
233.98,17.0
234.04,11.0
234.11,30.0
234.17,27.0
234.23,20.0
234.3,0.0
234.36,23.0
234.42,17.0
234.49,3.0
234.55,7.0
234.61,22.0
234.67,17.0
234.74,17.0
234.8,6.0
234.86,1.0
234.93,25.0
234.99,40.0
235.05,32.0
235.12,23.0
235.18,22.0
235.24,43.0
235.3,40.0
235.37,35.0
235.43,38.0
235.49,36.0
235.56,33.0
235.62,20.0
235.68,47.0
235.75,55.0
235.81,57.0
235.87,72.0
235.93,67.0
236.0,69.0
236.06,70.0
236.12,71.0
236.19,81.0
236.25,67.0
236.31,83.0
236.38,93.0
236.44,75.0
236.5,82.0
236.56,66.0
236.63,88.0
236.69,91.0
236.75,75.0
236.82,80.0
236.88,67.0
236.94,64.0
237.01,97.0
237.07,88.0
237.13,86.0
237.19,113.0
237.26,103.0
237.32,123.0
237.38,117.0
237.45,129.0
237.51,94.0
237.57,80.0
237.64,75.0
237.7,71.0
237.76,95.0
237.82,80.0
237.89,74.0
237.95,88.0
238.01,87.0
238.08,100.0
238.14,85.0
238.2,93.0
238.27,89.0
238.33,69.0
238.39,85.0
238.45,95.0
238.52,75.0
238.58,67.0
238.64,119.0
238.71,118.0
238.77,117.0
238.83,103.0
238.9,89.0
238.96,99.0
239.02,118.0
239.08,123.0
239.15,136.0
239.21,124.0
239.27,109.0
239.34,125.0
239.4,109.0
239.46,89.0
239.53,81.0
239.59,80.0
239.65,83.0
239.71,77.0
239.78,75.0
239.84,101.0
239.9,96.0
239.97,75.0
240.03,84.0
240.09,88.0
240.16,89.0
240.22,97.0
240.28,87.0
240.34,73.0
240.41,45.0
240.47,51.0
240.53,48.0
240.6,61.0
240.66,69.0
240.72,66.0
240.79,51.0
240.85,47.0
240.91,43.0
240.97,41.0
241.04,55.0
241.1,58.0
241.16,57.0
241.23,23.0
241.29,28.0
241.35,32.0
241.42,33.0
241.48,47.0
241.54,27.0
241.6,38.0
241.67,37.0
241.73,38.0
241.79,35.0
241.86,18.0
241.92,55.0
241.98,63.0
242.05,47.0
242.11,35.0
242.17,37.0
242.23,65.0
242.3,34.0
242.36,39.0
242.42,59.0
242.49,81.0
242.55,72.0
242.61,78.0
242.68,64.0
242.74,74.0
242.8,77.0
242.86,65.0
242.93,83.0
242.99,74.0
243.05,91.0
243.12,118.0
243.18,107.0
243.24,102.0
243.31,94.0
243.37,95.0
243.43,99.0
243.49,88.0
243.56,91.0
243.62,98.0
243.68,88.0
243.75,95.0
243.81,81.0
243.87,106.0
243.94,102.0
244.0,105.0
244.06,100.0
244.12,103.0
244.19,91.0
244.25,95.0
244.31,112.0
244.38,113.0
244.44,92.0
244.5,84.0
244.57,86.0
244.63,78.0
244.69,99.0
244.75,90.0
244.82,83.0
244.88,77.0
244.94,87.0
245.01,87.0
245.07,72.0
245.13,85.0
245.2,78.0
245.26,89.0
245.32,78.0
245.38,81.0
245.45,77.0
245.51,76.0
245.57,83.0
245.64,91.0
245.7,99.0
245.76,79.0
245.83,63.0
245.89,64.0
245.95,51.0
246.01,70.0
246.08,56.0
246.14,46.0
246.2,65.0
246.27,60.0
246.33,49.0
246.39,57.0
246.46,43.0
246.52,44.0
246.58,44.0
246.64,47.0
246.71,58.0
246.77,54.0
246.83,73.0
246.9,48.0
246.96,51.0
247.02,63.0
247.09,71.0
247.15,80.0
247.21,70.0
247.27,59.0
247.34,42.0
247.4,49.0
247.46,61.0
247.53,57.0
247.59,74.0
247.65,69.0
247.72,56.0
247.78,45.0
247.84,54.0
247.9,47.0
247.97,66.0
248.03,56.0
248.09,48.0
248.16,44.0
248.22,44.0
248.28,45.0
248.35,42.0
248.41,45.0
248.47,52.0
248.53,54.0
248.6,50.0
248.66,23.0
248.72,36.0
248.79,53.0
248.85,43.0
248.91,33.0
248.98,41.0
249.04,50.0
249.1,22.0
249.16,12.0
249.23,-3.0
249.29,-9.0
249.35,-1.0
249.42,3.0
249.48,16.0
249.54,5.0
249.61,8.0
249.67,40.0
249.73,30.0
249.79,39.0
249.86,24.0
249.92,29.0
249.98,48.0
250.05,48.0
250.11,81.0
250.17,60.0
250.24,53.0
250.3,60.0
250.36,61.0
250.42,68.0
250.49,81.0
250.55,57.0
250.61,76.0
250.68,79.0
250.74,70.0
250.8,77.0
250.87,75.0
250.93,51.0
250.99,43.0
251.05,42.0
251.12,54.0
251.18,64.0
251.24,71.0
251.31,53.0
251.37,55.0
251.43,59.0
251.5,49.0
251.56,50.0
251.62,51.0
251.68,33.0
251.75,43.0
251.81,56.0
251.87,65.0
251.94,49.0
252.0,69.0
252.06,86.0
252.13,48.0
252.19,78.0
252.25,81.0
252.31,95.0
252.38,95.0
252.44,94.0
252.5,90.0
252.57,79.0
252.63,86.0
252.69,79.0
252.76,63.0
252.82,83.0
252.88,91.0
252.94,69.0
253.01,80.0
253.07,90.0
253.13,96.0
253.2,87.0
253.26,68.0
253.32,78.0
253.39,53.0
253.45,71.0
253.51,61.0
253.57,46.0
253.64,62.0
253.7,81.0
253.76,82.0
253.83,75.0
253.89,76.0
253.95,63.0
254.02,89.0
254.08,82.0
254.14,85.0
254.2,94.0
254.27,95.0
254.33,109.0
254.39,101.0
254.46,104.0
254.52,101.0
254.58,75.0
254.65,90.0
254.71,103.0
254.77,90.0
254.83,97.0
254.9,92.0
254.96,90.0
255.02,87.0
255.09,73.0
255.15,62.0
255.21,71.0
255.28,77.0
255.34,79.0
255.4,89.0
255.46,108.0
255.53,98.0
255.59,100.0
255.65,103.0
255.72,114.0
255.78,120.0
255.84,94.0
255.91,109.0
255.97,95.0
256.03,98.0
256.09,104.0
256.16,95.0
256.22,93.0
256.28,82.0
256.35,64.0
256.41,81.0
256.47,79.0
256.54,76.0
256.6,76.0
256.66,77.0
256.72,84.0
256.79,54.0
256.85,76.0
256.91,63.0
256.98,47.0
257.04,57.0
257.1,46.0
257.17,53.0
257.23,57.0
257.29,77.0
257.35,75.0
257.42,82.0
257.48,88.0
257.54,68.0
257.61,55.0
257.67,70.0
257.73,60.0
257.8,52.0
257.86,57.0
257.92,62.0
257.98,68.0
258.05,53.0
258.11,28.0
258.17,28.0
258.24,21.0
258.3,15.0
258.36,17.0
258.43,20.0
258.49,23.0
258.55,26.0
258.61,16.0
258.68,42.0
258.74,7.0
258.8,23.0
258.87,38.0
258.93,57.0
258.99,59.0
259.06,61.0
259.12,76.0
259.18,56.0
259.24,39.0
259.31,53.0
259.37,65.0
259.43,53.0
259.5,62.0
259.56,64.0
259.62,68.0
259.69,65.0
259.75,64.0
259.81,67.0
259.87,64.0
259.94,50.0
260.0,65.0
260.06,53.0
260.13,44.0
260.19,57.0
260.25,68.0
260.32,65.0
260.38,76.0
260.44,75.0
260.5,67.0
260.57,65.0
260.63,55.0
260.69,59.0
260.76,60.0
260.82,81.0
260.88,61.0
260.95,49.0
261.01,68.0
261.07,93.0
261.13,81.0
261.2,86.0
261.26,86.0
261.32,60.0
261.39,59.0
261.45,71.0
261.51,66.0
261.58,49.0
261.64,47.0
261.7,60.0
261.76,64.0
261.83,53.0
261.89,77.0
261.95,67.0
262.02,69.0
262.08,45.0
262.14,53.0
262.21,63.0
262.27,72.0
262.33,58.0
262.39,52.0
262.46,18.0
262.52,35.0
262.58,33.0
262.65,24.0
262.71,24.0
262.77,17.0
262.84,26.0
262.9,16.0
262.96,14.0
263.02,27.0
263.09,14.0
263.15,20.0
263.21,20.0
263.28,22.0
263.34,19.0
263.4,13.0
263.47,22.0
263.53,31.0
263.59,36.0
263.65,26.0
263.72,37.0
263.78,33.0
263.84,9.0
263.91,25.0
263.97,30.0
264.03,16.0
264.1,41.0
264.16,55.0
264.22,26.0
264.28,14.0
264.35,17.0
264.41,27.0
264.47,35.0
264.54,27.0
264.6,22.0
264.66,3.0
264.73,40.0
264.79,32.0
264.85,18.0
264.91,6.0
264.98,16.0
265.04,18.0
265.1,21.0
265.17,5.0
265.23,-12.0
265.29,1.0
265.36,7.0
265.42,16.0
265.48,34.0
265.54,23.0
265.61,13.0
265.67,38.0
265.73,45.0
265.8,37.0
265.86,43.0
265.92,34.0
265.99,11.0
266.05,34.0
266.11,23.0
266.17,22.0
266.24,27.0
266.3,24.0
266.36,16.0
266.43,25.0
266.49,32.0
266.55,21.0
266.62,40.0
266.68,35.0
266.74,17.0
266.8,25.0
266.87,37.0
266.93,0.0
266.99,27.0
267.06,23.0
267.12,20.0
267.18,10.0
267.25,18.0
267.31,32.0
267.37,43.0
267.43,27.0
267.5,27.0
267.56,42.0
267.62,50.0
267.69,49.0
267.75,45.0
267.81,63.0
267.88,54.0
267.94,40.0
268.0,42.0
268.06,28.0
268.13,14.0
268.19,20.0
268.25,30.0
268.32,14.0
268.38,16.0
268.44,26.0
268.51,37.0
268.57,44.0
268.63,6.0
268.69,8.0
268.76,12.0
268.82,29.0
268.88,26.0
268.95,34.0
269.01,44.0
269.07,34.0
269.14,53.0
269.2,30.0
269.26,38.0
269.32,34.0
269.39,43.0
269.45,55.0
269.51,30.0
269.58,56.0
269.64,56.0
269.7,53.0
269.77,63.0
269.83,73.0
269.89,78.0
269.95,61.0
270.02,80.0
270.08,74.0
270.14,83.0
270.21,90.0
270.27,66.0
270.33,51.0
270.4,71.0
270.46,75.0
270.52,100.0
270.58,74.0
270.65,78.0
270.71,73.0
270.77,76.0
270.84,78.0
270.9,71.0
270.96,88.0
271.03,82.0
271.09,85.0
271.15,79.0
271.21,67.0
271.28,60.0
271.34,60.0
271.4,67.0
271.47,59.0
271.53,47.0
271.59,46.0
271.66,29.0
271.72,38.0
271.78,67.0
271.84,62.0
271.91,73.0
271.97,74.0
272.03,53.0
272.1,56.0
272.16,68.0
272.22,70.0
272.29,79.0
272.35,63.0
272.41,65.0
272.47,67.0
272.54,71.0
272.6,74.0
272.66,62.0
272.73,64.0
272.79,79.0
272.85,66.0
272.92,71.0
272.98,64.0
273.04,63.0
273.1,74.0
273.17,80.0
273.23,79.0
273.29,61.0
273.36,49.0
273.42,60.0
273.48,46.0
273.55,45.0
273.61,43.0
273.67,33.0
273.73,51.0
273.8,47.0
273.86,37.0
273.92,22.0
273.99,5.0
274.05,19.0
274.11,10.0
274.18,12.0
274.24,31.0
274.3,7.0
274.36,31.0
274.43,47.0
274.49,34.0
274.55,13.0
274.62,1.0
274.68,21.0
274.74,-6.0
274.81,28.0
274.87,26.0
274.93,23.0
274.99,22.0
275.06,9.0
275.12,30.0
275.18,37.0
275.25,37.0
275.31,34.0
275.37,17.0
275.44,31.0
275.5,41.0
275.56,22.0
275.62,22.0
275.69,19.0
275.75,22.0
275.81,29.0
275.88,12.0
275.94,16.0
276.0,15.0
276.07,13.0
276.13,7.0
276.19,20.0
276.25,16.0
276.32,7.0
276.38,-3.0
276.44,-2.0
276.51,3.0
276.57,17.0
276.63,15.0
276.7,25.0
276.76,25.0
276.82,46.0
276.88,23.0
276.95,41.0
277.01,44.0
277.07,27.0
277.14,39.0
277.2,37.0
277.26,30.0
277.33,26.0
277.39,32.0
277.45,39.0
277.51,39.0
277.58,34.0
277.64,54.0
277.7,41.0
277.77,39.0
277.83,38.0
277.89,43.0
277.96,35.0
278.02,10.0
278.08,31.0
278.14,23.0
278.21,40.0
278.27,49.0
278.33,31.0
278.4,27.0
278.46,27.0
278.52,32.0
278.59,31.0
278.65,14.0
278.71,-9.0
278.77,-4.0
278.84,9.0
278.9,12.0
278.96,16.0
279.03,26.0
279.09,36.0
279.15,30.0
279.22,24.0
279.28,34.0
279.34,33.0
279.4,24.0
279.47,11.0
279.53,21.0
279.59,20.0
279.66,22.0
279.72,25.0
279.78,2.0
279.85,8.0
279.91,26.0
279.97,14.0
280.03,25.0
280.1,19.0
280.16,29.0
280.22,21.0
280.29,33.0
280.35,25.0
280.41,32.0
280.48,23.0
280.54,44.0
280.6,35.0
280.66,49.0
280.73,45.0
280.79,42.0
280.85,24.0
280.92,13.0
280.98,32.0
281.04,20.0
281.11,38.0
281.17,52.0
281.23,53.0
281.29,64.0
281.36,48.0
281.42,38.0
281.48,38.0
281.55,25.0
281.61,38.0
281.67,44.0
281.74,28.0
281.8,36.0
281.86,44.0
281.92,49.0
281.99,43.0
282.05,39.0
282.11,38.0
282.18,35.0
282.24,35.0
282.3,34.0
282.37,39.0
282.43,25.0
282.49,26.0
282.55,25.0
282.62,29.0
282.68,12.0
282.74,10.0
282.81,8.0
282.87,15.0
282.93,35.0
283.0,38.0
283.06,22.0
283.12,27.0
283.18,42.0
283.25,34.0
283.31,26.0
283.37,14.0
283.44,36.0
283.5,43.0
283.56,38.0
283.63,44.0
283.69,36.0
283.75,30.0
283.81,38.0
283.88,25.0
283.94,35.0
284.0,43.0
284.07,48.0
284.13,45.0
284.19,42.0
284.26,43.0
284.32,42.0
284.38,55.0
284.44,49.0
284.51,49.0
284.57,47.0
284.63,38.0
284.7,49.0
284.76,57.0
284.82,33.0
284.89,37.0
284.95,44.0
285.01,47.0
285.07,52.0
285.14,47.0
285.2,63.0
285.26,55.0
285.33,40.0
285.39,52.0
285.45,48.0
285.52,60.0
285.58,28.0
285.64,44.0
285.7,36.0
285.77,22.0
285.83,50.0
285.89,55.0
285.96,56.0
286.02,39.0
286.08,62.0
286.15,61.0
286.21,45.0
286.27,59.0
286.33,55.0
286.4,60.0
286.46,35.0
286.52,60.0
286.59,49.0
286.65,50.0
286.71,60.0
286.78,45.0
286.84,64.0
286.9,72.0
286.96,85.0
287.03,86.0
287.09,80.0
287.15,78.0
287.22,76.0
287.28,86.0
287.34,70.0
287.41,93.0
287.47,68.0
287.53,71.0
287.59,72.0
287.66,89.0
287.72,80.0
287.78,66.0
287.85,88.0
287.91,103.0
287.97,111.0
288.04,84.0
288.1,91.0
288.16,98.0
288.22,82.0
288.29,75.0
288.35,78.0
288.41,112.0
288.48,104.0
288.54,94.0
288.6,101.0
288.67,80.0
288.73,90.0
288.79,107.0
288.85,98.0
288.92,96.0
288.98,96.0
289.04,98.0
289.11,80.0
289.17,71.0
289.23,77.0
289.3,93.0
289.36,84.0
289.42,84.0
289.48,87.0
289.55,91.0
289.61,102.0
289.67,111.0
289.74,119.0
289.8,96.0
289.86,97.0
289.93,104.0
289.99,121.0
290.05,111.0
290.11,110.0
290.18,93.0
290.24,99.0
290.3,97.0
290.37,100.0
290.43,77.0
290.49,76.0
290.56,93.0
290.62,78.0
290.68,82.0
290.74,91.0
290.81,84.0
290.87,75.0
290.93,60.0
291.0,77.0
291.06,77.0
291.12,69.0
291.19,53.0
291.25,53.0
291.31,72.0
291.37,58.0
291.44,54.0
291.5,40.0
291.56,62.0
291.63,51.0
291.69,36.0
291.75,42.0
291.82,40.0
291.88,31.0
291.94,39.0
292.0,37.0
292.07,41.0
292.13,60.0
292.19,44.0
292.26,26.0
292.32,35.0
292.38,35.0
292.45,52.0
292.51,59.0
292.57,58.0
292.63,53.0
292.7,46.0
292.76,34.0
292.82,49.0
292.89,55.0
292.95,34.0
293.01,49.0
293.08,55.0
293.14,48.0
293.2,32.0
293.26,55.0
293.33,38.0
293.39,38.0
293.45,48.0
293.52,60.0
293.58,60.0
293.64,87.0
293.71,68.0
293.77,61.0
293.83,72.0
293.89,68.0
293.96,82.0
294.02,79.0
294.08,68.0
294.15,71.0
294.21,80.0
294.27,82.0
294.34,93.0
294.4,94.0
294.46,80.0
294.52,93.0
294.59,77.0
294.65,89.0
294.71,99.0
294.78,104.0
294.84,97.0
294.9,69.0
294.97,85.0
295.03,83.0
295.09,97.0
295.15,91.0
295.22,76.0
295.28,82.0
295.34,105.0
295.41,102.0
295.47,94.0
295.53,96.0
295.6,122.0
295.66,118.0
295.72,108.0
295.78,108.0
295.85,101.0
295.91,94.0
295.97,103.0
296.04,102.0
296.1,97.0
296.16,103.0
296.23,101.0
296.29,118.0
296.35,115.0
296.41,97.0
296.48,95.0
296.54,85.0
296.6,80.0
296.67,77.0
296.73,105.0
296.79,82.0
296.86,68.0
296.92,68.0
296.98,75.0
297.04,76.0
297.11,64.0
297.17,61.0
297.23,71.0
297.3,51.0
297.36,64.0
297.42,57.0
297.49,69.0
297.55,71.0
297.61,69.0
297.67,71.0
297.74,59.0
297.8,47.0
297.86,56.0
297.93,56.0
297.99,52.0
298.05,31.0
298.12,46.0
298.18,31.0
298.24,41.0
298.3,47.0
298.37,38.0
298.43,28.0
298.49,57.0
298.56,58.0
298.62,36.0
298.68,38.0
298.75,47.0
298.81,53.0
298.87,36.0
298.93,31.0
299.0,47.0
299.06,40.0
299.12,46.0
299.19,49.0
299.25,52.0
299.31,53.0
299.38,47.0
299.44,57.0
299.5,75.0
299.56,69.0
299.63,56.0
299.69,47.0
299.75,54.0
299.82,74.0
299.88,76.0
299.94,80.0
300.01,78.0
300.07,82.0
300.13,71.0
300.19,78.0
300.26,77.0
300.32,69.0
300.38,67.0
300.45,57.0
300.51,57.0
300.57,46.0
300.64,51.0
300.7,51.0
300.76,44.0
300.82,46.0
300.89,49.0
300.95,42.0
301.01,63.0
301.08,69.0
301.14,81.0
301.2,71.0
301.27,80.0
301.33,71.0
301.39,73.0
301.45,64.0
301.52,63.0
301.58,64.0
301.64,50.0
301.71,41.0
301.77,52.0
301.83,67.0
301.9,53.0
301.96,68.0
302.02,53.0
302.08,68.0
302.15,76.0
302.21,74.0
302.27,68.0
302.34,66.0
302.4,96.0
302.46,89.0
302.53,97.0
302.59,97.0
302.65,99.0
302.71,110.0
302.78,85.0
302.84,78.0
302.9,93.0
302.97,89.0
303.03,91.0
303.09,83.0
303.16,102.0
303.22,104.0
303.28,93.0
303.34,86.0
303.41,113.0
303.47,100.0
303.53,86.0
303.6,106.0
303.66,103.0
303.72,110.0
303.79,123.0
303.85,121.0
303.91,109.0
303.97,93.0
304.04,90.0
304.1,69.0
304.16,96.0
304.23,109.0
304.29,83.0
304.35,97.0
304.42,101.0
304.48,119.0
304.54,114.0
304.6,74.0
304.67,95.0
304.73,92.0
304.79,76.0
304.86,98.0
304.92,98.0
304.98,96.0
305.05,90.0
305.11,111.0
305.17,89.0
305.23,100.0
305.3,94.0
305.36,113.0
305.42,118.0
305.49,128.0
305.55,109.0
305.61,122.0
305.68,124.0
305.74,114.0
305.8,132.0
305.86,132.0
305.93,127.0
305.99,130.0
306.05,137.0
306.12,145.0
306.18,140.0
306.24,138.0
306.31,146.0
306.37,156.0
306.43,150.0
306.49,154.0
306.56,126.0
306.62,136.0
306.68,127.0
306.75,127.0
306.81,134.0
306.87,120.0
306.94,107.0
307.0,105.0
307.06,116.0
307.12,124.0
307.19,104.0
307.25,96.0
307.31,132.0
307.38,126.0
307.44,127.0
307.5,134.0
307.57,117.0
307.63,113.0
307.69,105.0
307.75,104.0
307.82,119.0
307.88,111.0
307.94,90.0
308.01,80.0
308.07,93.0
308.13,86.0
308.2,83.0
308.26,85.0
308.32,75.0
308.38,60.0
308.45,61.0
308.51,68.0
308.57,79.0
308.64,61.0
308.7,55.0
308.76,58.0
308.83,60.0
308.89,74.0
308.95,62.0
309.01,87.0
309.08,74.0
309.14,49.0
309.2,53.0
309.27,58.0
309.33,49.0
309.39,49.0
309.46,66.0
309.52,58.0
309.58,60.0
309.64,66.0
309.71,61.0
309.77,71.0
309.83,52.0
309.9,69.0
309.96,77.0
310.02,84.0
310.09,62.0
310.15,82.0
310.21,85.0
310.27,60.0
310.34,87.0
310.4,84.0
310.46,85.0
310.53,92.0
310.59,89.0
310.65,107.0
310.72,89.0
310.78,90.0
310.84,77.0
310.9,73.0
310.97,82.0
311.03,108.0
311.09,96.0
311.16,81.0
311.22,87.0
311.28,82.0
311.35,92.0
311.41,85.0
311.47,92.0
311.53,91.0
311.6,80.0
311.66,82.0
311.72,78.0
311.79,78.0
311.85,79.0
311.91,72.0
311.98,60.0
312.04,81.0
312.1,88.0
312.16,60.0
312.23,63.0
312.29,60.0
312.35,56.0
312.42,80.0
312.48,62.0
312.54,67.0
312.61,63.0
312.67,85.0
312.73,71.0
312.79,56.0
312.86,75.0
312.92,53.0
312.98,79.0
313.05,60.0
313.11,62.0
313.17,54.0
313.24,54.0
313.3,63.0
313.36,52.0
313.42,63.0
313.49,55.0
313.55,58.0
313.61,75.0
313.68,92.0
313.74,61.0
313.8,44.0
313.87,55.0
313.93,64.0
313.99,47.0
314.05,33.0
314.12,19.0
314.18,41.0
314.24,53.0
314.31,31.0
314.37,20.0
314.43,24.0
314.5,32.0
314.56,12.0
314.62,24.0
314.68,30.0
314.75,31.0
314.81,35.0
314.87,23.0
314.94,22.0
315.0,39.0
315.06,45.0
315.13,18.0
315.19,7.0
315.25,3.0
315.31,-3.0
315.38,-5.0
315.44,7.0
315.5,10.0
315.57,19.0
315.63,11.0
315.69,6.0
315.76,15.0
315.82,1.0
315.88,1.0
315.94,20.0
316.01,17.0
316.07,14.0
316.13,22.0
316.2,0.0
316.26,6.0
316.32,14.0
316.39,11.0
316.45,6.0
316.51,17.0
316.57,22.0
316.64,1.0
316.7,25.0
316.76,4.0
316.83,29.0
316.89,52.0
316.95,41.0
317.02,48.0
317.08,34.0
317.14,42.0
317.2,32.0
317.27,38.0
317.33,40.0
317.39,45.0
317.46,39.0
317.52,22.0
317.58,33.0
317.65,35.0
317.71,15.0
317.77,22.0
317.83,19.0
317.9,11.0
317.96,30.0
318.02,44.0
318.09,33.0
318.15,30.0
318.21,55.0
318.28,41.0
318.34,15.0
318.4,29.0
318.46,37.0
318.53,39.0
318.59,21.0
318.65,9.0
318.72,-2.0
318.78,17.0
318.84,17.0
318.91,15.0
318.97,-2.0
319.03,26.0
319.09,12.0
319.16,29.0
319.22,15.0
319.28,9.0
319.35,27.0
319.41,23.0
319.47,35.0
319.54,31.0
319.6,22.0
319.66,24.0
319.72,10.0
319.79,15.0
319.85,37.0
319.91,30.0
319.98,33.0
320.04,35.0
320.1,45.0
320.17,60.0
320.23,61.0
320.29,58.0
320.35,56.0
320.42,65.0
320.48,57.0
320.54,51.0
320.61,50.0
320.67,64.0
320.73,77.0
320.8,57.0
320.86,62.0
320.92,74.0
320.98,44.0
321.05,59.0
321.11,69.0
321.17,60.0
321.24,51.0
321.3,54.0
321.36,62.0
321.43,58.0
321.49,54.0
321.55,67.0
321.61,71.0
321.68,83.0
321.74,99.0
321.8,75.0
321.87,65.0
321.93,68.0
321.99,81.0
322.06,78.0
322.12,59.0
322.18,63.0
322.24,76.0
322.31,78.0
322.37,59.0
322.43,84.0
322.5,65.0
322.56,67.0
322.62,87.0
322.69,62.0
322.75,87.0
322.81,82.0
322.87,86.0
322.94,56.0
323.0,55.0
323.06,61.0
323.13,62.0
323.19,64.0
323.25,70.0
323.32,65.0
323.38,67.0
323.44,46.0
323.5,68.0
323.57,42.0
323.63,52.0
323.69,59.0
323.76,50.0
323.82,65.0
323.88,69.0
323.95,62.0
324.01,45.0
324.07,51.0
324.13,44.0
324.2,40.0
324.26,23.0
324.32,16.0
324.39,32.0
324.45,14.0
324.51,33.0
324.58,38.0
324.64,39.0
324.7,57.0
324.76,25.0
324.83,34.0
324.89,39.0
324.95,20.0
325.02,21.0
325.08,12.0
325.14,23.0
325.21,25.0
325.27,10.0
325.33,17.0
325.39,13.0
325.46,14.0
325.52,23.0
325.58,13.0
325.65,0.0
325.71,18.0
325.77,12.0
325.84,-2.0
325.9,4.0
325.96,23.0
326.02,33.0
326.09,10.0
326.15,20.0
326.21,20.0
326.28,27.0
326.34,9.0
326.4,32.0
326.47,61.0
326.53,32.0
326.59,12.0
326.65,27.0
326.72,17.0
326.78,33.0
326.84,25.0
326.91,4.0
326.97,5.0
327.03,31.0
327.1,58.0
327.16,45.0
327.22,28.0
327.28,42.0
327.35,51.0
327.41,45.0
327.47,51.0
327.54,60.0
327.6,39.0
327.66,47.0
327.73,48.0
327.79,55.0
327.85,47.0
327.91,46.0
327.98,56.0
328.04,53.0
328.1,48.0
328.17,49.0
328.23,31.0
328.29,35.0
328.36,34.0
328.42,16.0
328.48,25.0
328.54,13.0
328.61,35.0
328.67,26.0
328.73,39.0
328.8,19.0
328.86,33.0
328.92,33.0
328.99,23.0
329.05,38.0
329.11,31.0
329.17,27.0
329.24,19.0
329.3,38.0
329.36,20.0
329.43,9.0
329.49,13.0
329.55,27.0
329.62,23.0
329.68,13.0
329.74,24.0
329.8,24.0
329.87,11.0
329.93,7.0
329.99,15.0
330.06,11.0
330.12,0.0
330.18,10.0
330.25,28.0
330.31,9.0
330.37,16.0
330.43,23.0
330.5,21.0
330.56,24.0
330.62,7.0
330.69,26.0
330.75,26.0
330.81,26.0
330.88,40.0
330.94,31.0
331.0,14.0
331.06,16.0
331.13,35.0
331.19,27.0
331.25,24.0
331.32,35.0
331.38,68.0
331.44,72.0
331.51,62.0
331.57,62.0
331.63,28.0
331.69,30.0
331.76,20.0
331.82,17.0
331.88,20.0
331.95,34.0
332.01,60.0
332.07,62.0
332.14,46.0
332.2,62.0
332.26,56.0
332.32,48.0
332.39,56.0
332.45,57.0
332.51,51.0
332.58,26.0
332.64,41.0
332.7,38.0
332.77,17.0
332.83,27.0
332.89,18.0
332.95,12.0
333.02,37.0
333.08,13.0
333.14,31.0
333.21,17.0
333.27,-4.0
333.33,15.0
333.4,4.0
333.46,-1.0
333.52,6.0
333.58,0.0
333.65,8.0
333.71,5.0
333.77,15.0
333.84,28.0
333.9,29.0
333.96,19.0
334.03,4.0
334.09,7.0
334.15,16.0
334.21,-5.0
334.28,8.0
334.34,7.0
334.4,-13.0
334.47,-33.0
334.53,-9.0
334.59,-2.0
334.66,12.0
334.72,30.0
334.78,22.0
334.84,13.0
334.91,17.0
334.97,5.0
335.03,14.0
335.1,11.0
335.16,-3.0
335.22,5.0
335.29,6.0
335.35,17.0
335.41,15.0
335.47,11.0
335.54,18.0
335.6,32.0
335.66,36.0
335.73,31.0
335.79,23.0
335.85,7.0
335.92,4.0
335.98,15.0
336.04,19.0
336.1,14.0
336.17,19.0
336.23,15.0
336.29,30.0
336.36,10.0
336.42,18.0
336.48,15.0
336.55,23.0
336.61,40.0
336.67,26.0
336.73,26.0
336.8,21.0
336.86,32.0
336.92,33.0
336.99,24.0
337.05,39.0
337.11,41.0
337.18,36.0
337.24,44.0
337.3,39.0
337.36,70.0
337.43,53.0
337.49,59.0
337.55,55.0
337.62,59.0
337.68,43.0
337.74,44.0
337.81,71.0
337.87,75.0
337.93,100.0
337.99,106.0
338.06,102.0
338.12,89.0
338.18,110.0
338.25,103.0
338.31,89.0
338.37,102.0
338.44,91.0
338.5,84.0
338.56,104.0
338.62,92.0
338.69,94.0
338.75,78.0
338.81,92.0
338.88,89.0
338.94,94.0
339.0,91.0
339.07,83.0
339.13,78.0
339.19,86.0
339.25,96.0
339.32,84.0
339.38,100.0
339.44,97.0
339.51,98.0
339.57,94.0
339.63,113.0
339.7,102.0
339.76,107.0
339.82,114.0
339.88,129.0
339.95,118.0
340.01,101.0
340.07,104.0
340.14,112.0
340.2,104.0
340.26,105.0
340.33,114.0
340.39,98.0
340.45,99.0
340.51,116.0
340.58,99.0
340.64,89.0
340.7,85.0
340.77,84.0
340.83,70.0
340.89,86.0
340.96,66.0
341.02,70.0
341.08,70.0
341.14,77.0
341.21,66.0
341.27,70.0
341.33,69.0
341.4,51.0
341.46,35.0
341.52,42.0
341.59,59.0
341.65,50.0
341.71,25.0
341.77,53.0
341.84,55.0
341.9,22.0
341.96,38.0
342.03,44.0
342.09,53.0
342.15,44.0
342.22,51.0
342.28,66.0
342.34,53.0
342.4,33.0
342.47,38.0
342.53,35.0
342.59,44.0
342.66,47.0
342.72,50.0
342.78,69.0
342.85,37.0
342.91,45.0
342.97,60.0
343.03,69.0
343.1,63.0
343.16,57.0
343.22,80.0
343.29,80.0
343.35,57.0
343.41,55.0
343.48,63.0
343.54,66.0
343.6,55.0
343.66,67.0
343.73,79.0
343.79,83.0
343.85,80.0
343.92,82.0
343.98,85.0
344.04,79.0
344.11,91.0
344.17,74.0
344.23,94.0
344.29,81.0
344.36,83.0
344.42,92.0
344.48,80.0
344.55,85.0
344.61,103.0
344.67,98.0
344.74,99.0
344.8,99.0
344.86,89.0
344.92,116.0
344.99,107.0
345.05,75.0
345.11,88.0
345.18,91.0
345.24,97.0
345.3,86.0
345.37,70.0
345.43,81.0
345.49,82.0
345.55,89.0
345.62,115.0
345.68,107.0
345.74,113.0
345.81,114.0
345.87,121.0
345.93,119.0
346.0,103.0
346.06,101.0
346.12,96.0
346.18,67.0
346.25,79.0
346.31,110.0
346.37,103.0
346.44,88.0
346.5,64.0
346.56,66.0
346.63,74.0
346.69,69.0
346.75,73.0
346.81,81.0
346.88,76.0
346.94,91.0
347.0,81.0
347.07,67.0
347.13,83.0
347.19,83.0
347.26,108.0
347.32,91.0
347.38,88.0
347.44,81.0
347.51,73.0
347.57,90.0
347.63,77.0
347.7,80.0
347.76,90.0
347.82,97.0
347.89,96.0
347.95,71.0
348.01,61.0
348.07,77.0
348.14,89.0
348.2,93.0
348.26,70.0
348.33,72.0
348.39,75.0
348.45,57.0
348.52,58.0
348.58,61.0
348.64,58.0
348.7,70.0
348.77,97.0
348.83,79.0
348.89,59.0
348.96,69.0
349.02,77.0
349.08,83.0
349.15,55.0
349.21,66.0
349.27,65.0
349.33,51.0
349.4,22.0
349.46,7.0
349.52,34.0
349.59,23.0
349.65,-2.0
349.71,23.0
349.78,-4.0
349.84,6.0
349.9,17.0
349.96,7.0
350.03,6.0
350.09,-1.0
350.15,15.0
350.22,-1.0
350.28,19.0
350.34,35.0
350.41,5.0
350.47,9.0
350.53,14.0
350.59,-6.0
350.66,16.0
350.72,14.0
350.78,13.0
350.85,23.0
350.91,38.0
350.97,34.0
351.04,20.0
351.1,19.0
351.16,21.0
351.22,11.0
351.29,18.0
351.35,21.0
351.41,19.0
351.48,15.0
351.54,16.0
351.6,5.0
351.67,12.0
351.73,10.0
351.79,13.0
351.85,10.0
351.92,3.0
351.98,26.0
352.04,8.0
352.11,-6.0
352.17,19.0
352.23,22.0
352.3,16.0
352.36,1.0
352.42,17.0
352.48,30.0
352.55,28.0
352.61,5.0
352.67,16.0
352.74,18.0
352.8,29.0
352.86,30.0
352.93,16.0
352.99,11.0
353.05,5.0
353.11,4.0
353.18,27.0
353.24,38.0
353.3,31.0
353.37,27.0
353.43,14.0
353.49,35.0
353.56,40.0
353.62,27.0
353.68,36.0
353.74,46.0
353.81,53.0
353.87,36.0
353.93,56.0
354.0,54.0
354.06,51.0
354.12,80.0
354.19,49.0
354.25,69.0
354.31,78.0
354.37,73.0
354.44,91.0
354.5,79.0
354.56,74.0
354.63,79.0
354.69,99.0
354.75,100.0
354.82,97.0
354.88,104.0
354.94,101.0
355.0,97.0
355.07,78.0
355.13,81.0
355.19,76.0
355.26,75.0
355.32,95.0
355.38,86.0
355.45,98.0
355.51,88.0
355.57,95.0
355.63,104.0
355.7,104.0
355.76,94.0
355.82,99.0
355.89,102.0
355.95,92.0
356.01,81.0
356.08,95.0
356.14,81.0
356.2,77.0
356.26,93.0
356.33,91.0
356.39,79.0
356.45,100.0
356.52,108.0
356.58,88.0
356.64,124.0
356.71,87.0
356.77,99.0
356.83,114.0
356.89,125.0
356.96,110.0
357.02,113.0
357.08,115.0
357.15,110.0
357.21,121.0
357.27,117.0
357.34,125.0
357.4,110.0
357.46,122.0
357.52,131.0
357.59,121.0
357.65,113.0
357.71,110.0
357.78,98.0
357.84,105.0
357.9,94.0
357.97,95.0
358.03,97.0
358.09,107.0
358.15,103.0
358.22,104.0
358.28,99.0
358.34,105.0
358.41,134.0
358.47,110.0
358.53,100.0
358.6,99.0
358.66,104.0
358.72,98.0
358.78,80.0
358.85,102.0
358.91,101.0
358.97,104.0
359.04,97.0
359.1,103.0
359.16,94.0
359.23,101.0
359.29,91.0
359.35,78.0
359.41,61.0
359.48,60.0
359.54,67.0
359.6,75.0
359.67,65.0
359.73,76.0
359.79,70.0
359.86,64.0
359.92,60.0
359.98,63.0
360.04,49.0
360.11,62.0
360.17,66.0
360.23,62.0
360.3,60.0
360.36,54.0
360.42,58.0
360.49,44.0
360.55,64.0
360.61,59.0
360.67,58.0
360.74,64.0
360.8,65.0
360.86,68.0
360.93,82.0
360.99,66.0
361.05,62.0
361.12,69.0
361.18,66.0
361.24,66.0
361.3,90.0
361.37,80.0
361.43,86.0
361.49,88.0
361.56,84.0
361.62,82.0
361.68,98.0
361.75,92.0
361.81,70.0
361.87,65.0
361.93,72.0
362.0,91.0
362.06,83.0
362.12,95.0
362.19,92.0
362.25,87.0
362.31,101.0
362.38,101.0
362.44,108.0
362.5,112.0
362.56,81.0
362.63,92.0
362.69,107.0
362.75,93.0
362.82,94.0
362.88,78.0
362.94,88.0
363.01,83.0
363.07,98.0
363.13,68.0
363.19,74.0
363.26,84.0
363.32,63.0
363.38,69.0
363.45,78.0
363.51,74.0
363.57,77.0
363.64,74.0
363.7,71.0
363.76,71.0
363.82,77.0
363.89,93.0
363.95,84.0
364.01,91.0
364.08,91.0
364.14,65.0
364.2,71.0
364.27,80.0
364.33,70.0
364.39,82.0
364.45,66.0
364.52,51.0
364.58,70.0
364.64,60.0
364.71,77.0
364.77,78.0
364.83,65.0
364.9,78.0
364.96,61.0
365.02,41.0
365.08,62.0
365.15,53.0
365.21,55.0
365.27,52.0
365.34,74.0
365.4,37.0
365.46,46.0
365.53,59.0
365.59,38.0
365.65,41.0
365.71,39.0
365.78,33.0
365.84,47.0
365.9,61.0
365.97,62.0
366.03,56.0
366.09,81.0
366.16,83.0
366.22,54.0
366.28,41.0
366.34,54.0
366.41,78.0
366.47,57.0
366.53,68.0
366.6,68.0
366.66,53.0
366.72,53.0
366.79,34.0
366.85,17.0
366.91,29.0
366.97,40.0
367.04,52.0
367.1,30.0
367.16,38.0
367.23,42.0
367.29,51.0
367.35,39.0
367.42,40.0
367.48,27.0
367.54,47.0
367.6,55.0
367.67,45.0
367.73,59.0
367.79,55.0
367.86,45.0
367.92,36.0
367.98,26.0
368.05,24.0
368.11,30.0
368.17,28.0
368.23,26.0
368.3,40.0
368.36,25.0
368.42,38.0
368.49,20.0
368.55,13.0
368.61,29.0
368.68,12.0
368.74,4.0
368.8,3.0
368.86,1.0
368.93,14.0
368.99,18.0
369.05,26.0
369.12,16.0
369.18,17.0
369.24,31.0
369.31,10.0
369.37,-1.0
369.43,24.0
369.49,6.0
369.56,7.0
369.62,2.0
369.68,30.0
369.75,25.0
369.81,10.0
369.87,19.0
369.94,30.0
370.0,14.0
370.06,27.0
370.12,28.0
370.19,21.0
370.25,29.0
370.31,35.0
370.38,35.0
370.44,41.0
370.5,41.0
370.57,36.0
370.63,34.0
370.69,46.0
370.75,51.0
370.82,63.0
370.88,52.0
370.94,58.0
371.01,47.0
371.07,41.0
371.13,46.0
371.2,44.0
371.26,37.0
371.32,31.0
371.38,47.0
371.45,47.0
371.51,37.0
371.57,44.0
371.64,47.0
371.7,43.0
371.76,58.0
371.83,44.0
371.89,32.0
371.95,53.0
372.01,30.0
372.08,25.0
372.14,39.0
372.2,17.0
372.27,34.0
372.33,30.0
372.39,50.0
372.46,64.0
372.52,59.0
372.58,69.0
372.64,56.0
372.71,65.0
372.77,77.0
372.83,61.0
372.9,87.0
372.96,80.0
373.02,87.0
373.09,115.0
373.15,91.0
373.21,73.0
373.27,79.0
373.34,64.0
373.4,58.0
373.46,70.0
373.53,69.0
373.59,73.0
373.65,81.0
373.72,73.0
373.78,69.0
373.84,71.0
373.9,72.0
373.97,72.0
374.03,59.0
374.09,53.0
374.16,60.0
374.22,53.0
374.28,44.0
374.35,46.0
374.41,38.0
374.47,50.0
374.53,44.0
374.6,55.0
374.66,42.0
374.72,47.0
374.79,24.0
374.85,33.0
374.91,25.0
374.98,25.0
375.04,15.0
375.1,13.0
375.16,42.0
375.23,22.0
375.29,16.0
375.35,33.0
375.42,26.0
375.48,16.0
375.54,20.0
375.61,23.0
375.67,29.0
375.73,34.0
375.79,7.0
375.86,24.0
375.92,16.0
375.98,30.0
376.05,35.0
376.11,33.0
376.17,44.0
376.24,39.0
376.3,52.0
376.36,52.0
376.42,35.0
376.49,64.0
376.55,42.0
376.61,32.0
376.68,40.0
376.74,36.0
376.8,44.0
376.87,46.0
376.93,37.0
376.99,46.0
377.05,49.0
377.12,21.0
377.18,41.0
377.24,37.0
377.31,33.0
377.37,47.0
377.43,51.0
377.5,38.0
377.56,47.0
377.62,69.0
377.68,49.0
377.75,43.0
377.81,40.0
377.87,49.0
377.94,56.0
378.0,58.0
378.06,55.0
378.13,44.0
378.19,40.0
378.25,21.0
378.31,50.0
378.38,52.0
378.44,53.0
378.5,68.0
378.57,48.0
378.63,48.0
378.69,58.0
378.76,60.0
378.82,69.0
378.88,68.0
378.94,66.0
379.01,79.0
379.07,92.0
379.13,87.0
379.2,78.0
379.26,75.0
379.32,73.0
379.39,78.0
379.45,70.0
379.51,68.0
379.57,53.0
379.64,57.0
379.7,71.0
379.76,81.0
379.83,77.0
379.89,87.0
379.95,79.0
380.02,82.0
380.08,96.0
380.14,73.0
380.2,66.0
380.27,54.0
380.33,63.0
380.39,72.0
380.46,52.0
380.52,66.0
380.58,69.0
380.65,49.0
380.71,70.0
380.77,80.0
380.83,65.0
380.9,79.0
380.96,66.0
381.02,66.0
381.09,55.0
381.15,53.0
381.21,46.0
381.28,51.0
381.34,30.0
381.4,36.0
381.46,44.0
381.53,49.0
381.59,54.0
381.65,49.0
381.72,50.0
381.78,55.0
381.84,52.0
381.91,41.0
381.97,46.0
382.03,40.0
382.09,59.0
382.16,50.0
382.22,39.0
382.28,56.0
382.35,44.0
382.41,30.0
382.47,55.0
382.54,30.0
382.6,51.0
382.66,46.0
382.72,32.0
382.79,21.0
382.85,15.0
382.91,7.0
382.98,6.0
383.04,17.0
383.1,25.0
383.17,23.0
383.23,27.0
383.29,42.0
383.35,51.0
383.42,40.0
383.48,49.0
383.54,39.0
383.61,20.0
383.67,40.0
383.73,41.0
383.8,36.0
383.86,41.0
383.92,24.0
383.98,40.0
384.05,28.0
384.11,34.0
384.17,36.0
384.24,39.0
384.3,38.0
384.36,29.0
384.43,25.0
384.49,-2.0
384.55,19.0
384.61,15.0
384.68,32.0
384.74,14.0
384.8,1.0
384.87,13.0
384.93,24.0
384.99,22.0
385.06,37.0
385.12,32.0
385.18,25.0
385.24,23.0
385.31,39.0
385.37,39.0
385.43,15.0
385.5,-3.0
385.56,13.0
385.62,0.0
385.69,7.0
385.75,27.0
385.81,25.0
385.87,47.0
385.94,29.0
386.0,30.0
386.06,14.0
386.13,19.0
386.19,14.0
386.25,5.0
386.32,7.0
386.38,5.0
386.44,2.0
386.5,-10.0
386.57,6.0
386.63,21.0
386.69,37.0
386.76,31.0
386.82,26.0
386.88,41.0
386.95,52.0
387.01,25.0
387.07,38.0
387.13,31.0
387.2,33.0
387.26,58.0
387.32,60.0
387.39,49.0
387.45,56.0
387.51,51.0
387.58,52.0
387.64,48.0
387.7,68.0
387.76,68.0
387.83,58.0
387.89,68.0
387.95,67.0
388.02,83.0
388.08,96.0
388.14,86.0
388.21,75.0
388.27,90.0
388.33,99.0
388.39,85.0
388.46,68.0
388.52,69.0
388.58,82.0
388.65,90.0
388.71,85.0
388.77,99.0
388.84,74.0
388.9,74.0
388.96,93.0
389.02,106.0
389.09,100.0
389.15,115.0
389.21,116.0
389.28,116.0
389.34,108.0
389.4,100.0
389.47,98.0
389.53,96.0
389.59,99.0
389.65,114.0
389.72,113.0
389.78,111.0
389.84,109.0
389.91,120.0
389.97,124.0
390.03,130.0
390.1,132.0
390.16,142.0
390.22,131.0
390.28,133.0
390.35,126.0
390.41,133.0
390.47,133.0
390.54,129.0
390.6,118.0
390.66,118.0
390.73,106.0
390.79,100.0
390.85,112.0
390.91,104.0
390.98,113.0
391.04,108.0
391.1,85.0
391.17,99.0
391.23,113.0
391.29,97.0
391.36,61.0
391.42,81.0
391.48,83.0
391.54,90.0
391.61,100.0
391.67,100.0
391.73,105.0
391.8,88.0
391.86,93.0
391.92,78.0
391.99,80.0
392.05,89.0
392.11,79.0
392.17,72.0
392.24,56.0
392.3,72.0
392.36,89.0
392.43,72.0
392.49,74.0
392.55,76.0
392.62,66.0
392.68,66.0
392.74,70.0
392.8,63.0
392.87,77.0
392.93,84.0
392.99,71.0
393.06,59.0
393.12,73.0
393.18,92.0
393.25,96.0
393.31,78.0
393.37,86.0
393.43,103.0
393.5,67.0
393.56,84.0
393.62,87.0
393.69,104.0
393.75,122.0
393.81,105.0
393.88,111.0
393.94,119.0
394.0,128.0
394.06,118.0
394.13,105.0
394.19,115.0
394.25,103.0
394.32,110.0
394.38,97.0
394.44,100.0
394.51,99.0
394.57,97.0
394.63,91.0
394.69,116.0
394.76,113.0
394.82,104.0
394.88,127.0
394.95,107.0
395.01,111.0
395.07,102.0
395.14,110.0
395.2,105.0
395.26,124.0
395.32,123.0
395.39,132.0
395.45,123.0
395.51,116.0
395.58,132.0
395.64,94.0
395.7,106.0
395.77,119.0
395.83,113.0
395.89,123.0
395.95,135.0
396.02,120.0
396.08,124.0
396.14,97.0
396.21,91.0
396.27,104.0
396.33,110.0
396.4,81.0
396.46,74.0
396.52,73.0
396.58,87.0
396.65,70.0
396.71,82.0
396.77,80.0
396.84,97.0
396.9,99.0
396.96,81.0
397.03,91.0
397.09,80.0
397.15,83.0
397.21,92.0
397.28,79.0
397.34,116.0
397.4,109.0
397.47,94.0
397.53,83.0
397.59,84.0
397.66,81.0
397.72,79.0
397.78,73.0
397.84,98.0
397.91,92.0
397.97,89.0
398.03,74.0
398.1,77.0
398.16,94.0
398.22,76.0
398.29,82.0
398.35,74.0
398.41,79.0
398.47,55.0
398.54,51.0
398.6,75.0
398.66,69.0
398.73,41.0
398.79,56.0
398.85,74.0
398.92,68.0
398.98,75.0
399.04,58.0
399.1,52.0
399.17,66.0
399.23,61.0
399.29,48.0
399.36,44.0
399.42,46.0
399.48,67.0
399.55,67.0
399.61,69.0
399.67,63.0
399.73,56.0
399.8,58.0
399.86,31.0
399.92,56.0
399.99,56.0
400.05,44.0
400.11,53.0
400.18,73.0
400.24,64.0
400.3,66.0
400.36,54.0
400.43,68.0
400.49,55.0
400.55,47.0
400.62,53.0
400.68,47.0
400.74,19.0
400.81,30.0
400.87,39.0
400.93,25.0
400.99,21.0
401.06,41.0
401.12,8.0
401.18,28.0
401.25,28.0
401.31,30.0
401.37,45.0
401.44,30.0
401.5,23.0
401.56,11.0
401.62,5.0
401.69,8.0
401.75,29.0
401.81,31.0
401.88,32.0
401.94,26.0
402.0,32.0
402.07,36.0
402.13,32.0
402.19,30.0
402.25,47.0
402.32,51.0
402.38,61.0
402.44,45.0
402.51,36.0
402.57,34.0
402.63,44.0
402.7,30.0
402.76,38.0
402.82,52.0
402.88,42.0
402.95,17.0
403.01,27.0
403.07,61.0
403.14,38.0
403.2,10.0
403.26,-1.0
403.33,7.0
403.39,17.0
403.45,8.0
403.51,23.0
403.58,42.0
403.64,44.0
403.7,42.0
403.77,44.0
403.83,37.0
403.89,37.0
403.96,47.0
404.02,40.0
404.08,47.0
404.14,61.0
404.21,73.0
404.27,81.0
404.33,72.0
404.4,59.0
404.46,48.0
404.52,81.0
404.59,83.0
404.65,77.0
404.71,71.0
404.77,77.0
404.84,82.0
404.9,89.0
404.96,84.0
405.03,97.0
405.09,99.0
405.15,124.0
405.22,117.0
405.28,97.0
405.34,82.0
405.4,69.0
405.47,75.0
405.53,85.0
405.59,81.0
405.66,104.0
405.72,102.0
405.78,79.0
405.85,100.0
405.91,107.0
405.97,94.0
406.03,97.0
406.1,103.0
406.16,105.0
406.22,105.0
406.29,102.0
406.35,116.0
406.41,121.0
406.48,114.0
406.54,119.0
406.6,126.0
406.66,113.0
406.73,99.0
406.79,112.0
406.85,114.0
406.92,106.0
406.98,97.0
407.04,119.0
407.11,95.0
407.17,88.0
407.23,88.0
407.29,105.0
407.36,97.0
407.42,106.0
407.48,129.0
407.55,94.0
407.61,100.0
407.67,99.0
407.74,96.0
407.8,96.0
407.86,99.0
407.92,87.0
407.99,79.0
408.05,64.0
408.11,69.0
408.18,49.0
408.24,75.0
408.3,56.0
408.37,44.0
408.43,48.0
408.49,47.0
408.55,57.0
408.62,38.0
408.68,43.0
408.74,48.0
408.81,45.0
408.87,56.0
408.93,44.0
409.0,61.0
409.06,58.0
409.12,67.0
409.18,59.0
409.25,55.0
409.31,81.0
409.37,70.0
409.44,59.0
409.5,62.0
409.56,56.0
409.63,59.0
409.69,48.0
409.75,45.0
409.81,58.0
409.88,46.0
409.94,64.0
410.0,63.0
410.07,73.0
410.13,65.0
410.19,46.0
410.26,70.0
410.32,72.0
410.38,64.0
410.44,70.0
410.51,77.0
410.57,61.0
410.63,47.0
410.7,51.0
410.76,58.0
410.82,59.0
410.89,64.0
410.95,75.0
411.01,75.0
411.07,63.0
411.14,79.0
411.2,70.0
411.26,84.0
411.33,84.0
411.39,88.0
411.45,86.0
411.52,100.0
411.58,114.0
411.64,74.0
411.7,99.0
411.77,96.0
411.83,92.0
411.89,89.0
411.96,95.0
412.02,111.0
412.08,100.0
412.15,87.0
412.21,95.0
412.27,91.0
412.33,107.0
412.4,100.0
412.46,87.0
412.52,98.0
412.59,95.0
412.65,95.0
412.71,100.0
412.78,95.0
412.84,96.0
412.9,93.0
412.96,85.0
413.03,94.0
413.09,88.0
413.15,103.0
413.22,115.0
413.28,106.0
413.34,88.0
413.41,102.0
413.47,92.0
413.53,89.0
413.59,80.0
413.66,99.0
413.72,93.0
413.78,74.0
413.85,79.0
413.91,77.0
413.97,82.0
414.04,78.0
414.1,77.0
414.16,88.0
414.22,99.0
414.29,91.0
414.35,83.0
414.41,96.0
414.48,105.0
414.54,104.0
414.6,89.0
414.67,89.0
414.73,85.0
414.79,95.0
414.85,83.0
414.92,89.0
414.98,71.0
415.04,81.0
415.11,86.0
415.17,88.0
415.23,90.0
415.3,82.0
415.36,92.0
415.42,84.0
415.48,83.0
415.55,77.0
415.61,96.0
415.67,91.0
415.74,99.0
415.8,94.0
415.86,111.0
415.93,93.0
415.99,78.0
416.05,77.0
416.11,83.0
416.18,93.0
416.24,84.0
416.3,86.0
416.37,92.0
416.43,92.0
416.49,82.0
416.56,87.0
416.62,75.0
416.68,72.0
416.74,53.0
416.81,63.0
416.87,58.0
416.93,44.0
417.0,56.0
417.06,53.0
417.12,44.0
417.19,51.0
417.25,52.0
417.31,31.0
417.37,45.0
417.44,33.0
417.5,37.0
417.56,39.0
417.63,15.0
417.69,27.0
417.75,33.0
417.82,40.0
417.88,29.0
417.94,31.0
418.0,45.0
418.07,31.0
418.13,37.0
418.19,53.0
418.26,51.0
418.32,31.0
418.38,39.0
418.45,23.0
418.51,33.0
418.57,29.0
418.63,36.0
418.7,14.0
418.76,13.0
418.82,20.0
418.89,29.0
418.95,14.0
419.01,9.0
419.08,41.0
419.14,18.0
419.2,42.0
419.26,57.0
419.33,18.0
419.39,28.0
419.45,11.0
419.52,29.0
419.58,51.0
419.64,41.0
419.71,42.0
419.77,47.0
419.83,80.0
419.89,55.0
419.96,60.0
420.02,30.0
420.08,28.0
420.15,59.0
420.21,40.0
420.27,50.0
420.34,62.0
420.4,73.0
420.46,69.0
420.52,60.0
420.59,38.0
420.65,41.0
420.71,48.0
420.78,33.0
420.84,26.0
420.9,37.0
420.97,39.0
421.03,50.0
421.09,34.0
421.15,26.0
421.22,31.0
421.28,45.0
421.34,39.0
421.41,45.0
421.47,47.0
421.53,56.0
421.6,56.0
421.66,36.0
421.72,53.0
421.78,71.0
421.85,64.0
421.91,68.0
421.97,58.0
422.04,62.0
422.1,84.0
422.16,86.0
422.23,89.0
422.29,95.0
422.35,97.0
422.41,103.0
422.48,100.0
422.54,102.0
422.6,95.0
422.67,79.0
422.73,84.0
422.79,98.0
422.86,97.0
422.92,90.0
422.98,93.0
423.04,78.0
423.11,92.0
423.17,127.0
423.23,96.0
423.3,113.0
423.36,103.0
423.42,88.0
423.49,104.0
423.55,96.0
423.61,100.0
423.67,104.0
423.74,99.0
423.8,87.0
423.86,110.0
423.93,112.0
423.99,94.0
424.05,59.0
424.12,76.0
424.18,81.0
424.24,80.0
424.3,85.0
424.37,73.0
424.43,60.0
424.49,70.0
424.56,82.0
424.62,81.0
424.68,80.0
424.75,80.0
424.81,83.0
424.87,57.0
424.93,81.0
425.0,70.0
425.06,81.0
425.12,66.0
425.19,59.0
425.25,47.0
425.31,63.0
425.38,80.0
425.44,63.0
425.5,58.0
425.56,54.0
425.63,48.0
425.69,42.0
425.75,34.0
425.82,29.0
425.88,33.0
425.94,22.0
426.01,14.0
426.07,20.0
426.13,33.0
426.19,19.0
426.26,37.0
426.32,39.0
426.38,44.0
426.45,40.0
426.51,14.0
426.57,27.0
426.64,39.0
426.7,49.0
426.76,42.0
426.82,39.0
426.89,56.0
426.95,56.0
427.01,55.0
427.08,70.0
427.14,28.0
427.2,60.0
427.27,53.0
427.33,70.0
427.39,53.0
427.45,55.0
427.52,56.0
427.58,70.0
427.64,64.0
427.71,61.0
427.77,46.0
427.83,70.0
427.9,62.0
427.96,58.0
428.02,73.0
428.08,55.0
428.15,39.0
428.21,49.0
428.27,48.0
428.34,64.0
428.4,81.0
428.46,72.0
428.53,59.0
428.59,68.0
428.65,59.0
428.71,55.0
428.78,75.0
428.84,85.0
428.9,69.0
428.97,55.0
429.03,70.0
429.09,69.0
429.16,44.0
429.22,56.0
429.28,59.0
429.34,58.0
429.41,89.0
429.47,83.0
429.53,79.0
429.6,59.0
429.66,80.0
429.72,68.0
429.79,67.0
429.85,86.0
429.91,73.0
429.97,72.0
430.04,66.0
430.1,45.0
430.16,55.0
430.23,44.0
430.29,54.0
430.35,42.0
430.42,49.0
430.48,60.0
430.54,63.0
430.6,83.0
430.67,67.0
430.73,82.0
430.79,67.0
430.86,66.0
430.92,89.0
430.98,78.0
431.05,80.0
431.11,73.0
431.17,61.0
431.23,74.0
431.3,63.0
431.36,52.0
431.42,75.0
431.49,60.0
431.55,59.0
431.61,55.0
431.68,55.0
431.74,36.0
431.8,40.0
431.86,46.0
431.93,41.0
431.99,26.0
432.05,22.0
432.12,24.0
432.18,18.0
432.24,2.0
432.31,14.0
432.37,31.0
432.43,37.0
432.49,22.0
432.56,38.0
432.62,58.0
432.68,37.0
432.75,41.0
432.81,50.0
432.87,58.0
432.94,39.0
433.0,50.0
433.06,46.0
433.12,61.0
433.19,55.0
433.25,56.0
433.31,68.0
433.38,61.0
433.44,58.0
433.5,65.0
433.57,51.0
433.63,61.0
433.69,47.0
433.75,37.0
433.82,33.0
433.88,23.0
433.94,22.0
434.01,25.0
434.07,16.0
434.13,31.0
434.2,19.0
434.26,20.0
434.32,17.0
434.38,9.0
434.45,-1.0
434.51,4.0
434.57,10.0
434.64,3.0
434.7,3.0
434.76,14.0
434.83,18.0
434.89,13.0
434.95,24.0
435.01,4.0
435.08,7.0
435.14,-13.0
435.2,-2.0
435.27,17.0
435.33,16.0
435.39,20.0
435.46,-7.0
435.52,-4.0
435.58,12.0
435.64,-6.0
435.71,-9.0
435.77,3.0
435.83,-1.0
435.9,5.0
435.96,-9.0
436.02,-14.0
436.09,12.0
436.15,-13.0
436.21,-6.0
436.27,10.0
436.34,3.0
436.4,-2.0
436.46,-1.0
436.53,7.0
436.59,16.0
436.65,10.0
436.72,-17.0
436.78,2.0
436.84,26.0
436.9,19.0
436.97,29.0
437.03,31.0
437.09,46.0
437.16,40.0
437.22,47.0
437.28,67.0
437.35,66.0
437.41,71.0
437.47,59.0
437.53,59.0
437.6,53.0
437.66,53.0
437.72,48.0
437.79,48.0
437.85,63.0
437.91,51.0
437.98,40.0
438.04,32.0
438.1,31.0
438.16,43.0
438.23,67.0
438.29,54.0
438.35,64.0
438.42,80.0
438.48,76.0
438.54,71.0
438.61,53.0
438.67,62.0
438.73,82.0
438.79,79.0
438.86,68.0
438.92,77.0
438.98,88.0
439.05,83.0
439.11,104.0
439.17,111.0
439.24,124.0
439.3,124.0
439.36,104.0
439.42,104.0
439.49,119.0
439.55,124.0
439.61,142.0
439.68,132.0
439.74,132.0
439.8,146.0
439.87,142.0
439.93,152.0
439.99,150.0
440.05,120.0
440.12,148.0
440.18,136.0
440.24,151.0
440.31,149.0
440.37,119.0
440.43,134.0
440.5,130.0
440.56,136.0
440.62,126.0
440.68,141.0
440.75,139.0
440.81,131.0
440.87,115.0
440.94,137.0
441.0,140.0
441.06,158.0
441.13,139.0
441.19,109.0
441.25,139.0
441.31,108.0
441.38,103.0
441.44,121.0
441.5,119.0
441.57,116.0
441.63,108.0
441.69,104.0
441.76,104.0
441.82,91.0
441.88,88.0
441.94,96.0
442.01,95.0
442.07,100.0
442.13,94.0
442.2,103.0
442.26,98.0
442.32,78.0
442.39,89.0
442.45,79.0
442.51,90.0
442.57,78.0
442.64,63.0
442.7,85.0
442.76,64.0
442.83,52.0
442.89,42.0
442.95,45.0
443.02,40.0
443.08,60.0
443.14,51.0
443.2,52.0
443.27,45.0
443.33,49.0
443.39,49.0
443.46,51.0
443.52,60.0
443.58,75.0
443.65,76.0
443.71,65.0
443.77,60.0
443.83,48.0
443.9,48.0
443.96,54.0
444.02,38.0
444.09,56.0
444.15,50.0
444.21,52.0
444.28,48.0
444.34,51.0
444.4,66.0
444.46,90.0
444.53,93.0
444.59,84.0
444.65,71.0
444.72,83.0
444.78,75.0
444.84,77.0
444.91,82.0
444.97,64.0
445.03,84.0
445.09,89.0
445.16,78.0
445.22,72.0
445.28,83.0
445.35,68.0
445.41,91.0
445.47,71.0
445.54,86.0
445.6,69.0
445.66,75.0
445.72,70.0
445.79,67.0
445.85,66.0
445.91,70.0
445.98,78.0
446.04,63.0
446.1,79.0
446.17,68.0
446.23,56.0
446.29,71.0
446.35,85.0
446.42,81.0
446.48,97.0
446.54,64.0
446.61,93.0
446.67,75.0
446.73,83.0
446.8,76.0
446.86,72.0
446.92,70.0
446.98,62.0
447.05,65.0
447.11,53.0
447.17,57.0
447.24,61.0
447.3,69.0
447.36,48.0
447.43,42.0
447.49,61.0
447.55,40.0
447.61,30.0
447.68,41.0
447.74,35.0
447.8,51.0
447.87,63.0
447.93,55.0
447.99,63.0
448.06,68.0
448.12,78.0
448.18,60.0
448.24,71.0
448.31,65.0
448.37,64.0
448.43,92.0
448.5,90.0
448.56,79.0
448.62,78.0
448.69,89.0
448.75,100.0
448.81,95.0
448.87,78.0
448.94,81.0
449.0,89.0
449.06,92.0
449.13,91.0
449.19,95.0
449.25,75.0
449.32,81.0
449.38,42.0
449.44,71.0
449.5,59.0
449.57,48.0
449.63,48.0
449.69,55.0
449.76,60.0
449.82,50.0
449.88,71.0
449.95,64.0
450.01,71.0
450.07,56.0
450.13,42.0
450.2,48.0
450.26,68.0
450.32,27.0
450.39,43.0
450.45,43.0
450.51,28.0
450.58,40.0
450.64,26.0
450.7,49.0
450.76,52.0
450.83,65.0
450.89,58.0
450.95,64.0
451.02,44.0
451.08,63.0
451.14,58.0
451.21,62.0
451.27,39.0
451.33,42.0
451.39,73.0
451.46,70.0
451.52,34.0
451.58,39.0
451.65,38.0
451.71,49.0
451.77,56.0
451.84,57.0
451.9,50.0
451.96,34.0
452.02,41.0
452.09,37.0
452.15,8.0
452.21,33.0
452.28,19.0
452.34,12.0
452.4,16.0
452.47,15.0
452.53,13.0
452.59,12.0
452.65,2.0
452.72,16.0
452.78,40.0
452.84,46.0
452.91,44.0
452.97,38.0
453.03,22.0
453.1,39.0
453.16,14.0
453.22,13.0
453.28,24.0
453.35,34.0
453.41,30.0
453.47,25.0
453.54,24.0
453.6,36.0
453.66,37.0
453.73,40.0
453.79,34.0
453.85,51.0
453.91,46.0
453.98,60.0
454.04,60.0
454.1,51.0
454.17,68.0
454.23,57.0
454.29,49.0
454.36,35.0
454.42,37.0
454.48,60.0
454.54,35.0
454.61,56.0
454.67,66.0
454.73,76.0
454.8,85.0
454.86,68.0
454.92,89.0
454.99,76.0
455.05,63.0
455.11,67.0
455.17,58.0
455.24,60.0
455.3,66.0
455.36,77.0
455.43,82.0
455.49,84.0
455.55,88.0
455.62,73.0
455.68,86.0
455.74,61.0
455.8,76.0
455.87,69.0
455.93,57.0
455.99,73.0
456.06,80.0
456.12,57.0
456.18,63.0
456.25,74.0
456.31,62.0
456.37,63.0
456.43,54.0
456.5,77.0
456.56,62.0
456.62,70.0
456.69,83.0
456.75,75.0
456.81,75.0
456.88,67.0
456.94,85.0
457.0,96.0
457.06,74.0
457.13,89.0
457.19,76.0
457.25,76.0
457.32,78.0
457.38,104.0
457.44,92.0
457.51,98.0
457.57,101.0
457.63,97.0
457.69,86.0
457.76,79.0
457.82,76.0
457.88,56.0
457.95,50.0
458.01,78.0
458.07,86.0
458.14,71.0
458.2,59.0
458.26,52.0
458.32,54.0
458.39,65.0
458.45,52.0
458.51,47.0
458.58,50.0
458.64,51.0
458.7,59.0
458.77,43.0
458.83,47.0
458.89,63.0
458.95,63.0
459.02,58.0
459.08,46.0
459.14,60.0
459.21,70.0
459.27,54.0
459.33,48.0
459.4,53.0
459.46,49.0
459.52,49.0
459.58,38.0
459.65,52.0
459.71,56.0
459.77,38.0
459.84,42.0
459.9,67.0
459.96,66.0
460.03,59.0
460.09,49.0
460.15,71.0
460.21,71.0
460.28,75.0
460.34,76.0
460.4,64.0
460.47,58.0
460.53,73.0
460.59,56.0
460.66,69.0
460.72,86.0
460.78,90.0
460.84,84.0
460.91,85.0
460.97,95.0
461.03,85.0
461.1,102.0
461.16,100.0
461.22,97.0
461.29,95.0
461.35,88.0
461.41,105.0
461.47,109.0
461.54,111.0
461.6,97.0
461.66,93.0
461.73,92.0
461.79,112.0
461.85,89.0
461.92,93.0
461.98,128.0
462.04,122.0
462.1,114.0
462.17,121.0
462.23,118.0
462.29,117.0
462.36,128.0
462.42,117.0
462.48,114.0
462.55,112.0
462.61,103.0
462.67,108.0
462.73,128.0
462.8,123.0
462.86,109.0
462.92,116.0
462.99,98.0
463.05,101.0
463.11,108.0
463.18,114.0
463.24,103.0
463.3,69.0
463.36,85.0
463.43,89.0
463.49,94.0
463.55,86.0
463.62,101.0
463.68,79.0
463.74,85.0
463.81,93.0
463.87,87.0
463.93,96.0
463.99,99.0
464.06,109.0
464.12,97.0
464.18,103.0
464.25,101.0
464.31,71.0
464.37,93.0
464.44,100.0
464.5,64.0
464.56,86.0
464.62,98.0
464.69,91.0
464.75,84.0
464.81,96.0
464.88,97.0
464.94,82.0
465.0,98.0
465.07,107.0
465.13,104.0
465.19,95.0
465.25,83.0
465.32,110.0
465.38,107.0
465.44,108.0
465.51,109.0
465.57,133.0
465.63,126.0
465.7,114.0
465.76,113.0
465.82,130.0
465.88,116.0
465.95,125.0
466.01,125.0
466.07,117.0
466.14,116.0
466.2,114.0
466.26,101.0
466.33,87.0
466.39,102.0
466.45,125.0
466.51,114.0
466.58,117.0
466.64,137.0
466.7,120.0
466.77,96.0
466.83,101.0
466.89,91.0
466.96,90.0
467.02,82.0
467.08,96.0
467.14,92.0
467.21,79.0
467.27,76.0
467.33,81.0
467.4,92.0
467.46,64.0
467.52,50.0
467.59,71.0
467.65,87.0
467.71,78.0
467.77,60.0
467.84,67.0
467.9,62.0
467.96,85.0
468.03,74.0
468.09,60.0
468.15,63.0
468.22,62.0
468.28,52.0
468.34,56.0
468.4,67.0
468.47,64.0
468.53,54.0
468.59,48.0
468.66,35.0
468.72,45.0
468.78,64.0
468.85,49.0
468.91,53.0
468.97,41.0
469.03,27.0
469.1,49.0
469.16,70.0
469.22,85.0
469.29,63.0
469.35,71.0
469.41,61.0
469.48,53.0
469.54,43.0
469.6,54.0
469.66,59.0
469.73,47.0
469.79,55.0
469.85,60.0
469.92,59.0
469.98,49.0
470.04,55.0
470.11,55.0
470.17,38.0
470.23,43.0
470.29,46.0
470.36,51.0
470.42,49.0
470.48,53.0
470.55,59.0
470.61,68.0
470.67,68.0
470.74,62.0
470.8,52.0
470.86,65.0
470.92,78.0
470.99,63.0
471.05,63.0
471.11,55.0
471.18,56.0
471.24,54.0
471.3,68.0
471.37,55.0
471.43,49.0
471.49,56.0
471.55,62.0
471.62,48.0
471.68,58.0
471.74,56.0
471.81,77.0
471.87,64.0
471.93,63.0
472.0,49.0
472.06,43.0
472.12,68.0
472.18,45.0
472.25,52.0
472.31,79.0
472.37,88.0
472.44,87.0
472.5,76.0
472.56,57.0
472.63,56.0
472.69,48.0
472.75,46.0
472.81,56.0
472.88,57.0
472.94,62.0
473.0,71.0
473.07,68.0
473.13,62.0
473.19,62.0
473.26,73.0
473.32,79.0
473.38,78.0
473.44,68.0
473.51,92.0
473.57,82.0
473.63,104.0
473.7,108.0
473.76,94.0
473.82,96.0
473.89,108.0
473.95,105.0
474.01,97.0
474.07,74.0
474.14,80.0
474.2,82.0
474.26,71.0
474.33,90.0
474.39,80.0
474.45,79.0
474.52,97.0
474.58,85.0
474.64,68.0
474.7,73.0
474.77,73.0
474.83,82.0
474.89,65.0
474.96,84.0
475.02,74.0
475.08,60.0
475.15,80.0
475.21,81.0
475.27,88.0
475.33,93.0
475.4,102.0
475.46,94.0
475.52,73.0
475.59,67.0
475.65,78.0
475.71,65.0
475.78,74.0
475.84,68.0
475.9,79.0
475.96,81.0
476.03,55.0
476.09,49.0
476.15,45.0
476.22,65.0
476.28,63.0
476.34,56.0
476.41,34.0
476.47,53.0
476.53,64.0
476.59,55.0
476.66,54.0
476.72,53.0
476.78,58.0
476.85,43.0
476.91,55.0
476.97,64.0
477.04,51.0
477.1,52.0
477.16,56.0
477.22,74.0
477.29,74.0
477.35,56.0
477.41,85.0
477.48,57.0
477.54,65.0
477.6,57.0
477.67,73.0
477.73,75.0
477.79,59.0
477.85,73.0
477.92,64.0
477.98,63.0
478.04,38.0
478.11,39.0
478.17,37.0
478.23,26.0
478.3,35.0
478.36,34.0
478.42,29.0
478.48,42.0
478.55,48.0
478.61,36.0
478.67,57.0
478.74,64.0
478.8,59.0
478.86,54.0
478.93,60.0
478.99,61.0
479.05,66.0
479.11,82.0
479.18,90.0
479.24,84.0
479.3,95.0
479.37,88.0
479.43,92.0
479.49,84.0
479.56,85.0
479.62,95.0
479.68,88.0
479.74,62.0
479.81,60.0
479.87,54.0
479.93,59.0
480.0,52.0
480.06,61.0
480.12,59.0
480.19,71.0
480.25,65.0
480.31,59.0
480.37,48.0
480.44,45.0
480.5,60.0
480.56,60.0
480.63,54.0
480.69,62.0
480.75,70.0
480.82,43.0
480.88,32.0
480.94,53.0
481.0,72.0
481.07,56.0
481.13,48.0
481.19,64.0
481.26,54.0
481.32,61.0
481.38,94.0
481.45,83.0
481.51,76.0
481.57,60.0
481.63,56.0
481.7,73.0
481.76,53.0
481.82,50.0
481.89,68.0
481.95,43.0
482.01,42.0
482.08,41.0
482.14,32.0
482.2,45.0
482.26,51.0
482.33,62.0
482.39,65.0
482.45,40.0
482.52,55.0
482.58,38.0
482.64,31.0
482.71,38.0
482.77,32.0
482.83,51.0
482.89,34.0
482.96,21.0
483.02,37.0
483.08,29.0
483.15,45.0
483.21,34.0
483.27,27.0
483.34,32.0
483.4,31.0
483.46,37.0
483.52,31.0
483.59,31.0
483.65,37.0
483.71,38.0
483.78,23.0
483.84,36.0
483.9,27.0
483.97,33.0
484.03,29.0
484.09,24.0
484.15,16.0
484.22,20.0
484.28,12.0
484.34,20.0
484.41,25.0
484.47,30.0
484.53,51.0
484.6,33.0
484.66,27.0
484.72,37.0
484.78,31.0
484.85,29.0
484.91,49.0
484.97,29.0
485.04,35.0
485.1,33.0
485.16,21.0
485.23,15.0
485.29,1.0
485.35,2.0
485.41,-7.0
485.48,-7.0
485.54,-12.0
485.6,-41.0
485.67,-22.0
485.73,-3.0
485.79,-11.0
485.86,-27.0
485.92,-37.0
485.98,-19.0
486.04,-10.0
486.11,-25.0
486.17,-28.0
486.23,-17.0
486.3,9.0
486.36,14.0
486.42,21.0
486.49,22.0
486.55,38.0
486.61,27.0
486.67,35.0
486.74,15.0
486.8,10.0
486.86,23.0
486.93,24.0
486.99,46.0
487.05,43.0
487.12,44.0
487.18,50.0
487.24,51.0
487.3,21.0
487.37,26.0
487.43,25.0
487.49,41.0
487.56,23.0
487.62,36.0
487.68,61.0
487.75,39.0
487.81,31.0
487.87,31.0
487.93,51.0
488.0,32.0
488.06,28.0
488.12,38.0
488.19,52.0
488.25,58.0
488.31,55.0
488.38,60.0
488.44,51.0
488.5,77.0
488.56,80.0
488.63,87.0
488.69,75.0
488.75,82.0
488.82,78.0
488.88,89.0
488.94,80.0
489.01,76.0
489.07,91.0
489.13,84.0
489.19,87.0
489.26,88.0
489.32,101.0
489.38,80.0
489.45,82.0
489.51,93.0
489.57,82.0
489.64,83.0
489.7,90.0
489.76,61.0
489.82,53.0
489.89,52.0
489.95,74.0
490.01,69.0
490.08,85.0
490.14,106.0
490.2,98.0
490.27,65.0
490.33,91.0
490.39,85.0
490.45,118.0
490.52,107.0
490.58,94.0
490.64,86.0
490.71,94.0
490.77,127.0
490.83,110.0
490.9,98.0
490.96,117.0
491.02,105.0
491.08,118.0
491.15,116.0
491.21,97.0
491.27,101.0
491.34,74.0
491.4,90.0
491.46,91.0
491.53,101.0
491.59,90.0
491.65,104.0
491.71,120.0
491.78,97.0
491.84,105.0
491.9,98.0
491.97,90.0
492.03,104.0
492.09,96.0
492.16,94.0
492.22,112.0
492.28,114.0
492.34,104.0
492.41,88.0
492.47,84.0
492.53,51.0
492.6,71.0
492.66,71.0
492.72,87.0
492.79,88.0
492.85,76.0
492.91,80.0
492.97,99.0
493.04,94.0
493.1,91.0
493.16,115.0
493.23,84.0
493.29,101.0
493.35,96.0
493.42,107.0
493.48,107.0
493.54,107.0
493.6,116.0
493.67,113.0
493.73,105.0
493.79,119.0
493.86,122.0
493.92,103.0
493.98,98.0
494.05,109.0
494.11,113.0
494.17,124.0
494.23,116.0
494.3,99.0
494.36,120.0
494.42,121.0
494.49,116.0
494.55,96.0
494.61,100.0
494.68,85.0
494.74,111.0
494.8,100.0
494.86,101.0
494.93,118.0
494.99,98.0
495.05,90.0
495.12,97.0
495.18,79.0
495.24,97.0
495.31,106.0
495.37,91.0
495.43,116.0
495.49,102.0
495.56,115.0
495.62,106.0
495.68,89.0
495.75,107.0
495.81,91.0
495.87,102.0
495.94,114.0
496.0,112.0
496.06,126.0
496.12,118.0
496.19,120.0
496.25,127.0
496.31,105.0
496.38,87.0
496.44,124.0
496.5,105.0
496.57,114.0
496.63,96.0
496.69,95.0
496.75,107.0
496.82,83.0
496.88,96.0
496.94,83.0
497.01,82.0
497.07,85.0
497.13,101.0
497.2,105.0
497.26,114.0
497.32,118.0
497.38,112.0
497.45,105.0
497.51,98.0
497.57,101.0
497.64,91.0
497.7,115.0
497.76,115.0
497.83,107.0
497.89,109.0
497.95,106.0
498.01,116.0
498.08,99.0
498.14,123.0
498.2,131.0
498.27,95.0
498.33,105.0
498.39,83.0
498.46,95.0
498.52,95.0
498.58,120.0
498.64,96.0
498.71,83.0
498.77,87.0
498.83,75.0
498.9,88.0
498.96,71.0
499.02,72.0
499.09,95.0
499.15,105.0
499.21,108.0
499.27,106.0
499.34,102.0
499.4,86.0
499.46,94.0
499.53,110.0
499.59,96.0
499.65,111.0
499.72,99.0
499.78,110.0
499.84,137.0
499.9,124.0
499.97,112.0
500.03,128.0
500.09,128.0
500.16,127.0
500.22,128.0
500.28,109.0
500.35,124.0
500.41,119.0
500.47,118.0
500.53,106.0
500.6,94.0
500.66,98.0
500.72,103.0
500.79,80.0
500.85,87.0
500.91,98.0
500.98,120.0
501.04,101.0
501.1,98.0
501.16,112.0
501.23,105.0
501.29,103.0
501.35,104.0
501.42,87.0
501.48,94.0
501.54,83.0
501.61,78.0
501.67,60.0
501.73,70.0
501.79,82.0
501.86,83.0
501.92,48.0
501.98,70.0
502.05,42.0
502.11,47.0
502.17,47.0
502.24,22.0
502.3,21.0
502.36,32.0
502.42,29.0
502.49,27.0
502.55,21.0
502.61,23.0
502.68,46.0
502.74,44.0
502.8,43.0
502.87,34.0
502.93,35.0
502.99,50.0
503.05,24.0
503.12,35.0
503.18,29.0
503.24,40.0
503.31,38.0
503.37,39.0
503.43,37.0
503.5,40.0
503.56,46.0
503.62,36.0
503.68,28.0
503.75,34.0
503.81,58.0
503.87,41.0
503.94,43.0
504.0,38.0
504.06,33.0
504.13,32.0
504.19,28.0
504.25,36.0
504.31,26.0
504.38,29.0
504.44,26.0
504.5,27.0
504.57,27.0
504.63,24.0
504.69,28.0
504.76,38.0
504.82,25.0
504.88,37.0
504.94,49.0
505.01,21.0
505.07,2.0
505.13,-7.0
505.2,14.0
505.26,-6.0
505.32,25.0
505.39,52.0
505.45,27.0
505.51,38.0
505.57,49.0
505.64,46.0
505.7,51.0
505.76,42.0
505.83,52.0
505.89,74.0
505.95,53.0
506.02,38.0
506.08,40.0
506.14,42.0
506.2,55.0
506.27,28.0
506.33,52.0
506.39,47.0
506.46,59.0
506.52,32.0
506.58,53.0
506.65,71.0
506.71,44.0
506.77,65.0
506.83,76.0
506.9,64.0
506.96,64.0
507.02,75.0
507.09,67.0
507.15,63.0
507.21,59.0
507.28,83.0
507.34,62.0
507.4,56.0
507.46,71.0
507.53,68.0
507.59,65.0
507.65,62.0
507.72,82.0
507.78,71.0
507.84,74.0
507.91,89.0
507.97,109.0
508.03,73.0
508.09,55.0
508.16,62.0
508.22,65.0
508.28,67.0
508.35,54.0
508.41,55.0
508.47,66.0
508.54,75.0
508.6,75.0
508.66,74.0
508.72,95.0
508.79,82.0
508.85,72.0
508.91,80.0
508.98,89.0
509.04,89.0
509.1,50.0
509.17,56.0
509.23,79.0
509.29,71.0
509.35,80.0
509.42,84.0
509.48,94.0
509.54,79.0
509.61,79.0
509.67,72.0
509.73,66.0
509.8,60.0
509.86,57.0
509.92,55.0
509.98,53.0
510.05,79.0
510.11,71.0
510.17,68.0
510.24,67.0
510.3,65.0
510.36,60.0
510.43,53.0
510.49,59.0
510.55,34.0
510.61,52.0
510.68,64.0
510.74,43.0
510.8,50.0
510.87,59.0
510.93,64.0
510.99,91.0
511.06,86.0
511.12,68.0
511.18,82.0
511.24,74.0
511.31,93.0
511.37,99.0
511.43,90.0
511.5,100.0
511.56,103.0
511.62,93.0
511.69,80.0
511.75,97.0
511.81,115.0
511.87,106.0
511.94,96.0
512.0,103.0
512.06,86.0
512.13,108.0
512.19,101.0
512.25,109.0
512.32,111.0
512.38,116.0
512.44,126.0
512.5,130.0
512.57,123.0
512.63,97.0
512.69,111.0
512.76,102.0
512.82,110.0
512.88,125.0
512.95,122.0
513.01,109.0
513.07,99.0
513.13,109.0
513.2,127.0
513.26,132.0
513.32,133.0
513.39,131.0
513.45,136.0
513.51,137.0
513.58,141.0
513.64,152.0
513.7,121.0
513.76,150.0
513.83,141.0
513.89,144.0
513.95,136.0
514.02,140.0
514.08,132.0
514.14,121.0
514.21,128.0
514.27,136.0
514.33,136.0
514.39,155.0
514.46,143.0
514.52,136.0
514.58,148.0
514.65,134.0
514.71,135.0
514.77,152.0
514.84,154.0
514.9,127.0
514.96,129.0
515.02,137.0
515.09,122.0
515.15,130.0
515.21,142.0
515.28,128.0
515.34,116.0
515.4,124.0
515.47,127.0
515.53,125.0
515.59,113.0
515.65,100.0
515.72,113.0
515.78,107.0
515.84,109.0
515.91,89.0
515.97,75.0
516.03,77.0
516.1,72.0
516.16,108.0
516.22,108.0
516.28,87.0
516.35,98.0
516.41,76.0
516.47,68.0
516.54,83.0
516.6,85.0
516.66,75.0
516.73,92.0
516.79,79.0
516.85,93.0
516.91,101.0
516.98,94.0
517.04,105.0
517.1,93.0
517.17,92.0
517.23,89.0
517.29,69.0
517.36,77.0
517.42,95.0
517.48,81.0
517.54,88.0
517.61,78.0
517.67,88.0
517.73,82.0
517.8,83.0
517.86,71.0
517.92,65.0
517.99,94.0
518.05,99.0
518.11,90.0
518.17,63.0
518.24,91.0
518.3,77.0
518.36,53.0
518.43,85.0
518.49,94.0
518.55,61.0
518.62,52.0
518.68,62.0
518.74,51.0
518.8,70.0
518.87,43.0
518.93,17.0
518.99,27.0
519.06,31.0
519.12,25.0
519.18,42.0
519.25,53.0
519.31,71.0
519.37,70.0
519.43,35.0
519.5,61.0
519.56,64.0
519.62,50.0
519.69,48.0
519.75,53.0
519.81,49.0
519.88,57.0
519.94,35.0
520.0,31.0
520.06,32.0
520.13,49.0
520.19,53.0
520.25,59.0
520.32,64.0
520.38,60.0
520.44,43.0
520.51,25.0
520.57,42.0
520.63,28.0
520.69,36.0
520.76,31.0
520.82,34.0
520.88,58.0
520.95,26.0
521.01,32.0
521.07,34.0
521.14,38.0
521.2,34.0
521.26,4.0
521.32,27.0
521.39,17.0
521.45,16.0
521.51,1.0
521.58,9.0
521.64,25.0
521.7,27.0
521.77,47.0
521.83,19.0
521.89,36.0
521.95,58.0
522.02,57.0
522.08,58.0
522.14,57.0
522.21,63.0
522.27,49.0
522.33,69.0
522.4,68.0
522.46,71.0
522.52,62.0
522.58,55.0
522.65,69.0
522.71,49.0
522.77,64.0
522.84,72.0
522.9,68.0
522.96,54.0
523.03,74.0
523.09,83.0
523.15,101.0
523.21,102.0
523.28,90.0
523.34,94.0
523.4,92.0
523.47,97.0
523.53,95.0
523.59,94.0
523.66,86.0
523.72,90.0
523.78,93.0
523.84,99.0
523.91,109.0
523.97,115.0
524.03,115.0
524.1,140.0
524.16,103.0
524.22,96.0
524.29,105.0
524.35,101.0
524.41,111.0
524.47,96.0
524.54,97.0
524.6,88.0
524.66,74.0
524.73,96.0
524.79,71.0
524.85,94.0
524.92,96.0
524.98,82.0
525.04,86.0
525.1,89.0
525.17,78.0
525.23,74.0
525.29,79.0
525.36,70.0
525.42,71.0
525.48,56.0
525.55,64.0
525.61,59.0
525.67,63.0
525.73,54.0
525.8,67.0
525.86,64.0
525.92,64.0
525.99,80.0
526.05,79.0
526.11,85.0
526.18,97.0
526.24,78.0
526.3,100.0
526.36,91.0
526.43,82.0
526.49,96.0
526.55,95.0
526.62,81.0
526.68,73.0
526.74,82.0
526.81,81.0
526.87,82.0
526.93,97.0
526.99,86.0
527.06,86.0
527.12,92.0
527.18,96.0
527.25,109.0
527.31,94.0
527.37,78.0
527.44,67.0
527.5,64.0
527.56,80.0
527.62,60.0
527.69,56.0
527.75,66.0
527.81,66.0
527.88,61.0
527.94,70.0
528.0,69.0
528.07,55.0
528.13,72.0
528.19,79.0
528.25,82.0
528.32,75.0
528.38,78.0
528.44,69.0
528.51,80.0
528.57,61.0
528.63,56.0
528.7,61.0
528.76,63.0
528.82,75.0
528.88,53.0
528.95,70.0
529.01,76.0
529.07,78.0
529.14,89.0
529.2,93.0
529.26,88.0
529.33,87.0
529.39,83.0
529.45,84.0
529.51,81.0
529.58,91.0
529.64,97.0
529.7,82.0
529.77,82.0
529.83,64.0
529.89,84.0
529.96,86.0
530.02,79.0
530.08,104.0
530.14,91.0
530.21,107.0
530.27,110.0
530.33,110.0
530.4,91.0
530.46,101.0
530.52,82.0
530.59,82.0
530.65,91.0
530.71,82.0
530.77,92.0
530.84,93.0
530.9,82.0
530.96,88.0
531.03,69.0
531.09,99.0
531.15,88.0
531.22,92.0
531.28,121.0
531.34,104.0
531.4,105.0
531.47,107.0
531.53,116.0
531.59,122.0
531.66,125.0
531.72,111.0
531.78,102.0
531.85,97.0
531.91,86.0
531.97,102.0
532.03,118.0
532.1,79.0
532.16,86.0
532.22,108.0
532.29,112.0
532.35,124.0
532.41,111.0
532.48,108.0
532.54,111.0
532.6,87.0
532.66,98.0
532.73,114.0
532.79,115.0
532.85,132.0
532.92,121.0
532.98,116.0
533.04,110.0
533.11,114.0
533.17,121.0
533.23,105.0
533.29,105.0
533.36,103.0
533.42,115.0
533.48,105.0
533.55,119.0
533.61,113.0
533.67,104.0
533.74,95.0
533.8,105.0
533.86,100.0
533.92,86.0
533.99,89.0
534.05,92.0
534.11,78.0
534.18,63.0
534.24,75.0
534.3,75.0
534.37,84.0
534.43,73.0
534.49,78.0
534.55,80.0
534.62,82.0
534.68,85.0
534.74,85.0
534.81,83.0
534.87,63.0
534.93,82.0
535.0,99.0
535.06,99.0
535.12,84.0
535.18,82.0
535.25,63.0
535.31,66.0
535.37,84.0
535.44,56.0
535.5,73.0
535.56,48.0
535.63,39.0
535.69,55.0
535.75,50.0
535.81,49.0
535.88,59.0
535.94,44.0
536.0,36.0
536.07,36.0
536.13,44.0
536.19,30.0
536.26,33.0
536.32,38.0
536.38,31.0
536.44,42.0
536.51,25.0
536.57,22.0
536.63,30.0
536.7,22.0
536.76,25.0
536.82,22.0
536.89,38.0
536.95,44.0
537.01,38.0
537.07,39.0
537.14,29.0
537.2,35.0
537.26,32.0
537.33,42.0
537.39,41.0
537.45,47.0
537.52,44.0
537.58,51.0
537.64,57.0
537.7,57.0
537.77,65.0
537.83,64.0
537.89,36.0
537.96,48.0
538.02,47.0
538.08,47.0
538.15,45.0
538.21,41.0
538.27,65.0
538.33,74.0
538.4,79.0
538.46,71.0
538.52,57.0
538.59,74.0
538.65,56.0
538.71,60.0
538.78,60.0
538.84,57.0
538.9,62.0
538.96,78.0
539.03,69.0
539.09,64.0
539.15,86.0
539.22,89.0
539.28,65.0
539.34,54.0
539.41,60.0
539.47,80.0
539.53,61.0
539.59,85.0
539.66,59.0
539.72,63.0
539.78,65.0
539.85,82.0
539.91,75.0
539.97,70.0
540.04,80.0
540.1,82.0
540.16,115.0
540.22,103.0
540.29,107.0
540.35,104.0
540.41,97.0
540.48,128.0
540.54,104.0
540.6,117.0
540.67,116.0
540.73,99.0
540.79,125.0
540.85,118.0
540.92,101.0
540.98,94.0
541.04,109.0
541.11,101.0
541.17,122.0
541.23,104.0
541.3,89.0
541.36,91.0
541.42,98.0
541.48,122.0
541.55,127.0
541.61,119.0
541.67,114.0
541.74,94.0
541.8,94.0
541.86,116.0
541.93,100.0
541.99,99.0
542.05,91.0
542.11,104.0
542.18,118.0
542.24,107.0
542.3,82.0
542.37,88.0
542.43,80.0
542.49,76.0
542.56,63.0
542.62,57.0
542.68,78.0
542.74,85.0
542.81,100.0
542.87,93.0
542.93,75.0
543.0,67.0
543.06,87.0
543.12,79.0
543.19,69.0
543.25,64.0
543.31,63.0
543.37,52.0
543.44,60.0
543.5,74.0
543.56,60.0
543.63,62.0
543.69,49.0
543.75,46.0
543.82,66.0
543.88,71.0
543.94,85.0
544.0,73.0
544.07,69.0
544.13,64.0
544.19,72.0
544.26,76.0
544.32,73.0
544.38,60.0
544.45,61.0
544.51,63.0
544.57,56.0
544.63,86.0
544.7,97.0
544.76,85.0
544.82,78.0
544.89,86.0
544.95,82.0
545.01,71.0
545.08,71.0
545.14,81.0
545.2,93.0
545.26,99.0
545.33,95.0
545.39,81.0
545.45,80.0
545.52,90.0
545.58,89.0
545.64,91.0
545.71,82.0
545.77,86.0
545.83,91.0
545.89,80.0
545.96,86.0
546.02,81.0
546.08,88.0
546.15,98.0
546.21,94.0
546.27,66.0
546.34,72.0
546.4,75.0
546.46,58.0
546.52,79.0
546.59,64.0
546.65,59.0
546.71,72.0
546.78,55.0
546.84,58.0
546.9,68.0
546.97,62.0
547.03,38.0
547.09,56.0
547.15,51.0
547.22,53.0
547.28,62.0
547.34,56.0
547.41,64.0
547.47,72.0
547.53,72.0
547.6,78.0
547.66,58.0
547.72,55.0
547.78,64.0
547.85,67.0
547.91,55.0
547.97,56.0
548.04,47.0
548.1,53.0
548.16,82.0
548.23,59.0
548.29,56.0
548.35,55.0
548.41,59.0
548.48,66.0
548.54,52.0
548.6,57.0
548.67,53.0
548.73,58.0
548.79,56.0
548.86,55.0
548.92,50.0
548.98,27.0
549.04,40.0
549.11,47.0
549.17,48.0
549.23,31.0
549.3,39.0
549.36,60.0
549.42,44.0
549.49,25.0
549.55,17.0
549.61,4.0
549.67,22.0
549.74,22.0
549.8,27.0
549.86,36.0
549.93,22.0
549.99,12.0
550.05,28.0
550.12,2.0
550.18,32.0
550.24,31.0
550.3,18.0
550.37,24.0
550.43,28.0
550.49,26.0
550.56,20.0
550.62,27.0
550.68,23.0
550.75,15.0
550.81,35.0
550.87,29.0
550.93,29.0
551.0,43.0
551.06,22.0
551.12,38.0
551.19,38.0
551.25,55.0
551.31,36.0
551.38,58.0
551.44,81.0
551.5,60.0
551.56,60.0
551.63,65.0
551.69,56.0
551.75,60.0
551.82,59.0
551.88,48.0
551.94,42.0
552.01,35.0
552.07,36.0
552.13,16.0
552.19,33.0
552.26,12.0
552.32,9.0
552.38,2.0
552.45,-3.0
552.51,-9.0
552.57,-30.0
552.64,-30.0
552.7,-34.0
552.76,-10.0
552.82,-24.0
552.89,-36.0
552.95,-17.0
553.01,-23.0
553.08,-25.0
553.14,-38.0
553.2,-13.0
553.27,-27.0
553.33,-6.0
553.39,5.0
553.45,-23.0
553.52,-19.0
553.58,0.0
553.64,7.0
553.71,-17.0
553.77,-39.0
553.83,-36.0
553.9,-23.0
553.96,-8.0
554.02,-2.0
554.08,1.0
554.15,-2.0
554.21,4.0
554.27,14.0
554.34,29.0
554.4,26.0
554.46,39.0
554.53,45.0
554.59,30.0
554.65,22.0
554.71,17.0
554.78,33.0
554.84,41.0
554.9,52.0
554.97,52.0
555.03,53.0
555.09,55.0
555.16,37.0
555.22,36.0
555.28,24.0
555.34,40.0
555.41,50.0
555.47,58.0
555.53,53.0
555.6,30.0
555.66,39.0
555.72,36.0
555.79,17.0
555.85,33.0
555.91,45.0
555.97,47.0
556.04,55.0
556.1,41.0
556.16,39.0
556.23,53.0
556.29,52.0
556.35,65.0
556.42,56.0
556.48,55.0
556.54,72.0
556.6,58.0
556.67,45.0
556.73,48.0
556.79,48.0
556.86,57.0
556.92,52.0
556.98,64.0
557.05,69.0
557.11,70.0
557.17,71.0
557.23,74.0
557.3,70.0
557.36,73.0
557.42,58.0
557.49,56.0
557.55,81.0
557.61,90.0
557.68,66.0
557.74,75.0
557.8,76.0
557.86,81.0
557.93,92.0
557.99,76.0
558.05,83.0
558.12,83.0
558.18,77.0
558.24,79.0
558.31,58.0
558.37,69.0
558.43,62.0
558.49,85.0
558.56,69.0
558.62,73.0
558.68,72.0
558.75,67.0
558.81,51.0
558.87,54.0
558.94,73.0
559.0,61.0
559.06,87.0
559.12,55.0
559.19,43.0
559.25,47.0
559.31,65.0
559.38,82.0
559.44,72.0
559.5,90.0
559.57,78.0
559.63,80.0
559.69,107.0
559.75,99.0
559.82,118.0
559.88,108.0
559.94,92.0
560.01,91.0
560.07,91.0
560.13,85.0
560.2,104.0
560.26,106.0
560.32,107.0
560.38,113.0
560.45,111.0
560.51,115.0
560.57,107.0
560.64,103.0
560.7,110.0
560.76,106.0
560.83,99.0
560.89,105.0
560.95,102.0
561.01,103.0
561.08,106.0
561.14,105.0
561.2,100.0
561.27,81.0
561.33,76.0
561.39,91.0
561.46,95.0
561.52,103.0
561.58,97.0
561.64,102.0
561.71,100.0
561.77,107.0
561.83,92.0
561.9,83.0
561.96,103.0
562.02,107.0
562.09,100.0
562.15,94.0
562.21,98.0
562.27,111.0
562.34,107.0
562.4,121.0
562.46,111.0
562.53,106.0
562.59,126.0
562.65,117.0
562.72,111.0
562.78,107.0
562.84,102.0
562.9,111.0
562.97,138.0
563.03,141.0
563.09,128.0
563.16,135.0
563.22,125.0
563.28,141.0
563.35,160.0
563.41,150.0
563.47,147.0
563.53,151.0
563.6,164.0
563.66,176.0
563.72,165.0
563.79,183.0
563.85,180.0
563.91,169.0
563.98,135.0
564.04,152.0
564.1,166.0
564.16,167.0
564.23,163.0
564.29,150.0
564.35,145.0
564.42,139.0
564.48,144.0
564.54,139.0
564.61,121.0
564.67,139.0
564.73,152.0
564.79,149.0
564.86,147.0
564.92,135.0
564.98,157.0
565.05,153.0
565.11,127.0
565.17,132.0
565.24,116.0
565.3,116.0
565.36,111.0
565.42,119.0
565.49,116.0
565.55,98.0
565.61,114.0
565.68,112.0
565.74,109.0
565.8,92.0
565.87,99.0
565.93,94.0
565.99,108.0
566.05,119.0
566.12,126.0
566.18,130.0
566.24,141.0
566.31,118.0
566.37,131.0
566.43,147.0
566.5,143.0
566.56,144.0
566.62,125.0
566.68,138.0
566.75,123.0
566.81,129.0
566.87,133.0
566.94,122.0
567.0,114.0
567.06,104.0
567.13,122.0
567.19,132.0
567.25,122.0
567.31,116.0
567.38,130.0
567.44,128.0
567.5,142.0
567.57,129.0
567.63,123.0
567.69,129.0
567.76,119.0
567.82,134.0
567.88,123.0
567.94,124.0
568.01,132.0
568.07,120.0
568.13,121.0
568.2,97.0
568.26,126.0
568.32,121.0
568.39,102.0
568.45,113.0
568.51,103.0
568.57,106.0
568.64,105.0
568.7,91.0
568.76,97.0
568.83,94.0
568.89,101.0
568.95,86.0
569.02,99.0
569.08,80.0
569.14,57.0
569.2,76.0
569.27,66.0
569.33,75.0
569.39,94.0
569.46,75.0
569.52,64.0
569.58,81.0
569.65,65.0
569.71,69.0
569.77,61.0
569.83,45.0
569.9,50.0
569.96,53.0
570.02,49.0
570.09,66.0
570.15,47.0
570.21,71.0
570.28,66.0
570.34,56.0
570.4,80.0
570.46,55.0
570.53,42.0
570.59,48.0
570.65,56.0
570.72,54.0
570.78,69.0
570.84,82.0
570.91,72.0
570.97,66.0
571.03,69.0
571.09,77.0
571.16,81.0
571.22,73.0
571.28,71.0
571.35,88.0
571.41,96.0
571.47,95.0
571.54,88.0
571.6,67.0
571.66,73.0
571.72,47.0
571.79,57.0
571.85,46.0
571.91,45.0
571.98,50.0
572.04,51.0
572.1,75.0
572.17,84.0
572.23,66.0
572.29,80.0
572.35,101.0
572.42,83.0
572.48,86.0
572.54,86.0
572.61,73.0
572.67,70.0
572.73,82.0
572.8,84.0
572.86,85.0
572.92,85.0
572.98,66.0
573.05,63.0
573.11,63.0
573.17,56.0
573.24,52.0
573.3,51.0
573.36,59.0
573.43,61.0
573.49,52.0
573.55,69.0
573.61,66.0
573.68,58.0
573.74,53.0
573.8,55.0
573.87,58.0
573.93,66.0
573.99,66.0
574.06,63.0
574.12,57.0
574.18,59.0
574.24,63.0
574.31,59.0
574.37,79.0
574.43,73.0
574.5,79.0
574.56,78.0
574.62,84.0
574.69,78.0
574.75,65.0
574.81,51.0
574.87,66.0
574.94,51.0
575.0,38.0
575.06,33.0
575.13,11.0
575.19,30.0
575.25,43.0
575.32,46.0
575.38,55.0
575.44,60.0
575.5,61.0
575.57,58.0
575.63,51.0
575.69,45.0
575.76,57.0
575.82,61.0
575.88,66.0
575.95,69.0
576.01,84.0
576.07,84.0
576.13,79.0
576.2,73.0
576.26,80.0
576.32,81.0
576.39,70.0
576.45,67.0
576.51,73.0
576.58,52.0
576.64,44.0
576.7,76.0
576.76,66.0
576.83,53.0
576.89,58.0
576.95,48.0
577.02,22.0
577.08,22.0
577.14,22.0
577.21,24.0
577.27,29.0
577.33,45.0
577.39,55.0
577.46,44.0
577.52,67.0
577.58,60.0
577.65,51.0
577.71,64.0
577.77,64.0
577.84,55.0
577.9,60.0
577.96,63.0
578.02,82.0
578.09,84.0
578.15,76.0
578.21,66.0
578.28,52.0
578.34,71.0
578.4,74.0
578.47,58.0
578.53,68.0
578.59,92.0
578.65,99.0
578.72,88.0
578.78,80.0
578.84,82.0
578.91,90.0
578.97,94.0
579.03,77.0
579.1,93.0
579.16,90.0
579.22,85.0
579.28,117.0
579.35,105.0
579.41,84.0
579.47,89.0
579.54,94.0
579.6,85.0
579.66,70.0
579.73,62.0
579.79,83.0
579.85,93.0
579.91,69.0
579.98,78.0
580.04,57.0
580.1,62.0
580.17,68.0
580.23,89.0
580.29,71.0
580.36,62.0
580.42,83.0
580.48,80.0
580.54,81.0
580.61,92.0
580.67,84.0
580.73,77.0
580.8,96.0
580.86,86.0
580.92,90.0
580.99,89.0
581.05,85.0
581.11,91.0
581.17,100.0
581.24,102.0
581.3,124.0
581.36,120.0
581.43,139.0
581.49,130.0
581.55,139.0
581.62,113.0
581.68,123.0
581.74,123.0
581.8,111.0
581.87,129.0
581.93,121.0
581.99,113.0
582.06,109.0
582.12,110.0
582.18,108.0
582.25,107.0
582.31,89.0
582.37,81.0
582.43,89.0
582.5,81.0
582.56,97.0
582.62,91.0
582.69,95.0
582.75,106.0
582.81,113.0
582.88,111.0
582.94,122.0
583.0,103.0
583.06,115.0
583.13,138.0
583.19,127.0
583.25,114.0
583.32,110.0
583.38,113.0
583.44,111.0
583.51,125.0
583.57,127.0
583.63,129.0
583.69,125.0
583.76,88.0
583.82,86.0
583.88,91.0
583.95,88.0
584.01,92.0
584.07,92.0
584.14,81.0
584.2,70.0
584.26,85.0
584.32,78.0
584.39,99.0
584.45,103.0
584.51,119.0
584.58,107.0
584.64,101.0
584.7,110.0
584.77,94.0
584.83,100.0
584.89,104.0
584.95,95.0
585.02,92.0
585.08,103.0
585.14,94.0
585.21,105.0
585.27,102.0
585.33,97.0
585.4,108.0
585.46,98.0
585.52,83.0
585.58,69.0
585.65,73.0
585.71,92.0
585.77,73.0
585.84,70.0
585.9,83.0
585.96,84.0
586.03,53.0
586.09,64.0
586.15,89.0
586.21,69.0
586.28,75.0
586.34,85.0
586.4,78.0
586.47,61.0
586.53,70.0
586.59,53.0
586.66,47.0
586.72,51.0
586.78,35.0
586.84,56.0
586.91,47.0
586.97,45.0
587.03,19.0
587.1,17.0
587.16,20.0
587.22,27.0
587.29,27.0
587.35,30.0
587.41,31.0
587.47,39.0
587.54,20.0
587.6,52.0
587.66,38.0
587.73,34.0
587.79,36.0
587.85,36.0
587.92,42.0
587.98,36.0
588.04,36.0
588.1,50.0
588.17,55.0
588.23,41.0
588.29,40.0
588.36,43.0
588.42,62.0
588.48,68.0
588.55,57.0
588.61,66.0
588.67,75.0
588.73,74.0
588.8,73.0
588.86,89.0
588.92,80.0
588.99,93.0
589.05,73.0
589.11,87.0
589.18,82.0
589.24,76.0
589.3,66.0
589.36,83.0
589.43,81.0
589.49,83.0
589.55,95.0
589.62,81.0
589.68,87.0
589.74,85.0
589.81,81.0
589.87,110.0
589.93,100.0
589.99,96.0
590.06,119.0
590.12,111.0
590.18,105.0
590.25,102.0
590.31,107.0
590.37,113.0
590.44,110.0
590.5,110.0
590.56,124.0
590.62,124.0
590.69,126.0
590.75,130.0
590.81,104.0
590.88,113.0
590.94,108.0
591.0,96.0
591.07,98.0
591.13,112.0
591.19,95.0
591.25,87.0
591.32,109.0
591.38,103.0
591.44,88.0
591.51,89.0
591.57,91.0
591.63,96.0
591.7,86.0
591.76,78.0
591.82,69.0
591.88,44.0
591.95,73.0
592.01,64.0
592.07,62.0
592.14,64.0
592.2,66.0
592.26,86.0
592.33,99.0
592.39,110.0
592.45,106.0
592.51,114.0
592.58,94.0
592.64,66.0
592.7,84.0
592.77,95.0
592.83,76.0
592.89,78.0
592.96,72.0
593.02,68.0
593.08,73.0
593.14,73.0
593.21,78.0
593.27,80.0
593.33,64.0
593.4,63.0
593.46,64.0
593.52,48.0
593.59,73.0
593.65,70.0
593.71,46.0
593.77,68.0
593.84,53.0
593.9,40.0
593.96,48.0
594.03,70.0
594.09,64.0
594.15,57.0
594.22,69.0
594.28,70.0
594.34,67.0
594.4,33.0
594.47,59.0
594.53,80.0
594.59,67.0
594.66,73.0
594.72,71.0
594.78,62.0
594.85,56.0
594.91,73.0
594.97,94.0
595.03,72.0
595.1,72.0
595.16,85.0
595.22,79.0
595.29,103.0
595.35,98.0
595.41,92.0
595.48,92.0
595.54,113.0
595.6,118.0
595.66,104.0
595.73,107.0
595.79,117.0
595.85,108.0
595.92,117.0
595.98,113.0
596.04,103.0
596.11,114.0
596.17,121.0
596.23,125.0
596.29,118.0
596.36,125.0
596.42,119.0
596.48,117.0
596.55,119.0
596.61,138.0
596.67,129.0
596.74,112.0
596.8,123.0
596.86,117.0
596.92,116.0
596.99,117.0
597.05,106.0
597.11,100.0
597.18,102.0
597.24,101.0
597.3,110.0
597.37,110.0
597.43,104.0
597.49,95.0
597.55,93.0
597.62,85.0
597.68,99.0
597.74,90.0
597.81,93.0
597.87,112.0
597.93,101.0
598.0,99.0
598.06,104.0
598.12,87.0
598.18,86.0
598.25,89.0
598.31,83.0
598.37,73.0
598.44,78.0
598.5,77.0
598.56,92.0
598.63,83.0
598.69,91.0
598.75,64.0
598.81,70.0
598.88,69.0
598.94,81.0
599.0,79.0
599.07,67.0
599.13,80.0
599.19,102.0
599.26,97.0
599.32,110.0
599.38,99.0
599.44,121.0
599.51,100.0
599.57,88.0
599.63,94.0
599.7,100.0
599.76,100.0
599.82,116.0
599.89,103.0
599.95,97.0
600.01,117.0
600.07,86.0
600.14,88.0
600.2,113.0
600.26,122.0
600.33,128.0
600.39,141.0
600.45,116.0
600.52,125.0
600.58,107.0
600.64,111.0
600.7,115.0
600.77,116.0
600.83,123.0
600.89,121.0
600.96,110.0
601.02,104.0
601.08,80.0
601.15,83.0
601.21,95.0
601.27,93.0
601.33,109.0
601.4,92.0
601.46,97.0
601.52,80.0
601.59,102.0
601.65,75.0
601.71,77.0
601.78,87.0
601.84,67.0
601.9,59.0
601.96,53.0
602.03,74.0
602.09,70.0
602.15,58.0
602.22,55.0
602.28,43.0
602.34,57.0
602.41,52.0
602.47,41.0
602.53,65.0
602.59,29.0
602.66,53.0
602.72,29.0
602.78,14.0
602.85,35.0
602.91,24.0
602.97,17.0
603.04,27.0
603.1,26.0
603.16,36.0
603.22,35.0
603.29,58.0
603.35,50.0
603.41,25.0
603.48,22.0
603.54,20.0
603.6,6.0
603.67,33.0
603.73,19.0
603.79,8.0
603.85,22.0
603.92,36.0
603.98,37.0
604.04,34.0
604.11,43.0
604.17,39.0
604.23,30.0
604.3,34.0
604.36,36.0
604.42,40.0
604.48,33.0
604.55,29.0
604.61,42.0
604.67,58.0
604.74,52.0
604.8,47.0
604.86,52.0
604.93,42.0
604.99,40.0
605.05,62.0
605.11,69.0
605.18,61.0
605.24,69.0
605.3,70.0
605.37,47.0
605.43,51.0
605.49,59.0
605.56,73.0
605.62,64.0
605.68,63.0
605.74,74.0
605.81,72.0
605.87,66.0
605.93,70.0
606.0,66.0
606.06,67.0
606.12,69.0
606.19,66.0
606.25,57.0
606.31,66.0
606.37,76.0
606.44,92.0
606.5,78.0
606.56,68.0
606.63,50.0
606.69,80.0
606.75,75.0
606.82,76.0
606.88,92.0
606.94,70.0
607.0,75.0
607.07,95.0
607.13,93.0
607.19,84.0
607.26,73.0
607.32,68.0
607.38,84.0
607.45,79.0
607.51,64.0
607.57,77.0
607.63,49.0
607.7,63.0
607.76,52.0
607.82,58.0
607.89,53.0
607.95,61.0
608.01,80.0
608.08,69.0
608.14,70.0
608.2,93.0
608.26,81.0
608.33,78.0
608.39,54.0
608.45,69.0
608.52,57.0
608.58,53.0
608.64,62.0
608.71,67.0
608.77,57.0
608.83,65.0
608.89,64.0
608.96,63.0
609.02,42.0
609.08,40.0
609.15,56.0
609.21,53.0
609.27,45.0
609.34,45.0
609.4,44.0
609.46,39.0
609.52,42.0
609.59,50.0
609.65,67.0
609.71,60.0
609.78,62.0
609.84,50.0
609.9,65.0
609.97,53.0
610.03,63.0
610.09,49.0
610.15,62.0
610.22,47.0
610.28,33.0
610.34,33.0
610.41,36.0
610.47,52.0
610.53,49.0
610.6,35.0
610.66,58.0
610.72,55.0
610.78,54.0
610.85,54.0
610.91,40.0
610.97,52.0
611.04,42.0
611.1,46.0
611.16,47.0
611.23,42.0
611.29,33.0
611.35,33.0
611.41,26.0
611.48,40.0
611.54,50.0
611.6,49.0
611.67,50.0
611.73,46.0
611.79,46.0
611.86,40.0
611.92,42.0
611.98,63.0
612.04,88.0
612.11,92.0
612.17,68.0
612.23,66.0
612.3,80.0
612.36,66.0
612.42,61.0
612.49,55.0
612.55,35.0
612.61,40.0
612.67,45.0
612.74,50.0
612.8,55.0
612.86,43.0
612.93,56.0
612.99,40.0
613.05,29.0
613.12,29.0
613.18,17.0
613.24,24.0
613.3,26.0
613.37,26.0
613.43,45.0
613.49,29.0
613.56,49.0
613.62,45.0
613.68,44.0
613.75,41.0
613.81,40.0
613.87,61.0
613.93,71.0
614.0,30.0
614.06,41.0
614.12,45.0
614.19,52.0
614.25,41.0
614.31,55.0
614.38,62.0
614.44,56.0
614.5,68.0
614.56,75.0
614.63,63.0
614.69,57.0
614.75,62.0
614.82,45.0
614.88,58.0
614.94,58.0
615.01,77.0
615.07,65.0
615.13,52.0
615.19,59.0
615.26,75.0
615.32,76.0
615.38,75.0
615.45,74.0
615.51,77.0
615.57,78.0
615.64,84.0
615.7,110.0
615.76,114.0
615.82,123.0
615.89,114.0
615.95,99.0
616.01,104.0
616.08,94.0
616.14,94.0
616.2,116.0
616.27,111.0
616.33,99.0
616.39,121.0
616.45,102.0
616.52,92.0
616.58,82.0
616.64,96.0
616.71,114.0
616.77,98.0
616.83,119.0
616.9,102.0
616.96,100.0
617.02,86.0
617.08,76.0
617.15,86.0
617.21,90.0
617.27,97.0
617.34,81.0
617.4,83.0
617.46,78.0
617.53,90.0
617.59,105.0
617.65,108.0
617.71,101.0
617.78,100.0
617.84,106.0
617.9,117.0
617.97,114.0
618.03,100.0
618.09,77.0
618.16,71.0
618.22,84.0
618.28,91.0
618.34,66.0
618.41,72.0
618.47,60.0
618.53,66.0
618.6,71.0
618.66,84.0
618.72,89.0
618.79,89.0
618.85,86.0
618.91,71.0
618.97,63.0
619.04,59.0
619.1,51.0
619.16,64.0
619.23,65.0
619.29,48.0
619.35,55.0
619.42,91.0
619.48,77.0
619.54,72.0
619.6,77.0
619.67,77.0
619.73,112.0
619.79,103.0
619.86,79.0
619.92,94.0
619.98,64.0
620.05,89.0
620.11,91.0
620.17,74.0
620.23,69.0
620.3,83.0
620.36,85.0
620.42,80.0
620.49,95.0
620.55,77.0
620.61,66.0
620.68,51.0
620.74,51.0
620.8,56.0
620.86,86.0
620.93,76.0
620.99,57.0
621.05,80.0
621.12,68.0
621.18,78.0
621.24,81.0
621.31,88.0
621.37,85.0
621.43,81.0
621.49,65.0
621.56,77.0
621.62,81.0
621.68,78.0
621.75,81.0
621.81,73.0
621.87,72.0
621.94,61.0
622.0,74.0
622.06,53.0
622.12,89.0
622.19,92.0
622.25,87.0
622.31,94.0
622.38,98.0
622.44,94.0
622.5,77.0
622.57,89.0
622.63,100.0
622.69,97.0
622.75,100.0
622.82,100.0
622.88,85.0
622.94,78.0
623.01,84.0
623.07,87.0
623.13,84.0
623.2,78.0
623.26,63.0
623.32,83.0
623.38,92.0
623.45,88.0
623.51,88.0
623.57,76.0
623.64,68.0
623.7,78.0
623.76,94.0
623.83,85.0
623.89,77.0
623.95,85.0
624.01,92.0
624.08,84.0
624.14,74.0
624.2,75.0
624.27,93.0
624.33,94.0
624.39,104.0
624.46,76.0
624.52,71.0
624.58,66.0
624.64,67.0
624.71,55.0
624.77,59.0
624.83,83.0
624.9,78.0
624.96,85.0
625.02,85.0
625.09,88.0
625.15,73.0
625.21,66.0
625.27,85.0
625.34,64.0
625.4,76.0
625.46,72.0
625.53,79.0
625.59,88.0
625.65,88.0
625.72,87.0
625.78,106.0
625.84,132.0
625.9,127.0
625.97,103.0
626.03,114.0
626.09,120.0
626.16,117.0
626.22,136.0
626.28,146.0
626.35,147.0
626.41,125.0
626.47,128.0
626.53,129.0
626.6,136.0
626.66,122.0
626.72,127.0
626.79,141.0
626.85,125.0
626.91,135.0
626.98,142.0
627.04,126.0
627.1,118.0
627.16,114.0
627.23,108.0
627.29,110.0
627.35,115.0
627.42,118.0
627.48,125.0
627.54,116.0
627.61,107.0
627.67,118.0
627.73,84.0
627.79,86.0
627.86,98.0
627.92,88.0
627.98,77.0
628.05,94.0
628.11,107.0
628.17,100.0
628.24,97.0
628.3,114.0
628.36,99.0
628.42,107.0
628.49,104.0
628.55,118.0
628.61,116.0
628.68,111.0
628.74,105.0
628.8,99.0
628.87,110.0
628.93,122.0
628.99,111.0
629.05,107.0
629.12,125.0
629.18,103.0
629.24,124.0
629.31,127.0
629.37,134.0
629.43,135.0
629.5,120.0
629.56,123.0
629.62,111.0
629.68,134.0
629.75,155.0
629.81,143.0
629.87,145.0
629.94,127.0
630.0,128.0
630.06,142.0
630.13,131.0
630.19,133.0
630.25,115.0
630.31,125.0
630.38,140.0
630.44,157.0
630.5,140.0
630.57,125.0
630.63,108.0
630.69,130.0
630.76,138.0
630.82,158.0
630.88,151.0
630.94,156.0
631.01,143.0
631.07,123.0
631.13,141.0
631.2,142.0
631.26,137.0
631.32,141.0
631.39,142.0
631.45,147.0
631.51,141.0
631.57,132.0
631.64,114.0
631.7,127.0
631.76,132.0
631.83,132.0
631.89,141.0
631.95,128.0
632.02,117.0
632.08,122.0
632.14,132.0
632.2,145.0
632.27,131.0
632.33,115.0
632.39,107.0
632.46,116.0
632.52,116.0
632.58,132.0
632.65,132.0
632.71,124.0
632.77,120.0
632.83,123.0
632.9,124.0
632.96,132.0
633.02,121.0
633.09,141.0
633.15,146.0
633.21,122.0
633.28,140.0
633.34,155.0
633.4,125.0
633.46,147.0
633.53,125.0
633.59,136.0
633.65,141.0
633.72,112.0
633.78,129.0
633.84,151.0
633.91,147.0
633.97,147.0
634.03,132.0
634.09,129.0
634.16,124.0
634.22,124.0
634.28,132.0
634.35,115.0
634.41,125.0
634.47,128.0
634.54,127.0
634.6,125.0
634.66,131.0
634.72,136.0
634.79,139.0
634.85,147.0
634.91,134.0
634.98,133.0
635.04,130.0
635.1,129.0
635.17,136.0
635.23,124.0
635.29,106.0
635.35,104.0
635.42,119.0
635.48,106.0
635.54,112.0
635.61,119.0
635.67,110.0
635.73,125.0
635.8,122.0
635.86,123.0
635.92,119.0
635.98,101.0
636.05,92.0
636.11,83.0
636.17,79.0
636.24,81.0
636.3,81.0
636.36,89.0
636.43,62.0
636.49,79.0
636.55,81.0
636.61,78.0
636.68,64.0
636.74,65.0
636.8,63.0
636.87,58.0
636.93,69.0
636.99,44.0
637.06,44.0
637.12,62.0
637.18,47.0
637.24,36.0
637.31,50.0
637.37,45.0
637.43,57.0
637.5,56.0
637.56,59.0
637.62,52.0
637.69,49.0
637.75,44.0
637.81,43.0
637.87,56.0
637.94,47.0
638.0,60.0
638.06,49.0
638.13,34.0
638.19,39.0
638.25,46.0
638.32,41.0
638.38,33.0
638.44,66.0
638.5,81.0
638.57,44.0
638.63,32.0
638.69,29.0
638.76,25.0
638.82,17.0
638.88,11.0
638.95,26.0
639.01,41.0
639.07,40.0
639.13,37.0
639.2,66.0
639.26,55.0
639.32,41.0
639.39,49.0
639.45,44.0
639.51,37.0
639.58,50.0
639.64,33.0
639.7,29.0
639.76,31.0
639.83,51.0
639.89,55.0
639.95,66.0
640.02,69.0
640.08,48.0
640.14,66.0
640.21,80.0
640.27,66.0
640.33,73.0
640.39,87.0
640.46,92.0
640.52,83.0
640.58,89.0
640.65,69.0
640.71,90.0
640.77,83.0
640.84,57.0
640.9,83.0
640.96,89.0
641.02,92.0
641.09,91.0
641.15,94.0
641.21,83.0
641.28,75.0
641.34,97.0
641.4,89.0
641.47,93.0
641.53,70.0
641.59,61.0
641.65,74.0
641.72,62.0
641.78,72.0
641.84,68.0
641.91,75.0
641.97,80.0
642.03,94.0
642.1,62.0
642.16,72.0
642.22,61.0
642.28,69.0
642.35,66.0
642.41,86.0
642.47,78.0
642.54,59.0
642.6,66.0
642.66,55.0
642.73,57.0
642.79,70.0
642.85,70.0
642.91,66.0
642.98,66.0
643.04,78.0
643.1,77.0
643.17,55.0
643.23,58.0
643.29,58.0
643.36,63.0
643.42,57.0
643.48,53.0
643.54,47.0
643.61,69.0
643.67,47.0
643.73,55.0
643.8,35.0
643.86,56.0
643.92,59.0
643.99,52.0
644.05,43.0
644.11,69.0
644.17,70.0
644.24,69.0
644.3,65.0
644.36,81.0
644.43,85.0
644.49,51.0
644.55,51.0
644.62,56.0
644.68,80.0
644.74,68.0
644.8,57.0
644.87,81.0
644.93,72.0
644.99,63.0
645.06,71.0
645.12,84.0
645.18,84.0
645.25,78.0
645.31,92.0
645.37,96.0
645.43,101.0
645.5,88.0
645.56,81.0
645.62,97.0
645.69,92.0
645.75,92.0
645.81,88.0
645.88,90.0
645.94,78.0
646.0,99.0
646.06,94.0
646.13,101.0
646.19,103.0
646.25,83.0
646.32,114.0
646.38,94.0
646.44,85.0
646.51,86.0
646.57,92.0
646.63,89.0
646.69,79.0
646.76,88.0
646.82,92.0
646.88,104.0
646.95,124.0
647.01,112.0
647.07,107.0
647.14,120.0
647.2,106.0
647.26,108.0
647.32,115.0
647.39,125.0
647.45,108.0
647.51,111.0
647.58,124.0
647.64,129.0
647.7,102.0
647.77,99.0
647.83,106.0
647.89,113.0
647.95,110.0
648.02,99.0
648.08,115.0
648.14,112.0
648.21,115.0
648.27,108.0
648.33,114.0
648.4,115.0
648.46,94.0
648.52,92.0
648.58,105.0
648.65,116.0
648.71,113.0
648.77,120.0
648.84,108.0
648.9,96.0
648.96,104.0
649.03,120.0
649.09,117.0
649.15,107.0
649.21,111.0
649.28,118.0
649.34,99.0
649.4,91.0
649.47,81.0
649.53,68.0
649.59,84.0
649.66,103.0
649.72,96.0
649.78,88.0
649.84,76.0
649.91,88.0
649.97,104.0
650.03,70.0
650.1,74.0
650.16,63.0
650.22,83.0
650.29,102.0
650.35,102.0
650.41,93.0
650.47,89.0
650.54,116.0
650.6,105.0
650.66,79.0
650.73,101.0
650.79,113.0
650.85,81.0
650.92,104.0
650.98,127.0
651.04,105.0
651.1,105.0
651.17,106.0
651.23,114.0
651.29,93.0
651.36,99.0
651.42,96.0
651.48,108.0
651.55,119.0
651.61,137.0
651.67,139.0
651.73,116.0
651.8,105.0
651.86,105.0
651.92,102.0
651.99,103.0
652.05,105.0
652.11,110.0
652.18,107.0
652.24,111.0
652.3,108.0
652.36,116.0
652.43,105.0
652.49,97.0
652.55,110.0
652.62,86.0
652.68,91.0
652.74,104.0
652.81,96.0
652.87,91.0
652.93,72.0
652.99,74.0
653.06,53.0
653.12,41.0
653.18,45.0
653.25,51.0
653.31,43.0
653.37,45.0
653.44,24.0
653.5,44.0
653.56,22.0
653.62,10.0
653.69,36.0
653.75,28.0
653.81,22.0
653.88,12.0
653.94,25.0
654.0,14.0
654.07,6.0
654.13,17.0
654.19,24.0
654.25,15.0
654.32,24.0
654.38,28.0
654.44,8.0
654.51,20.0
654.57,18.0
654.63,25.0
654.7,19.0
654.76,34.0
654.82,37.0
654.88,45.0
654.95,33.0
655.01,40.0
655.07,58.0
655.14,55.0
655.2,61.0
655.26,78.0
655.33,70.0
655.39,86.0
655.45,67.0
655.51,71.0
655.58,67.0
655.64,95.0
655.7,92.0
655.77,69.0
655.83,67.0
655.89,90.0
655.96,70.0
656.02,75.0
656.08,82.0
656.14,89.0
656.21,100.0
656.27,86.0
656.33,91.0
656.4,91.0
656.46,80.0
656.52,81.0
656.59,81.0
656.65,86.0
656.71,73.0
656.77,81.0
656.84,99.0
656.9,79.0
656.96,64.0
657.03,84.0
657.09,69.0
657.15,82.0
657.22,83.0
657.28,78.0
657.34,70.0
657.4,86.0
657.47,87.0
657.53,75.0
657.59,72.0
657.66,84.0
657.72,85.0
657.78,95.0
657.85,75.0
657.91,80.0
657.97,85.0
658.03,86.0
658.1,63.0
658.16,69.0
658.22,70.0
658.29,66.0
658.35,69.0
658.41,78.0
658.48,80.0
658.54,69.0
658.6,63.0
658.66,61.0
658.73,31.0
658.79,53.0
658.85,86.0
658.92,87.0
658.98,79.0
659.04,63.0
659.11,69.0
659.17,59.0
659.23,64.0
659.29,69.0
659.36,73.0
659.42,67.0
659.48,64.0
659.55,57.0
659.61,61.0
659.67,66.0
659.74,71.0
659.8,52.0
659.86,42.0
659.92,42.0
659.99,55.0
660.05,74.0
660.11,53.0
660.18,63.0
660.24,61.0
660.3,55.0
660.37,65.0
660.43,69.0
660.49,56.0
660.55,72.0
660.62,57.0
660.68,68.0
660.74,81.0
660.81,53.0
660.87,66.0
660.93,62.0
661.0,61.0
661.06,52.0
661.12,53.0
661.18,60.0
661.25,57.0
661.31,49.0
661.37,51.0
661.44,45.0
661.5,37.0
661.56,52.0
661.63,45.0
661.69,40.0
661.75,27.0
661.81,18.0
661.88,37.0
661.94,72.0
662.0,52.0
662.07,53.0
662.13,45.0
662.19,45.0
662.26,68.0
662.32,70.0
662.38,61.0
662.44,75.0
662.51,83.0
662.57,59.0
662.63,70.0
662.7,77.0
662.76,69.0
662.82,74.0
662.89,65.0
662.95,84.0
663.01,104.0
663.07,94.0
663.14,120.0
663.2,109.0
663.26,116.0
663.33,109.0
663.39,97.0
663.45,94.0
663.52,90.0
663.58,84.0
663.64,93.0
663.7,91.0
663.77,106.0
663.83,125.0
663.89,107.0
663.96,95.0
664.02,110.0
664.08,99.0
664.15,107.0
664.21,125.0
664.27,96.0
664.33,97.0
664.4,123.0
664.46,121.0
664.52,118.0
664.59,109.0
664.65,106.0
664.71,101.0
664.78,108.0
664.84,98.0
664.9,105.0
664.96,98.0
665.03,104.0
665.09,93.0
665.15,86.0
665.22,88.0
665.28,80.0
665.34,85.0
665.41,113.0
665.47,100.0
665.53,99.0
665.59,110.0
665.66,107.0
665.72,97.0
665.78,77.0
665.85,81.0
665.91,95.0
665.97,96.0
666.04,100.0
666.1,92.0
666.16,95.0
666.22,103.0
666.29,107.0
666.35,106.0
666.41,111.0
666.48,118.0
666.54,113.0
666.6,114.0
666.67,115.0
666.73,112.0
666.79,126.0
666.85,121.0
666.92,118.0
666.98,108.0
667.04,111.0
667.11,110.0
667.17,97.0
667.23,107.0
667.3,127.0
667.36,119.0
667.42,116.0
667.48,110.0
667.55,114.0
667.61,121.0
667.67,118.0
667.74,153.0
667.8,143.0
667.86,102.0
667.93,121.0
667.99,132.0
668.05,113.0
668.11,104.0
668.18,138.0
668.24,131.0
668.3,124.0
668.37,105.0
668.43,100.0
668.49,105.0
668.56,88.0
668.62,109.0
668.68,111.0
668.74,106.0
668.81,95.0
668.87,93.0
668.93,93.0
669.0,90.0
669.06,93.0
669.12,82.0
669.19,88.0
669.25,93.0
669.31,76.0
669.37,76.0
669.44,91.0
669.5,89.0
669.56,94.0
669.63,70.0
669.69,85.0
669.75,88.0
669.82,101.0
669.88,98.0
669.94,77.0
670.0,67.0
670.07,75.0
670.13,63.0
670.19,66.0
670.26,66.0
670.32,64.0
670.38,65.0
670.45,73.0
670.51,71.0
670.57,83.0
670.63,83.0
670.7,77.0
670.76,51.0
670.82,55.0
670.89,51.0
670.95,47.0
671.01,62.0
671.08,37.0
671.14,38.0
671.2,36.0
671.26,43.0
671.33,47.0
671.39,54.0
671.45,45.0
671.52,47.0
671.58,44.0
671.64,55.0
671.71,66.0
671.77,72.0
671.83,68.0
671.89,59.0
671.96,63.0
672.02,61.0
672.08,41.0
672.15,41.0
672.21,42.0
672.27,40.0
672.34,35.0
672.4,30.0
672.46,15.0
672.52,32.0
672.59,32.0
672.65,41.0
672.71,35.0
672.78,38.0
672.84,34.0
672.9,36.0
672.97,23.0
673.03,27.0
673.09,22.0
673.15,3.0
673.22,-1.0
673.28,15.0
673.34,31.0
673.41,37.0
673.47,61.0
673.53,66.0
673.6,67.0
673.66,78.0
673.72,74.0
673.78,66.0
673.85,70.0
673.91,97.0
673.97,101.0
674.04,106.0
674.1,90.0
674.16,102.0
674.23,94.0
674.29,109.0
674.35,119.0
674.41,102.0
674.48,101.0
674.54,82.0
674.6,95.0
674.67,89.0
674.73,114.0
674.79,89.0
674.86,97.0
674.92,108.0
674.98,91.0
675.04,83.0
675.11,77.0
675.17,93.0
675.23,65.0
675.3,56.0
675.36,75.0
675.42,79.0
675.49,60.0
675.55,67.0
675.61,59.0
675.67,59.0
675.74,56.0
675.8,52.0
675.86,67.0
675.93,59.0
675.99,69.0
676.05,55.0
676.12,56.0
676.18,47.0
676.24,39.0
676.3,56.0
676.37,49.0
676.43,63.0
676.49,77.0
676.56,77.0
676.62,71.0
676.68,71.0
676.75,73.0
676.81,72.0
676.87,73.0
676.93,77.0
677.0,55.0
677.06,57.0
677.12,51.0
677.19,47.0
677.25,40.0
677.31,40.0
677.38,26.0
677.44,47.0
677.5,48.0
677.56,43.0
677.63,40.0
677.69,69.0
677.75,76.0
677.82,63.0
677.88,66.0
677.94,67.0
678.01,48.0
678.07,70.0
678.13,47.0
678.19,62.0
678.26,51.0
678.32,43.0
678.38,47.0
678.45,65.0
678.51,61.0
678.57,64.0
678.64,56.0
678.7,65.0
678.76,59.0
678.82,74.0
678.89,73.0
678.95,59.0
679.01,71.0
679.08,77.0
679.14,62.0
679.2,62.0
679.27,87.0
679.33,85.0
679.39,87.0
679.45,88.0
679.52,102.0
679.58,95.0
679.64,92.0
679.71,87.0
679.77,91.0
679.83,109.0
679.9,116.0
679.96,118.0
680.02,111.0
680.08,113.0
680.15,118.0
680.21,138.0
680.27,106.0
680.34,102.0
680.4,113.0
680.46,132.0
680.53,128.0
680.59,128.0
680.65,108.0
680.71,87.0
680.78,105.0
680.84,114.0
680.9,105.0
680.97,102.0
681.03,110.0
681.09,103.0
681.16,125.0
681.22,107.0
681.28,128.0
681.34,116.0
681.41,102.0
681.47,97.0
681.53,106.0
681.6,127.0
681.66,101.0
681.72,98.0
681.79,103.0
681.85,105.0
681.91,112.0
681.97,109.0
682.04,116.0
682.1,133.0
682.16,141.0
682.23,128.0
682.29,132.0
682.35,130.0
682.42,117.0
682.48,106.0
682.54,126.0
682.6,125.0
682.67,122.0
682.73,130.0
682.79,142.0
682.86,144.0
682.92,151.0
682.98,154.0
683.05,141.0
683.11,130.0
683.17,138.0
683.23,144.0
683.3,123.0
683.36,138.0
683.42,136.0
683.49,126.0
683.55,130.0
683.61,113.0
683.68,119.0
683.74,119.0
683.8,123.0
683.86,118.0
683.93,123.0
683.99,125.0
684.05,96.0
684.12,110.0
684.18,116.0
684.24,116.0
684.31,110.0
684.37,106.0
684.43,110.0
684.49,99.0
684.56,99.0
684.62,98.0
684.68,98.0
684.75,105.0
684.81,114.0
684.87,105.0
684.94,98.0
685.0,110.0
685.06,102.0
685.12,88.0
685.19,78.0
685.25,84.0
685.31,102.0
685.38,103.0
685.44,94.0
685.5,89.0
685.57,117.0
685.63,106.0
685.69,114.0
685.75,120.0
685.82,103.0
685.88,98.0
685.94,95.0
686.01,105.0
686.07,88.0
686.13,86.0
686.2,59.0
686.26,81.0
686.32,85.0
686.38,66.0
686.45,68.0
686.51,67.0
686.57,64.0
686.64,71.0
686.7,65.0
686.76,71.0
686.83,86.0
686.89,84.0
686.95,90.0
687.01,73.0
687.08,54.0
687.14,75.0
687.2,73.0
687.27,61.0
687.33,43.0
687.39,50.0
687.46,58.0
687.52,56.0
687.58,48.0
687.64,47.0
687.71,50.0
687.77,51.0
687.83,49.0
687.9,61.0
687.96,66.0
688.02,36.0
688.09,39.0
688.15,34.0
688.21,41.0
688.27,26.0
688.34,38.0
688.4,36.0
688.46,39.0
688.53,35.0
688.59,24.0
688.65,51.0
688.72,56.0
688.78,40.0
688.84,64.0
688.9,56.0
688.97,75.0
689.03,54.0
689.09,34.0
689.16,56.0
689.22,33.0
689.28,43.0
689.35,63.0
689.41,37.0
689.47,51.0
689.53,51.0
689.6,39.0
689.66,46.0
689.72,64.0
689.79,65.0
689.85,60.0
689.91,41.0
689.98,52.0
690.04,58.0
690.1,70.0
690.16,77.0
690.23,77.0
690.29,78.0
690.35,71.0
690.42,86.0
690.48,69.0
690.54,82.0
690.61,72.0
690.67,57.0
690.73,58.0
690.79,53.0
690.86,50.0
690.92,55.0
690.98,56.0
691.05,42.0
691.11,39.0
691.17,32.0
691.24,43.0
691.3,67.0
691.36,64.0
691.42,32.0
691.49,25.0
691.55,28.0
691.61,29.0
691.68,11.0
691.74,11.0
691.8,27.0
691.87,20.0
691.93,33.0
691.99,25.0
692.05,29.0
692.12,38.0
692.18,20.0
692.24,20.0
692.31,24.0
692.37,30.0
692.43,39.0
692.5,40.0
692.56,43.0
692.62,46.0
692.68,53.0
692.75,38.0
692.81,27.0
692.87,54.0
692.94,35.0
693.0,34.0
693.06,31.0
693.13,20.0
693.19,58.0
693.25,61.0
693.31,46.0
693.38,70.0
693.44,53.0
693.5,58.0
693.57,45.0
693.63,43.0
693.69,70.0
693.76,55.0
693.82,47.0
693.88,51.0
693.94,20.0
694.01,39.0
694.07,64.0
694.13,58.0
694.2,42.0
694.26,64.0
694.32,58.0
694.39,56.0
694.45,58.0
694.51,50.0
694.57,51.0
694.64,53.0
694.7,51.0
694.76,39.0
694.83,53.0
694.89,64.0
694.95,65.0
695.02,85.0
695.08,69.0
695.14,71.0
695.2,70.0
695.27,66.0
695.33,62.0
695.39,76.0
695.46,76.0
695.52,73.0
695.58,89.0
695.65,73.0
695.71,87.0
695.77,87.0
695.83,66.0
695.9,83.0
695.96,73.0
696.02,80.0
696.09,102.0
696.15,87.0
696.21,70.0
696.28,61.0
696.34,89.0
696.4,82.0
696.46,80.0
696.53,90.0
696.59,80.0
696.65,107.0
696.72,108.0
696.78,91.0
696.84,83.0
696.91,91.0
696.97,111.0
697.03,105.0
697.09,96.0
697.16,97.0
697.22,89.0
697.28,86.0
697.35,96.0
697.41,98.0
697.47,79.0
697.54,82.0
697.6,95.0
697.66,84.0
697.72,96.0
697.79,93.0
697.85,93.0
697.91,88.0
697.98,107.0
698.04,96.0
698.1,97.0
698.17,115.0
698.23,111.0
698.29,99.0
698.35,92.0
698.42,113.0
698.48,104.0
698.54,93.0
698.61,109.0
698.67,112.0
698.73,112.0
698.8,105.0
698.86,107.0
698.92,119.0
698.98,115.0
699.05,104.0
699.11,110.0
699.17,106.0
699.24,113.0
699.3,102.0
699.36,110.0
699.43,108.0
699.49,105.0
699.55,116.0
699.61,120.0
699.68,128.0
699.74,118.0
699.8,121.0
699.87,114.0
699.93,124.0
699.99,117.0
700.06,124.0
700.12,114.0
700.18,95.0
700.24,97.0
700.31,117.0
700.37,90.0
700.43,108.0
700.5,105.0
700.56,105.0
700.62,95.0
700.69,96.0
700.75,111.0
700.81,138.0
700.87,128.0
700.94,120.0
701.0,120.0
701.06,115.0
701.13,110.0
701.19,135.0
701.25,151.0
701.32,136.0
701.38,137.0
701.44,124.0
701.5,113.0
701.57,117.0
701.63,136.0
701.69,129.0
701.76,116.0
701.82,135.0
701.88,117.0
701.95,103.0
702.01,117.0
702.07,121.0
702.13,99.0
702.2,122.0
702.26,113.0
702.32,117.0
702.39,124.0
702.45,109.0
702.51,99.0
702.58,103.0
702.64,93.0
702.7,111.0
702.76,80.0
702.83,100.0
702.89,98.0
702.95,91.0
703.02,103.0
703.08,98.0
703.14,93.0
703.21,97.0
703.27,81.0
703.33,88.0
703.39,84.0
703.46,92.0
703.52,95.0
703.58,76.0
703.65,79.0
703.71,67.0
703.77,88.0
703.84,100.0
703.9,83.0
703.96,85.0
704.02,71.0
704.09,90.0
704.15,69.0
704.21,84.0
704.28,84.0
704.34,90.0
704.4,78.0
704.47,72.0
704.53,71.0
704.59,66.0
704.65,67.0
704.72,56.0
704.78,55.0
704.84,56.0
704.91,45.0
704.97,58.0
705.03,69.0
705.1,67.0
705.16,70.0
705.22,66.0
705.28,63.0
705.35,83.0
705.41,77.0
705.47,74.0
705.54,78.0
705.6,76.0
705.66,60.0
705.73,67.0
705.79,64.0
705.85,68.0
705.91,75.0
705.98,98.0
706.04,91.0
706.1,56.0
706.17,68.0
706.23,83.0
706.29,83.0
706.36,75.0
706.42,69.0
706.48,52.0
706.54,47.0
706.61,66.0
706.67,69.0
706.73,65.0
706.8,66.0
706.86,84.0
706.92,91.0
706.99,90.0
707.05,74.0
707.11,62.0
707.17,91.0
707.24,73.0
707.3,62.0
707.36,84.0
707.43,91.0
707.49,89.0
707.55,86.0
707.62,87.0
707.68,95.0
707.74,97.0
707.8,101.0
707.87,85.0
707.93,96.0
707.99,109.0
708.06,106.0
708.12,98.0
708.18,88.0
708.25,112.0
708.31,113.0
708.37,102.0
708.43,91.0
708.5,83.0
708.56,102.0
708.62,100.0
708.69,92.0
708.75,70.0
708.81,59.0
708.88,58.0
708.94,72.0
709.0,94.0
709.06,80.0
709.13,68.0
709.19,65.0
709.25,61.0
709.32,55.0
709.38,43.0
709.44,24.0
709.51,33.0
709.57,47.0
709.63,54.0
709.69,25.0
709.76,20.0
709.82,1.0
709.88,23.0
709.95,2.0
710.01,5.0
710.07,18.0
710.14,30.0
710.2,30.0
710.26,11.0
710.32,25.0
710.39,32.0
710.45,-1.0
710.51,3.0
710.58,21.0
710.64,-9.0
710.7,1.0
710.77,16.0
710.83,10.0
710.89,-3.0
710.95,14.0
711.02,37.0
711.08,27.0
711.14,21.0
711.21,29.0
711.27,34.0
711.33,21.0
711.4,16.0
711.46,51.0
711.52,46.0
711.58,43.0
711.65,34.0
711.71,24.0
711.77,26.0
711.84,30.0
711.9,31.0
711.96,22.0
712.03,19.0
712.09,34.0
712.15,16.0
712.21,5.0
712.28,26.0
712.34,30.0
712.4,18.0
712.47,40.0
712.53,29.0
712.59,43.0
712.66,46.0
712.72,46.0
712.78,34.0
712.84,37.0
712.91,24.0
712.97,34.0
713.03,49.0
713.1,51.0
713.16,37.0
713.22,35.0
713.29,20.0
713.35,29.0
713.41,47.0
713.47,25.0
713.54,13.0
713.6,35.0
713.66,42.0
713.73,11.0
713.79,0.0
713.85,27.0
713.92,11.0
713.98,30.0
714.04,23.0
714.1,45.0
714.17,16.0
714.23,6.0
714.29,27.0
714.36,13.0
714.42,9.0
714.48,18.0
714.55,18.0
714.61,21.0
714.67,19.0
714.73,32.0
714.8,5.0
714.86,7.0
714.92,13.0
714.99,10.0
715.05,24.0
715.11,42.0
715.18,46.0
715.24,49.0
715.3,49.0
715.36,55.0
715.43,32.0
715.49,34.0
715.55,48.0
715.62,31.0
715.68,35.0
715.74,29.0
715.81,26.0
715.87,37.0
715.93,36.0
715.99,39.0
716.06,37.0
716.12,41.0
716.18,55.0
716.25,38.0
716.31,59.0
716.37,76.0
716.44,44.0
716.5,57.0
716.56,75.0
716.62,58.0
716.69,58.0
716.75,79.0
716.81,83.0
716.88,69.0
716.94,63.0
717.0,75.0
717.07,60.0
717.13,67.0
717.19,76.0
717.25,87.0
717.32,95.0
717.38,95.0
717.44,82.0
717.51,103.0
717.57,85.0
717.63,91.0
717.7,94.0
717.76,83.0
717.82,92.0
717.88,95.0
717.95,98.0
718.01,98.0
718.07,101.0
718.14,98.0
718.2,78.0
718.26,93.0
718.33,91.0
718.39,101.0
718.45,103.0
718.51,89.0
718.58,79.0
718.64,79.0
718.7,92.0
718.77,111.0
718.83,85.0
718.89,38.0
718.96,65.0
719.02,61.0
719.08,60.0
719.14,77.0
719.21,70.0
719.27,79.0
719.33,71.0
719.4,74.0
719.46,78.0
719.52,90.0
719.59,97.0
719.65,93.0
719.71,89.0
719.77,65.0
719.84,81.0
719.9,104.0
719.96,89.0
720.03,71.0
720.09,93.0
720.15,74.0
720.22,71.0
720.28,72.0
720.34,62.0
720.4,84.0
720.47,70.0
720.53,72.0
720.59,71.0
720.66,79.0
720.72,62.0
720.78,84.0
720.85,61.0
720.91,62.0
720.97,48.0
721.03,32.0
721.1,56.0
721.16,53.0
721.22,59.0
721.29,37.0
721.35,55.0
721.41,29.0
721.48,35.0
721.54,39.0
721.6,51.0
721.66,34.0
721.73,43.0
721.79,59.0
721.85,49.0
721.92,67.0
721.98,21.0
722.04,14.0
722.11,45.0
722.17,43.0
722.23,41.0
722.29,33.0
722.36,54.0
722.42,59.0
722.48,28.0
722.55,39.0
722.61,32.0
722.67,31.0
722.74,38.0
722.8,40.0
722.86,45.0
722.92,71.0
722.99,60.0
723.05,72.0
723.11,72.0
723.18,78.0
723.24,97.0
723.3,99.0
723.37,105.0
723.43,79.0
723.49,67.0
723.55,85.0
723.62,71.0
723.68,69.0
723.74,81.0
723.81,82.0
723.87,65.0
723.93,87.0
724.0,71.0
724.06,61.0
724.12,68.0
724.18,62.0
724.25,71.0
724.31,60.0
724.37,76.0
724.44,75.0
724.5,63.0
724.56,86.0
724.63,70.0
724.69,62.0
724.75,69.0
724.81,95.0
724.88,85.0
724.94,89.0
725.0,100.0
725.07,72.0
725.13,73.0
725.19,71.0
725.26,81.0
725.32,95.0
725.38,90.0
725.44,81.0
725.51,52.0
725.57,76.0
725.63,69.0
725.7,67.0
725.76,85.0
725.82,85.0
725.89,78.0
725.95,70.0
726.01,53.0
726.07,46.0
726.14,54.0
726.2,53.0
726.26,50.0
726.33,64.0
726.39,66.0
726.45,54.0
726.52,68.0
726.58,75.0
726.64,52.0
726.7,52.0
726.77,70.0
726.83,67.0
726.89,68.0
726.96,47.0
727.02,64.0
727.08,54.0
727.15,52.0
727.21,57.0
727.27,59.0
727.33,71.0
727.4,56.0
727.46,54.0
727.52,76.0
727.59,83.0
727.65,42.0
727.71,54.0
727.78,78.0
727.84,74.0
727.9,76.0
727.96,62.0
728.03,66.0
728.09,81.0
728.15,79.0
728.22,83.0
728.28,84.0
728.34,81.0
728.41,83.0
728.47,75.0
728.53,53.0
728.59,73.0
728.66,78.0
728.72,90.0
728.78,64.0
728.85,61.0
728.91,62.0
728.97,84.0
729.04,73.0
729.1,69.0
729.16,58.0
729.22,64.0
729.29,80.0
729.35,73.0
729.41,95.0
729.48,92.0
729.54,94.0
729.6,116.0
729.67,110.0
729.73,118.0
729.79,114.0
729.85,127.0
729.92,125.0
729.98,109.0
730.04,106.0
730.11,108.0
730.17,94.0
730.23,82.0
730.3,90.0
730.36,91.0
730.42,104.0
730.48,101.0
730.55,109.0
730.61,111.0
730.67,97.0
730.74,117.0
730.8,100.0
730.86,93.0
730.93,111.0
730.99,104.0
731.05,97.0
731.11,90.0
731.18,95.0
731.24,85.0
731.3,93.0
731.37,116.0
731.43,114.0
731.49,106.0
731.56,108.0
731.62,104.0
731.68,104.0
731.74,101.0
731.81,103.0
731.87,108.0
731.93,117.0
732.0,122.0
732.06,113.0
732.12,125.0
732.19,117.0
732.25,111.0
732.31,132.0
732.37,135.0
732.44,126.0
732.5,133.0
732.56,131.0
732.63,148.0
732.69,168.0
732.75,158.0
732.82,152.0
732.88,142.0
732.94,133.0
733.0,145.0
733.07,149.0
733.13,133.0
733.19,137.0
733.26,147.0
733.32,156.0
733.38,171.0
733.45,155.0
733.51,147.0
733.57,145.0
733.63,137.0
733.7,133.0
733.76,134.0
733.82,146.0
733.89,142.0
733.95,147.0
734.01,135.0
734.08,141.0
734.14,147.0
734.2,141.0
734.26,144.0
734.33,137.0
734.39,139.0
734.45,125.0
734.52,121.0
734.58,129.0
734.64,145.0
734.71,137.0
734.77,137.0
734.83,126.0
734.89,128.0
734.96,109.0
735.02,123.0
735.08,113.0
735.15,121.0
735.21,136.0
735.27,128.0
735.34,115.0
735.4,132.0
735.46,122.0
735.52,124.0
735.59,116.0
735.65,118.0
735.71,119.0
735.78,108.0
735.84,106.0
735.9,110.0
735.97,113.0
736.03,104.0
736.09,89.0
736.15,93.0
736.22,72.0
736.28,86.0
736.34,90.0
736.41,87.0
736.47,64.0
736.53,62.0
736.6,69.0
736.66,68.0
736.72,77.0
736.78,62.0
736.85,62.0
736.91,82.0
736.97,67.0
737.04,81.0
737.1,84.0
737.16,63.0
737.23,99.0
737.29,82.0
737.35,62.0
737.41,56.0
737.48,55.0
737.54,72.0
737.6,50.0
737.67,66.0
737.73,63.0
737.79,67.0
737.86,67.0
737.92,62.0
737.98,63.0
738.04,85.0
738.11,75.0
738.17,80.0
738.23,66.0
738.3,41.0
738.36,60.0
738.42,60.0
738.49,69.0
738.55,82.0
738.61,85.0
738.67,89.0
738.74,82.0
738.8,66.0
738.86,59.0
738.93,74.0
738.99,52.0
739.05,72.0
739.12,77.0
739.18,72.0
739.24,79.0
739.3,82.0
739.37,67.0
739.43,56.0
739.49,67.0
739.56,65.0
739.62,85.0
739.68,77.0
739.75,65.0
739.81,59.0
739.87,68.0
739.93,71.0
740.0,70.0
740.06,71.0
740.12,60.0
740.19,58.0
740.25,66.0
740.31,67.0
740.38,56.0
740.44,82.0
740.5,74.0
740.56,89.0
740.63,105.0
740.69,100.0
740.75,120.0
740.82,116.0
740.88,96.0
740.94,121.0
741.01,105.0
741.07,81.0
741.13,133.0
741.19,105.0
741.26,86.0
741.32,99.0
741.38,96.0
741.45,104.0
741.51,95.0
741.57,94.0
741.64,101.0
741.7,99.0
741.76,117.0
741.82,118.0
741.89,117.0
741.95,117.0
742.01,89.0
742.08,122.0
742.14,90.0
742.2,79.0
742.27,92.0
742.33,97.0
742.39,100.0
742.45,100.0
742.52,85.0
742.58,93.0
742.64,86.0
742.71,78.0
742.77,88.0
742.83,115.0
742.9,92.0
742.96,94.0
743.02,92.0
743.08,89.0
743.15,92.0
743.21,104.0
743.27,96.0
743.34,98.0
743.4,116.0
743.46,95.0
743.53,90.0
743.59,100.0
743.65,98.0
743.71,86.0
743.78,87.0
743.84,74.0
743.9,75.0
743.97,91.0
744.03,94.0
744.09,86.0
744.16,74.0
744.22,73.0
744.28,64.0
744.34,64.0
744.41,72.0
744.47,73.0
744.53,89.0
744.6,93.0
744.66,89.0
744.72,91.0
744.79,60.0
744.85,70.0
744.91,74.0
744.97,65.0
745.04,81.0
745.1,98.0
745.16,87.0
745.23,78.0
745.29,85.0
745.35,67.0
745.42,71.0
745.48,57.0
745.54,61.0
745.6,71.0
745.67,78.0
745.73,76.0
745.79,84.0
745.86,82.0
745.92,82.0
745.98,94.0
746.05,90.0
746.11,93.0
746.17,73.0
746.23,57.0
746.3,77.0
746.36,70.0
746.42,76.0
746.49,55.0
746.55,61.0
746.61,77.0
746.68,67.0
746.74,84.0
746.8,91.0
746.86,93.0
746.93,92.0
746.99,104.0
747.05,95.0
747.12,90.0
747.18,100.0
747.24,89.0
747.31,82.0
747.37,71.0
747.43,60.0
747.49,72.0
747.56,68.0
747.62,67.0
747.68,65.0
747.75,66.0
747.81,75.0
747.87,76.0
747.94,63.0
748.0,62.0
748.06,70.0
748.12,88.0
748.19,102.0
748.25,98.0
748.31,96.0
748.38,89.0
748.44,81.0
748.5,85.0
748.57,97.0
748.63,111.0
748.69,100.0
748.75,100.0
748.82,109.0
748.88,97.0
748.94,99.0
749.01,76.0
749.07,94.0
749.13,103.0
749.2,99.0
749.26,73.0
749.32,87.0
749.38,75.0
749.45,80.0
749.51,89.0
749.57,89.0
749.64,101.0
749.7,103.0
749.76,94.0
749.83,85.0
749.89,74.0
749.95,96.0
750.01,83.0
750.08,96.0
750.14,115.0
750.2,97.0
750.27,94.0
750.33,97.0
750.39,91.0
750.46,89.0
750.52,97.0
750.58,94.0
750.64,92.0
750.71,90.0
750.77,89.0
750.83,80.0
750.9,87.0
750.96,87.0
751.02,83.0
751.09,82.0
751.15,82.0
751.21,109.0
751.27,98.0
751.34,118.0
751.4,105.0
751.46,93.0
751.53,126.0
751.59,121.0
751.65,111.0
751.72,110.0
751.78,112.0
751.84,89.0
751.9,91.0
751.97,98.0
752.03,81.0
752.09,106.0
752.16,110.0
752.22,121.0
752.28,96.0
752.35,108.0
752.41,116.0
752.47,99.0
752.53,120.0
752.6,121.0
752.66,120.0
752.72,126.0
752.79,122.0
752.85,116.0
752.91,129.0
752.98,126.0
753.04,95.0
753.1,104.0
753.16,104.0
753.23,107.0
753.29,99.0
753.35,85.0
753.42,103.0
753.48,99.0
753.54,89.0
753.61,68.0
753.67,90.0
753.73,92.0
753.79,67.0
753.86,79.0
753.92,75.0
753.98,87.0
754.05,78.0
754.11,76.0
754.17,76.0
754.24,83.0
754.3,70.0
754.36,46.0
754.42,62.0
754.49,80.0
754.55,56.0
754.61,67.0
754.68,68.0
754.74,53.0
754.8,57.0
754.87,38.0
754.93,62.0
754.99,73.0
755.05,63.0
755.12,38.0
755.18,36.0
755.24,47.0
755.31,43.0
755.37,61.0
755.43,56.0
755.5,59.0
755.56,43.0
755.62,40.0
755.68,67.0
755.75,58.0
755.81,64.0
755.87,54.0
755.94,61.0
756.0,70.0
756.06,58.0
756.13,62.0
756.19,77.0
756.25,86.0
756.31,74.0
756.38,68.0
756.44,44.0
756.5,70.0
756.57,57.0
756.63,51.0
756.69,52.0
756.76,79.0
756.82,71.0
756.88,60.0
756.94,67.0
757.01,71.0
757.07,74.0
757.13,71.0
757.2,60.0
757.26,74.0
757.32,71.0
757.39,66.0
757.45,78.0
757.51,75.0
757.57,104.0
757.64,73.0
757.7,79.0
757.76,95.0
757.83,76.0
757.89,70.0
757.95,73.0
758.02,67.0
758.08,51.0
758.14,66.0
758.2,62.0
758.27,59.0
758.33,68.0
758.39,61.0
758.46,55.0
758.52,49.0
758.58,62.0
758.65,50.0
758.71,76.0
758.77,67.0
758.83,76.0
758.9,71.0
758.96,59.0
759.02,70.0
759.09,48.0
759.15,60.0
759.21,70.0
759.28,43.0
759.34,35.0
759.4,46.0
759.46,62.0
759.53,79.0
759.59,56.0
759.65,79.0
759.72,97.0
759.78,79.0
759.84,71.0
759.91,60.0
759.97,65.0
760.03,76.0
760.09,84.0
760.16,65.0
760.22,54.0
760.28,66.0
760.35,70.0
760.41,70.0
760.47,57.0
760.54,58.0
760.6,71.0
760.66,53.0
760.72,38.0
760.79,41.0
760.85,51.0
760.91,46.0
760.98,61.0
761.04,65.0
761.1,41.0
761.17,42.0
761.23,60.0
761.29,56.0
761.35,57.0
761.42,65.0
761.48,47.0
761.54,62.0
761.61,52.0
761.67,57.0
761.73,34.0
761.8,50.0
761.86,38.0
761.92,52.0
761.98,51.0
762.05,62.0
762.11,70.0
762.17,51.0
762.24,38.0
762.3,37.0
762.36,32.0
762.43,49.0
762.49,38.0
762.55,44.0
762.61,73.0
762.68,47.0
762.74,66.0
762.8,67.0
762.87,74.0
762.93,72.0
762.99,73.0
763.06,74.0
763.12,86.0
763.18,71.0
763.24,71.0
763.31,86.0
763.37,65.0
763.43,79.0
763.5,91.0
763.56,89.0
763.62,87.0
763.69,93.0
763.75,92.0
763.81,84.0
763.87,95.0
763.94,92.0
764.0,89.0
764.06,97.0
764.13,90.0
764.19,71.0
764.25,73.0
764.32,68.0
764.38,85.0
764.44,84.0
764.5,76.0
764.57,81.0
764.63,82.0
764.69,108.0
764.76,96.0
764.82,114.0
764.88,116.0
764.95,95.0
765.01,125.0
765.07,113.0
765.13,111.0
765.2,102.0
765.26,104.0
765.32,86.0
765.39,100.0
765.45,93.0
765.51,96.0
765.58,107.0
765.64,103.0
765.7,79.0
765.76,86.0
765.83,108.0
765.89,114.0
765.95,122.0
766.02,100.0
766.08,87.0
766.14,100.0
766.21,120.0
766.27,116.0
766.33,107.0
766.39,109.0
766.46,124.0
766.52,114.0
766.58,112.0
766.65,92.0
766.71,85.0
766.77,121.0
766.84,109.0
766.9,89.0
766.96,98.0
767.02,103.0
767.09,115.0
767.15,108.0
767.21,109.0
767.28,142.0
767.34,133.0
767.4,110.0
767.47,100.0
767.53,111.0
767.59,121.0
767.65,122.0
767.72,112.0
767.78,119.0
767.84,119.0
767.91,119.0
767.97,106.0
768.03,114.0
768.1,106.0
768.16,108.0
768.22,125.0
768.28,121.0
768.35,109.0
768.41,122.0
768.47,124.0
768.54,122.0
768.6,137.0
768.66,118.0
768.73,128.0
768.79,130.0
768.85,145.0
768.91,137.0
768.98,139.0
769.04,139.0
769.1,123.0
769.17,120.0
769.23,120.0
769.29,128.0
769.36,133.0
769.42,142.0
769.48,122.0
769.54,126.0
769.61,137.0
769.67,133.0
769.73,118.0
769.8,125.0
769.86,117.0
769.92,120.0
769.99,96.0
770.05,100.0
770.11,103.0
770.17,102.0
770.24,114.0
770.3,122.0
770.36,108.0
770.43,95.0
770.49,100.0
770.55,89.0
770.62,89.0
770.68,101.0
770.74,96.0
770.8,100.0
770.87,93.0
770.93,80.0
770.99,101.0
771.06,98.0
771.12,100.0
771.18,104.0
771.25,107.0
771.31,112.0
771.37,107.0
771.43,87.0
771.5,88.0
771.56,82.0
771.62,82.0
771.69,77.0
771.75,78.0
771.81,62.0
771.88,60.0
771.94,85.0
772.0,74.0
772.06,71.0
772.13,70.0
772.19,73.0
772.25,67.0
772.32,62.0
772.38,60.0
772.44,61.0
772.51,68.0
772.57,77.0
772.63,55.0
772.69,57.0
772.76,74.0
772.82,67.0
772.88,70.0
772.95,66.0
773.01,60.0
773.07,59.0
773.14,53.0
773.2,47.0
773.26,49.0
773.32,24.0
773.39,34.0
773.45,60.0
773.51,56.0
773.58,62.0
773.64,68.0
773.7,70.0
773.77,73.0
773.83,62.0
773.89,65.0
773.95,68.0
774.02,78.0
774.08,77.0
774.14,71.0
774.21,70.0
774.27,66.0
774.33,80.0
774.4,57.0
774.46,67.0
774.52,82.0
774.58,73.0
774.65,83.0
774.71,64.0
774.77,84.0
774.84,84.0
774.9,67.0
774.96,67.0
775.03,56.0
775.09,60.0
775.15,64.0
775.21,54.0
775.28,47.0
775.34,46.0
775.4,49.0
775.47,49.0
775.53,42.0
775.59,42.0
775.66,53.0
775.72,46.0
775.78,58.0
775.84,74.0
775.91,61.0
775.97,76.0
776.03,60.0
776.1,58.0
776.16,47.0
776.22,49.0
776.29,31.0
776.35,39.0
776.41,23.0
776.47,16.0
776.54,31.0
776.6,49.0
776.66,70.0
776.73,81.0
776.79,68.0
776.85,65.0
776.92,59.0
776.98,90.0
777.04,80.0
777.1,67.0
777.17,63.0
777.23,66.0
777.29,73.0
777.36,75.0
777.42,56.0
777.48,58.0
777.55,56.0
777.61,77.0
777.67,74.0
777.73,55.0
777.8,65.0
777.86,67.0
777.92,62.0
777.99,82.0
778.05,74.0
778.11,78.0
778.18,61.0
778.24,82.0
778.3,73.0
778.36,82.0
778.43,79.0
778.49,73.0
778.55,76.0
778.62,87.0
778.68,82.0
778.74,99.0
778.81,92.0
778.87,61.0
778.93,73.0
778.99,72.0
779.06,86.0
779.12,91.0
779.18,74.0
779.25,79.0
779.31,55.0
779.37,54.0
779.44,78.0
779.5,64.0
779.56,74.0
779.62,80.0
779.69,88.0
779.75,64.0
779.81,67.0
779.88,70.0
779.94,69.0
780.0,74.0
780.07,80.0
780.13,86.0
780.19,92.0
780.25,92.0
780.32,109.0
780.38,84.0
780.44,86.0
780.51,89.0
780.57,89.0
780.63,100.0
780.7,85.0
780.76,100.0
780.82,97.0
780.88,96.0
780.95,111.0
781.01,119.0
781.07,122.0
781.14,108.0
781.2,106.0
781.26,108.0
781.33,120.0
781.39,100.0
781.45,92.0
781.51,111.0
781.58,100.0
781.64,92.0
781.7,115.0
781.77,97.0
781.83,94.0
781.89,98.0
781.96,90.0
782.02,72.0
782.08,77.0
782.14,79.0
782.21,82.0
782.27,86.0
782.33,75.0
782.4,75.0
782.46,72.0
782.52,65.0
782.59,71.0
782.65,71.0
782.71,73.0
782.77,71.0
782.84,76.0
782.9,86.0
782.96,86.0
783.03,82.0
783.09,68.0
783.15,78.0
783.22,83.0
783.28,79.0
783.34,74.0
783.4,84.0
783.47,66.0
783.53,64.0
783.59,64.0
783.66,67.0
783.72,74.0
783.78,97.0
783.85,88.0
783.91,68.0
783.97,71.0
784.03,98.0
784.1,88.0
784.16,89.0
784.22,64.0
784.29,78.0
784.35,86.0
784.41,87.0
784.48,86.0
784.54,90.0
784.6,95.0
784.66,106.0
784.73,114.0
784.79,106.0
784.85,108.0
784.92,110.0
784.98,105.0
785.04,97.0
785.11,100.0
785.17,76.0
785.23,102.0
785.29,120.0
785.36,111.0
785.42,110.0
785.48,93.0
785.55,107.0
785.61,104.0
785.67,122.0
785.74,125.0
785.8,139.0
785.86,148.0
785.92,120.0
785.99,142.0
786.05,135.0
786.11,154.0
786.18,152.0
786.24,119.0
786.3,137.0
786.37,119.0
786.43,131.0
786.49,137.0
786.55,116.0
786.62,98.0
786.68,109.0
786.74,111.0
786.81,89.0
786.87,89.0
786.93,81.0
787.0,93.0
787.06,96.0
787.12,87.0
787.18,110.0
787.25,96.0
787.31,104.0
787.37,107.0
787.44,101.0
787.5,101.0
787.56,83.0
787.63,74.0
787.69,59.0
787.75,79.0
787.81,73.0
787.88,69.0
787.94,71.0
788.0,79.0
788.07,59.0
788.13,55.0
788.19,56.0
788.26,51.0
788.32,50.0
788.38,60.0
788.44,57.0
788.51,62.0
788.57,48.0
788.63,70.0
788.7,59.0
788.76,52.0
788.82,63.0
788.89,53.0
788.95,67.0
789.01,58.0
789.07,44.0
789.14,55.0
789.2,65.0
789.26,71.0
789.33,56.0
789.39,55.0
789.45,76.0
789.52,63.0
789.58,76.0
789.64,76.0
789.7,78.0
789.77,87.0
789.83,87.0
789.89,89.0
789.96,104.0
790.02,95.0
790.08,104.0
790.15,101.0
790.21,89.0
790.27,80.0
790.33,104.0
790.4,106.0
790.46,100.0
790.52,90.0
790.59,82.0
790.65,84.0
790.71,92.0
790.78,81.0
790.84,77.0
790.9,91.0
790.96,88.0
791.03,99.0
791.09,103.0
791.15,103.0
791.22,109.0
791.28,101.0
791.34,113.0
791.41,98.0
791.47,91.0
791.53,92.0
791.59,99.0
791.66,98.0
791.72,107.0
791.78,118.0
791.85,111.0
791.91,116.0
791.97,115.0
792.04,121.0
792.1,110.0
792.16,106.0
792.22,130.0
792.29,118.0
792.35,106.0
792.41,87.0
792.48,90.0
792.54,93.0
792.6,96.0
792.67,93.0
792.73,91.0
792.79,106.0
792.85,99.0
792.92,102.0
792.98,109.0
793.04,81.0
793.11,84.0
793.17,82.0
793.23,93.0
793.3,93.0
793.36,70.0
793.42,68.0
793.48,75.0
793.55,70.0
793.61,79.0
793.67,78.0
793.74,97.0
793.8,87.0
793.86,78.0
793.93,89.0
793.99,86.0
794.05,83.0
794.11,76.0
794.18,95.0
794.24,95.0
794.3,72.0
794.37,52.0
794.43,71.0
794.49,72.0
794.56,74.0
794.62,78.0
794.68,87.0
794.74,83.0
794.81,80.0
794.87,53.0
794.93,52.0
795.0,81.0
795.06,68.0
795.12,66.0
795.19,59.0
795.25,64.0
795.31,88.0
795.37,75.0
795.44,74.0
795.5,80.0
795.56,78.0
795.63,79.0
795.69,46.0
795.75,56.0
795.82,73.0
795.88,73.0
795.94,86.0
796.0,92.0
796.07,90.0
796.13,103.0
796.19,102.0
796.26,91.0
796.32,109.0
796.38,97.0
796.45,93.0
796.51,106.0
796.57,107.0
796.63,99.0
796.7,114.0
796.76,136.0
796.82,147.0
796.89,139.0
796.95,139.0
797.01,135.0
797.08,129.0
797.14,139.0
797.2,129.0
797.26,142.0
797.33,150.0
797.39,141.0
797.45,139.0
797.52,136.0
797.58,129.0
797.64,122.0
797.71,130.0
797.77,108.0
797.83,115.0
797.89,112.0
797.96,115.0
798.02,122.0
798.08,121.0
798.15,133.0
798.21,107.0
798.27,108.0
798.34,126.0
798.4,105.0
798.46,102.0
798.52,104.0
798.59,93.0
798.65,86.0
798.71,67.0
798.78,76.0
798.84,83.0
798.9,65.0
798.97,98.0
799.03,82.0
799.09,72.0
799.15,93.0
799.22,95.0
799.28,94.0
799.34,98.0
799.41,100.0
799.47,96.0
799.53,83.0
799.6,80.0
799.66,99.0
799.72,93.0
799.78,108.0
799.85,106.0
799.91,109.0
799.97,111.0
800.04,105.0
800.1,115.0
800.16,106.0
800.23,141.0
800.29,142.0
800.35,147.0
800.41,130.0
800.48,126.0
800.54,131.0
800.6,128.0
800.67,141.0
800.73,132.0
800.79,120.0
800.86,133.0
800.92,123.0
800.98,159.0
801.04,171.0
801.11,126.0
801.17,137.0
801.23,137.0
801.3,112.0
801.36,123.0
801.42,137.0
801.49,110.0
801.55,126.0
801.61,114.0
801.67,132.0
801.74,135.0
801.8,122.0
801.86,133.0
801.93,123.0
801.99,115.0
802.05,122.0
802.12,111.0
802.18,108.0
802.24,74.0
802.3,98.0
802.37,99.0
802.43,103.0
802.49,103.0
802.56,103.0
802.62,96.0
802.68,98.0
802.75,112.0
802.81,104.0
802.87,90.0
802.93,106.0
803.0,107.0
803.06,93.0
803.12,82.0
803.19,117.0
803.25,100.0
803.31,113.0
803.38,109.0
803.44,106.0
803.5,114.0
803.56,114.0
803.63,111.0
803.69,105.0
803.75,97.0
803.82,110.0
803.88,100.0
803.94,95.0
804.01,93.0
804.07,105.0
804.13,100.0
804.19,100.0
804.26,81.0
804.32,76.0
804.38,92.0
804.45,95.0
804.51,108.0
804.57,110.0
804.64,83.0
804.7,77.0
804.76,70.0
804.82,70.0
804.89,71.0
804.95,74.0
805.01,71.0
805.08,75.0
805.14,73.0
805.2,76.0
805.27,78.0
805.33,70.0
805.39,55.0
805.45,62.0
805.52,75.0
805.58,87.0
805.64,76.0
805.71,73.0
805.77,79.0
805.83,68.0
805.9,70.0
805.96,56.0
806.02,84.0
806.08,62.0
806.15,79.0
806.21,72.0
806.27,63.0
806.34,69.0
806.4,82.0
806.46,81.0
806.53,68.0
806.59,65.0
806.65,64.0
806.71,51.0
806.78,62.0
806.84,79.0
806.9,85.0
806.97,84.0
807.03,82.0
807.09,74.0
807.16,73.0
807.22,80.0
807.28,91.0
807.34,101.0
807.41,93.0
807.47,101.0
807.53,120.0
807.6,99.0
807.66,89.0
807.72,76.0
807.79,89.0
807.85,92.0
807.91,93.0
807.97,85.0
808.04,92.0
808.1,89.0
808.16,87.0
808.23,96.0
808.29,90.0
808.35,96.0
808.42,82.0
808.48,75.0
808.54,79.0
808.6,71.0
808.67,82.0
808.73,51.0
808.79,46.0
808.86,56.0
808.92,46.0
808.98,65.0
809.05,56.0
809.11,51.0
809.17,46.0
809.23,46.0
809.3,50.0
809.36,49.0
809.42,50.0
809.49,37.0
809.55,47.0
809.61,52.0
809.68,45.0
809.74,49.0
809.8,39.0
809.86,42.0
809.93,40.0
809.99,47.0
810.05,60.0
810.12,34.0
810.18,44.0
810.24,31.0
810.31,29.0
810.37,39.0
810.43,25.0
810.49,21.0
810.56,41.0
810.62,15.0
810.68,31.0
810.75,43.0
810.81,37.0
810.87,34.0
810.94,22.0
811.0,32.0
811.06,41.0
811.12,41.0
811.19,37.0
811.25,67.0
811.31,53.0
811.38,63.0
811.44,64.0
811.5,73.0
811.57,72.0
811.63,54.0
811.69,56.0
811.75,62.0
811.82,56.0
811.88,60.0
811.94,59.0
812.01,43.0
812.07,39.0
812.13,56.0
812.2,47.0
812.26,54.0
812.32,50.0
812.38,53.0
812.45,58.0
812.51,65.0
812.57,28.0
812.64,37.0
812.7,45.0
812.76,45.0
812.83,46.0
812.89,51.0
812.95,45.0
813.01,60.0
813.08,50.0
813.14,56.0
813.2,69.0
813.27,46.0
813.33,56.0
813.39,70.0
813.46,64.0
813.52,74.0
813.58,83.0
813.64,58.0
813.71,70.0
813.77,65.0
813.83,61.0
813.9,79.0
813.96,92.0
814.02,75.0
814.09,72.0
814.15,67.0
814.21,70.0
814.27,91.0
814.34,66.0
814.4,76.0
814.46,79.0
814.53,55.0
814.59,48.0
814.65,64.0
814.72,45.0
814.78,48.0
814.84,45.0
814.9,37.0
814.97,36.0
815.03,51.0
815.09,53.0
815.16,60.0
815.22,60.0
815.28,60.0
815.35,48.0
815.41,51.0
815.47,71.0
815.53,71.0
815.6,73.0
815.66,77.0
815.72,61.0
815.79,64.0
815.85,65.0
815.91,54.0
815.98,71.0
816.04,79.0
816.1,89.0
816.16,94.0
816.23,73.0
816.29,73.0
816.35,56.0
816.42,56.0
816.48,56.0
816.54,75.0
816.61,73.0
816.67,68.0
816.73,54.0
816.79,56.0
816.86,57.0
816.92,63.0
816.98,76.0
817.05,79.0
817.11,89.0
817.17,79.0
817.24,96.0
817.3,70.0
817.36,93.0
817.42,92.0
817.49,91.0
817.55,112.0
817.61,81.0
817.68,68.0
817.74,85.0
817.8,83.0
817.87,85.0
817.93,79.0
817.99,83.0
818.05,81.0
818.12,104.0
818.18,106.0
818.24,101.0
818.31,92.0
818.37,98.0
818.43,95.0
818.5,98.0
818.56,99.0
818.62,87.0
818.68,97.0
818.75,98.0
818.81,96.0
818.87,76.0
818.94,85.0
819.0,79.0
819.06,102.0
819.13,99.0
819.19,105.0
819.25,78.0
819.31,80.0
819.38,78.0
819.44,70.0
819.5,82.0
819.57,85.0
819.63,79.0
819.69,81.0
819.76,86.0
819.82,71.0
819.88,53.0
819.94,64.0
820.01,69.0
820.07,50.0
820.13,52.0
820.2,62.0
820.26,63.0
820.32,73.0
820.39,73.0
820.45,46.0
820.51,46.0
820.57,68.0
820.64,51.0
820.7,45.0
820.76,54.0
820.83,55.0
820.89,50.0
820.95,61.0
821.02,38.0
821.08,49.0
821.14,48.0
821.2,42.0
821.27,40.0
821.33,30.0
821.39,46.0
821.46,42.0
821.52,40.0
821.58,48.0
821.65,59.0
821.71,76.0
821.77,79.0
821.83,54.0
821.9,36.0
821.96,63.0
822.02,72.0
822.09,80.0
822.15,85.0
822.21,78.0
822.28,75.0
822.34,71.0
822.4,68.0
822.46,60.0
822.53,78.0
822.59,76.0
822.65,83.0
822.72,83.0
822.78,67.0
822.84,69.0
822.91,67.0
822.97,67.0
823.03,60.0
823.09,63.0
823.16,63.0
823.22,59.0
823.28,57.0
823.35,59.0
823.41,47.0
823.47,56.0
823.54,64.0
823.6,45.0
823.66,67.0
823.72,76.0
823.79,81.0
823.85,71.0
823.91,77.0
823.98,80.0
824.04,96.0
824.1,95.0
824.17,73.0
824.23,76.0
824.29,65.0
824.35,78.0
824.42,82.0
824.48,75.0
824.54,94.0
824.61,79.0
824.67,104.0
824.73,90.0
824.8,86.0
824.86,94.0
824.92,64.0
824.98,88.0
825.05,75.0
825.11,62.0
825.17,76.0
825.24,87.0
825.3,85.0
825.36,72.0
825.43,82.0
825.49,92.0
825.55,70.0
825.61,74.0
825.68,67.0
825.74,48.0
825.8,51.0
825.87,56.0
825.93,63.0
825.99,35.0
826.06,55.0
826.12,45.0
826.18,41.0
826.24,34.0
826.31,44.0
826.37,26.0
826.43,46.0
826.5,52.0
826.56,70.0
826.62,82.0
826.69,54.0
826.75,66.0
826.81,79.0
826.87,53.0
826.94,47.0
827.0,45.0
827.06,12.0
827.13,34.0
827.19,51.0
827.25,29.0
827.32,32.0
827.38,49.0
827.44,22.0
827.5,23.0
827.57,16.0
827.63,9.0
827.69,13.0
827.76,42.0
827.82,39.0
827.88,48.0
827.95,39.0
828.01,26.0
828.07,38.0
828.13,31.0
828.2,44.0
828.26,41.0
828.32,64.0
828.39,63.0
828.45,75.0
828.51,65.0
828.58,55.0
828.64,49.0
828.7,42.0
828.76,50.0
828.83,63.0
828.89,57.0
828.95,54.0
829.02,56.0
829.08,59.0
829.14,44.0
829.21,29.0
829.27,34.0
829.33,47.0
829.39,39.0
829.46,37.0
829.52,28.0
829.58,33.0
829.65,27.0
829.71,35.0
829.77,60.0
829.84,46.0
829.9,56.0
829.96,49.0
830.02,67.0
830.09,49.0
830.15,45.0
830.21,73.0
830.28,70.0
830.34,64.0
830.4,55.0
830.47,69.0
830.53,57.0
830.59,60.0
830.65,40.0
830.72,49.0
830.78,44.0
830.84,52.0
830.91,50.0
830.97,57.0
831.03,64.0
831.1,61.0
831.16,63.0
831.22,69.0
831.28,80.0
831.35,67.0
831.41,56.0
831.47,49.0
831.54,56.0
831.6,75.0
831.66,75.0
831.73,75.0
831.79,52.0
831.85,51.0
831.91,74.0
831.98,89.0
832.04,84.0
832.1,74.0
832.17,74.0
832.23,62.0
832.29,65.0
832.36,72.0
832.42,68.0
832.48,70.0
832.54,61.0
832.61,46.0
832.67,64.0
832.73,62.0
832.8,80.0
832.86,75.0
832.92,96.0
832.99,111.0
833.05,92.0
833.11,93.0
833.17,95.0
833.24,101.0
833.3,98.0
833.36,87.0
833.43,82.0
833.49,87.0
833.55,96.0
833.62,117.0
833.68,118.0
833.74,108.0
833.8,94.0
833.87,89.0
833.93,93.0
833.99,94.0
834.06,96.0
834.12,97.0
834.18,90.0
834.25,107.0
834.31,125.0
834.37,105.0
834.43,106.0
834.5,107.0
834.56,116.0
834.62,120.0
834.69,118.0
834.75,141.0
834.81,125.0
834.88,136.0
834.94,144.0
835.0,130.0
835.06,156.0
835.13,140.0
835.19,132.0
835.25,130.0
835.32,119.0
835.38,121.0
835.44,122.0
835.51,121.0
835.57,114.0
835.63,123.0
835.69,120.0
835.76,152.0
835.82,151.0
835.88,135.0
835.95,138.0
836.01,127.0
836.07,122.0
836.14,122.0
836.2,134.0
836.26,108.0
836.32,92.0
836.39,97.0
836.45,96.0
836.51,108.0
836.58,106.0
836.64,104.0
836.7,85.0
836.77,107.0
836.83,103.0
836.89,82.0
836.95,84.0
837.02,81.0
837.08,98.0
837.14,97.0
837.21,92.0
837.27,82.0
837.33,87.0
837.4,87.0
837.46,98.0
837.52,92.0
837.58,62.0
837.65,77.0
837.71,78.0
837.77,77.0
837.84,72.0
837.9,79.0
837.96,60.0
838.03,64.0
838.09,76.0
838.15,76.0
838.21,84.0
838.28,74.0
838.34,77.0
838.4,73.0
838.47,72.0
838.53,61.0
838.59,62.0
838.66,60.0
838.72,49.0
838.78,49.0
838.84,60.0
838.91,74.0
838.97,66.0
839.03,64.0
839.1,63.0
839.16,72.0
839.22,39.0
839.29,38.0
839.35,38.0
839.41,49.0
839.47,70.0
839.54,71.0
839.6,48.0
839.66,52.0
839.73,52.0
839.79,45.0
839.85,52.0
839.92,53.0
839.98,56.0
840.04,66.0
840.1,59.0
840.17,55.0
840.23,62.0
840.29,59.0
840.36,43.0
840.42,40.0
840.48,67.0
840.55,72.0
840.61,56.0
840.67,53.0
840.73,67.0
840.8,95.0
840.86,83.0
840.92,68.0
840.99,100.0
841.05,93.0
841.11,100.0
841.18,106.0
841.24,109.0
841.3,101.0
841.36,119.0
841.43,131.0
841.49,121.0
841.55,106.0
841.62,133.0
841.68,119.0
841.74,119.0
841.81,109.0
841.87,105.0
841.93,135.0
841.99,131.0
842.06,115.0
842.12,126.0
842.18,137.0
842.25,121.0
842.31,130.0
842.37,120.0
842.44,128.0
842.5,119.0
842.56,111.0
842.62,119.0
842.69,101.0
842.75,96.0
842.81,106.0
842.88,114.0
842.94,120.0
843.0,100.0
843.07,101.0
843.13,113.0
843.19,109.0
843.25,95.0
843.32,118.0
843.38,120.0
843.44,115.0
843.51,92.0
843.57,73.0
843.63,93.0
843.7,98.0
843.76,98.0
843.82,105.0
843.88,103.0
843.95,95.0
844.01,93.0
844.07,84.0
844.14,73.0
844.2,95.0
844.26,99.0
844.33,84.0
844.39,87.0
844.45,85.0
844.51,103.0
844.58,78.0
844.64,73.0
844.7,90.0
844.77,70.0
844.83,88.0
844.89,89.0
844.96,71.0
845.02,87.0
845.08,72.0
845.14,82.0
845.21,85.0
845.27,93.0
845.33,95.0
845.4,110.0
845.46,109.0
845.52,92.0
845.59,97.0
845.65,72.0
845.71,79.0
845.77,88.0
845.84,93.0
845.9,73.0
845.96,74.0
846.03,89.0
846.09,68.0
846.15,80.0
846.22,65.0
846.28,76.0
846.34,81.0
846.4,73.0
846.47,71.0
846.53,43.0
846.59,55.0
846.66,62.0
846.72,59.0
846.78,65.0
846.85,37.0
846.91,59.0
846.97,49.0
847.03,62.0
847.1,60.0
847.16,59.0
847.22,38.0
847.29,57.0
847.35,57.0
847.41,47.0
847.48,45.0
847.54,48.0
847.6,30.0
847.66,27.0
847.73,43.0
847.79,53.0
847.85,53.0
847.92,33.0
847.98,44.0
848.04,38.0
848.11,34.0
848.17,74.0
848.23,63.0
848.29,67.0
848.36,97.0
848.42,65.0
848.48,69.0
848.55,74.0
848.61,83.0
848.67,73.0
848.74,67.0
848.8,81.0
848.86,91.0
848.92,71.0
848.99,75.0
849.05,93.0
849.11,112.0
849.18,93.0
849.24,86.0
849.3,67.0
849.37,90.0
849.43,87.0
849.49,92.0
849.55,101.0
849.62,112.0
849.68,91.0
849.74,90.0
849.81,91.0
849.87,80.0
849.93,90.0
850.0,85.0
850.06,109.0
850.12,100.0
850.18,82.0
850.25,82.0
850.31,71.0
850.37,89.0
850.44,92.0
850.5,100.0
850.56,113.0
850.63,91.0
850.69,77.0
850.75,93.0
850.81,90.0
850.88,91.0
850.94,95.0
851.0,106.0
851.07,121.0
851.13,107.0
851.19,111.0
851.26,121.0
851.32,98.0
851.38,103.0
851.44,129.0
851.51,118.0
851.57,118.0
851.63,119.0
851.7,128.0
851.76,126.0
851.82,122.0
851.89,124.0
851.95,131.0
852.01,120.0
852.07,102.0
852.14,120.0
852.2,119.0
852.26,92.0
852.33,116.0
852.39,130.0
852.45,128.0
852.52,116.0
852.58,117.0
852.64,110.0
852.7,107.0
852.77,111.0
852.83,136.0
852.89,121.0
852.96,98.0
853.02,104.0
853.08,110.0
853.15,111.0
853.21,113.0
853.27,111.0
853.33,110.0
853.4,106.0
853.46,119.0
853.52,123.0
853.59,107.0
853.65,110.0
853.71,114.0
853.78,111.0
853.84,96.0
853.9,89.0
853.96,97.0
854.03,87.0
854.09,89.0
854.15,97.0
854.22,87.0
854.28,85.0
854.34,79.0
854.41,65.0
854.47,78.0
854.53,67.0
854.59,55.0
854.66,81.0
854.72,86.0
854.78,75.0
854.85,45.0
854.91,59.0
854.97,67.0
855.04,71.0
855.1,71.0
855.16,68.0
855.22,51.0
855.29,68.0
855.35,59.0
855.41,61.0
855.48,72.0
855.54,73.0
855.6,76.0
855.67,72.0
855.73,67.0
855.79,74.0
855.85,59.0
855.92,79.0
855.98,62.0
856.04,61.0
856.11,66.0
856.17,78.0
856.23,73.0
856.3,50.0
856.36,63.0
856.42,49.0
856.48,63.0
856.55,69.0
856.61,72.0
856.67,57.0
856.74,65.0
856.8,89.0
856.86,85.0
856.93,97.0
856.99,88.0
857.05,106.0
857.11,111.0
857.18,109.0
857.24,118.0
857.3,117.0
857.37,100.0
857.43,103.0
857.49,103.0
857.56,117.0
857.62,112.0
857.68,121.0
857.74,139.0
857.81,145.0
857.87,114.0
857.93,127.0
858.0,119.0
858.06,82.0
858.12,96.0
858.19,110.0
858.25,93.0
858.31,112.0
858.37,113.0
858.44,129.0
858.5,128.0
858.56,125.0
858.63,130.0
858.69,137.0
858.75,138.0
858.82,123.0
858.88,131.0
858.94,126.0
859.0,121.0
859.07,112.0
859.13,135.0
859.19,121.0
859.26,106.0
859.32,108.0
859.38,106.0
859.45,119.0
859.51,97.0
859.57,89.0
859.63,102.0
859.7,92.0
859.76,112.0
859.82,101.0
859.89,92.0
859.95,108.0
860.01,86.0
860.08,91.0
860.14,85.0
860.2,75.0
860.26,81.0
860.33,59.0
860.39,64.0
860.45,62.0
860.52,56.0
860.58,60.0
860.64,62.0
860.71,67.0
860.77,87.0
860.83,89.0
860.89,81.0
860.96,68.0
861.02,57.0
861.08,67.0
861.15,67.0
861.21,62.0
861.27,45.0
861.34,67.0
861.4,59.0
861.46,75.0
861.52,70.0
861.59,61.0
861.65,70.0
861.71,67.0
861.78,82.0
861.84,64.0
861.9,72.0
861.97,57.0
862.03,48.0
862.09,65.0
862.15,82.0
862.22,74.0
862.28,62.0
862.34,58.0
862.41,47.0
862.47,50.0
862.53,27.0
862.6,40.0
862.66,45.0
862.72,46.0
862.78,46.0
862.85,52.0
862.91,50.0
862.97,72.0
863.04,59.0
863.1,55.0
863.16,71.0
863.23,66.0
863.29,82.0
863.35,76.0
863.41,60.0
863.48,68.0
863.54,65.0
863.6,55.0
863.67,60.0
863.73,63.0
863.79,65.0
863.86,56.0
863.92,52.0
863.98,78.0
864.04,91.0
864.11,78.0
864.17,71.0
864.23,76.0
864.3,67.0
864.36,81.0
864.42,77.0
864.49,79.0
864.55,75.0
864.61,68.0
864.67,63.0
864.74,62.0
864.8,43.0
864.86,56.0
864.93,60.0
864.99,63.0
865.05,61.0
865.12,61.0
865.18,63.0
865.24,48.0
865.3,53.0
865.37,26.0
865.43,38.0
865.49,48.0
865.56,65.0
865.62,72.0
865.68,67.0
865.75,64.0
865.81,60.0
865.87,58.0
865.93,40.0
866.0,47.0
866.06,64.0
866.12,60.0
866.19,64.0
866.25,70.0
866.31,71.0
866.38,81.0
866.44,78.0
866.5,71.0
866.56,65.0
866.63,67.0
866.69,73.0
866.75,74.0
866.82,106.0
866.88,90.0
866.94,84.0
867.01,95.0
867.07,117.0
867.13,128.0
867.19,113.0
867.26,120.0
867.32,125.0
867.38,117.0
867.45,142.0
867.51,139.0
867.57,114.0
867.64,120.0
867.7,128.0
867.76,93.0
867.82,105.0
867.89,97.0
867.95,110.0
868.01,120.0
868.08,119.0
868.14,119.0
868.2,131.0
868.27,131.0
868.33,109.0
868.39,134.0
868.45,116.0
868.52,133.0
868.58,122.0
868.64,119.0
868.71,113.0
868.77,121.0
868.83,122.0
868.9,117.0
868.96,124.0
869.02,142.0
869.08,139.0
869.15,135.0
869.21,123.0
869.27,116.0
869.34,130.0
869.4,133.0
869.46,105.0
869.53,106.0
869.59,114.0
869.65,121.0
869.71,118.0
869.78,120.0
869.84,114.0
869.9,105.0
869.97,109.0
870.03,114.0
870.09,78.0
870.16,104.0
870.22,89.0
870.28,79.0
870.34,82.0
870.41,82.0
870.47,71.0
870.53,78.0
870.6,93.0
870.66,75.0
870.72,57.0
870.79,73.0
870.85,65.0
870.91,70.0
870.97,79.0
871.04,84.0
871.1,63.0
871.16,59.0
871.23,63.0
871.29,62.0
871.35,57.0
871.42,71.0
871.48,50.0
871.54,43.0
871.6,49.0
871.67,34.0
871.73,40.0
871.79,27.0
871.86,27.0
871.92,40.0
871.98,53.0
872.05,49.0
872.11,48.0
872.17,58.0
872.23,61.0
872.3,64.0
872.36,64.0
872.42,58.0
872.49,48.0
872.55,38.0
872.61,55.0
872.68,39.0
872.74,45.0
872.8,37.0
872.86,30.0
872.93,27.0
872.99,21.0
873.05,38.0
873.12,26.0
873.18,36.0
873.24,19.0
873.31,40.0
873.37,27.0
873.43,27.0
873.49,34.0
873.56,13.0
873.62,37.0
873.68,31.0
873.75,26.0
873.81,38.0
873.87,56.0
873.94,51.0
874.0,68.0
874.06,70.0
874.12,59.0
874.19,60.0
874.25,58.0
874.31,57.0
874.38,60.0
874.44,51.0
874.5,57.0
874.57,73.0
874.63,75.0
874.69,87.0
874.75,51.0
874.82,59.0
874.88,49.0
874.94,55.0
875.01,57.0
875.07,35.0
875.13,62.0
875.2,75.0
875.26,56.0
875.32,70.0
875.38,63.0
875.45,67.0
875.51,65.0
875.57,47.0
875.64,42.0
875.7,50.0
875.76,45.0
875.83,43.0
875.89,37.0
875.95,45.0
876.01,52.0
876.08,34.0
876.14,37.0
876.2,41.0
876.27,52.0
876.33,63.0
876.39,61.0
876.46,42.0
876.52,64.0
876.58,51.0
876.64,40.0
876.71,25.0
876.77,47.0
876.83,48.0
876.9,44.0
876.96,38.0
877.02,41.0
877.09,36.0
877.15,41.0
877.21,39.0
877.27,54.0
877.34,45.0
877.4,46.0
877.46,41.0
877.53,42.0
877.59,50.0
877.65,38.0
877.72,40.0
877.78,26.0
877.84,36.0
877.9,46.0
877.97,34.0
878.03,28.0
878.09,40.0
878.16,35.0
878.22,49.0
878.28,48.0
878.35,52.0
878.41,61.0
878.47,70.0
878.53,55.0
878.6,53.0
878.66,56.0
878.72,35.0
878.79,54.0
878.85,21.0
878.91,27.0
878.98,45.0
879.04,30.0
879.1,12.0
879.16,10.0
879.23,16.0
879.29,11.0
879.35,-1.0
879.42,19.0
879.48,14.0
879.54,9.0
879.61,26.0
879.67,24.0
879.73,37.0
879.79,36.0
879.86,46.0
879.92,52.0
879.98,44.0
880.05,34.0
880.11,43.0
880.17,49.0
880.24,57.0
880.3,55.0
880.36,46.0
880.42,49.0
880.49,41.0
880.55,36.0
880.61,51.0
880.68,47.0
880.74,27.0
880.8,52.0
880.87,48.0
880.93,33.0
880.99,37.0
881.05,14.0
881.12,30.0
881.18,19.0
881.24,3.0
881.31,21.0
881.37,33.0
881.43,22.0
881.5,39.0
881.56,26.0
881.62,33.0
881.68,23.0
881.75,19.0
881.81,32.0
881.87,39.0
881.94,36.0
882.0,41.0
882.06,52.0
882.13,41.0
882.19,33.0
882.25,46.0
882.31,54.0
882.38,53.0
882.44,34.0
882.5,29.0
882.57,33.0
882.63,36.0
882.69,41.0
882.76,49.0
882.82,52.0
882.88,43.0
882.94,52.0
883.01,39.0
883.07,59.0
883.13,52.0
883.2,60.0
883.26,68.0
883.32,62.0
883.39,65.0
883.45,52.0
883.51,56.0
883.57,61.0
883.64,54.0
883.7,72.0
883.76,72.0
883.83,63.0
883.89,65.0
883.95,85.0
884.02,70.0
884.08,76.0
884.14,84.0
884.2,71.0
884.27,79.0
884.33,104.0
884.39,115.0
884.46,113.0
884.52,112.0
884.58,123.0
884.65,102.0
884.71,110.0
884.77,111.0
884.83,113.0
884.9,106.0
884.96,113.0
885.02,133.0
885.09,120.0
885.15,112.0
885.21,110.0
885.28,109.0
885.34,117.0
885.4,126.0
885.46,118.0
885.53,125.0
885.59,137.0
885.65,156.0
885.72,155.0
885.78,136.0
885.84,144.0
885.91,129.0
885.97,134.0
886.03,135.0
886.09,142.0
886.16,151.0
886.22,138.0
886.28,138.0
886.35,147.0
886.41,147.0
886.47,147.0
886.54,133.0
886.6,123.0
886.66,129.0
886.72,133.0
886.79,119.0
886.85,124.0
886.91,103.0
886.98,101.0
887.04,98.0
887.1,88.0
887.17,91.0
887.23,101.0
887.29,120.0
887.35,95.0
887.42,97.0
887.48,100.0
887.54,110.0
887.61,95.0
887.67,82.0
887.73,87.0
887.8,71.0
887.86,100.0
887.92,94.0
887.98,73.0
888.05,85.0
888.11,65.0
888.17,87.0
888.24,81.0
888.3,68.0
888.36,63.0
888.43,67.0
888.49,64.0
888.55,51.0
888.61,66.0
888.68,90.0
888.74,70.0
888.8,71.0
888.87,82.0
888.93,75.0
888.99,81.0
889.06,97.0
889.12,81.0
889.18,94.0
889.24,78.0
889.31,79.0
889.37,99.0
889.43,92.0
889.5,83.0
889.56,88.0
889.62,82.0
889.69,86.0
889.75,88.0
889.81,89.0
889.87,94.0
889.94,73.0
890.0,91.0
890.06,87.0
890.13,99.0
890.19,106.0
890.25,92.0
890.32,107.0
890.38,107.0
890.44,103.0
890.5,100.0
890.57,112.0
890.63,114.0
890.69,85.0
890.76,103.0
890.82,94.0
890.88,110.0
890.95,110.0
891.01,103.0
891.07,145.0
891.13,116.0
891.2,125.0
891.26,126.0
891.32,151.0
891.39,152.0
891.45,127.0
891.51,149.0
891.58,132.0
891.64,142.0
891.7,144.0
891.76,134.0
891.83,137.0
891.89,138.0
891.95,130.0
892.02,136.0
892.08,139.0
892.14,133.0
892.21,147.0
892.27,151.0
892.33,143.0
892.39,125.0
892.46,125.0
892.52,142.0
892.58,128.0
892.65,140.0
892.71,129.0
892.77,124.0
892.84,129.0
892.9,156.0
892.96,138.0
893.02,163.0
893.09,171.0
893.15,176.0
893.21,153.0
893.28,148.0
893.34,136.0
893.4,127.0
893.47,143.0
893.53,138.0
893.59,146.0
893.65,157.0
893.72,147.0
893.78,134.0
893.84,152.0
893.91,130.0
893.97,131.0
894.03,122.0
894.1,110.0
894.16,116.0
894.22,100.0
894.28,133.0
894.35,137.0
894.41,109.0
894.47,116.0
894.54,131.0
894.6,140.0
894.66,142.0
894.73,126.0
894.79,132.0
894.85,130.0
894.91,118.0
894.98,143.0
895.04,131.0
895.1,136.0
895.17,118.0
895.23,126.0
895.29,133.0
895.36,147.0
895.42,124.0
895.48,121.0
895.54,132.0
895.61,112.0
895.67,111.0
895.73,114.0
895.8,85.0
895.86,92.0
895.92,101.0
895.99,87.0
896.05,70.0
896.11,74.0
896.17,81.0
896.24,51.0
896.3,52.0
896.36,59.0
896.43,44.0
896.49,46.0
896.55,48.0
896.62,38.0
896.68,40.0
896.74,35.0
896.8,45.0
896.87,34.0
896.93,47.0
896.99,56.0
897.06,41.0
897.12,48.0
897.18,48.0
897.25,36.0
897.31,35.0
897.37,45.0
897.43,49.0
897.5,57.0
897.56,57.0
897.62,38.0
897.69,44.0
897.75,46.0
897.81,44.0
897.88,41.0
897.94,46.0
898.0,37.0
898.06,28.0
898.13,46.0
898.19,49.0
898.25,52.0
898.32,41.0
898.38,31.0
898.44,23.0
898.51,19.0
898.57,19.0
898.63,15.0
898.69,34.0
898.76,14.0
898.82,20.0
898.88,25.0
898.95,25.0
899.01,27.0
899.07,29.0
899.14,27.0
899.2,37.0
899.26,18.0
899.32,7.0
899.39,40.0
899.45,32.0
899.51,26.0
899.58,48.0
899.64,45.0
899.7,44.0
899.77,45.0
899.83,42.0
899.89,27.0
899.95,19.0
900.02,38.0
900.08,39.0
900.14,25.0
900.21,45.0
900.27,53.0
900.33,47.0
900.4,47.0
900.46,41.0
900.52,35.0
900.58,36.0
900.65,35.0
900.71,32.0
900.77,22.0
900.84,11.0
900.9,29.0
900.96,30.0
901.03,16.0
901.09,32.0
901.15,38.0
901.21,27.0
901.28,24.0
901.34,43.0
901.4,60.0
901.47,64.0
901.53,47.0
901.59,56.0
901.66,56.0
901.72,59.0
901.78,63.0
901.84,65.0
901.91,73.0
901.97,78.0
902.03,74.0
902.1,68.0
902.16,53.0
902.22,59.0
902.29,40.0
902.35,40.0
902.41,49.0
902.47,29.0
902.54,41.0
902.6,43.0
902.66,52.0
902.73,61.0
902.79,57.0
902.85,54.0
902.92,50.0
902.98,49.0
903.04,47.0
903.1,38.0
903.17,39.0
903.23,45.0
903.29,56.0
903.36,49.0
903.42,34.0
903.48,72.0
903.55,68.0
903.61,53.0
903.67,51.0
903.73,92.0
903.8,70.0
903.86,71.0
903.92,70.0
903.99,66.0
904.05,78.0
904.11,60.0
904.18,52.0
904.24,57.0
904.3,79.0
904.36,62.0
904.43,61.0
904.49,46.0
904.55,50.0
904.62,59.0
904.68,63.0
904.74,52.0
904.81,33.0
904.87,26.0
904.93,34.0
904.99,56.0
905.06,50.0
905.12,36.0
905.18,41.0
905.25,44.0
905.31,68.0
905.37,62.0
905.44,27.0
905.5,28.0
905.56,63.0
905.62,43.0
905.69,56.0
905.75,26.0
905.81,50.0
905.88,48.0
905.94,50.0
906.0,57.0
906.07,46.0
906.13,65.0
906.19,56.0
906.25,39.0
906.32,35.0
906.38,35.0
906.44,55.0
906.51,43.0
906.57,62.0
906.63,75.0
906.7,71.0
906.76,69.0
906.82,70.0
906.88,64.0
906.95,76.0
907.01,91.0
907.07,85.0
907.14,77.0
907.2,90.0
907.26,74.0
907.33,80.0
907.39,107.0
907.45,99.0
907.51,106.0
907.58,96.0
907.64,85.0
907.7,94.0
907.77,101.0
907.83,103.0
907.89,104.0
907.96,115.0
908.02,98.0
908.08,106.0
908.14,115.0
908.21,117.0
908.27,110.0
908.33,96.0
908.4,118.0
908.46,111.0
908.52,119.0
908.59,118.0
908.65,100.0
908.71,92.0
908.77,96.0
908.84,100.0
908.9,91.0
908.96,94.0
909.03,114.0
909.09,100.0
909.15,115.0
909.22,107.0
909.28,96.0
909.34,96.0
909.4,102.0
909.47,103.0
909.53,91.0
909.59,113.0
909.66,112.0
909.72,103.0
909.78,108.0
909.85,92.0
909.91,100.0
909.97,78.0
910.03,100.0
910.1,91.0
910.16,105.0
910.22,111.0
910.29,101.0
910.35,118.0
910.41,130.0
910.48,136.0
910.54,123.0
910.6,137.0
910.66,102.0
910.73,121.0
910.79,112.0
910.85,105.0
910.92,112.0
910.98,95.0
911.04,103.0
911.11,98.0
911.17,86.0
911.23,86.0
911.29,97.0
911.36,105.0
911.42,117.0
911.48,129.0
911.55,123.0
911.61,118.0
911.67,110.0
911.74,100.0
911.8,107.0
911.86,93.0
911.92,102.0
911.99,112.0
912.05,105.0
912.11,86.0
912.18,89.0
912.24,96.0
912.3,88.0
912.37,95.0
912.43,83.0
912.49,82.0
912.55,81.0
912.62,59.0
912.68,72.0
912.74,67.0
912.81,73.0
912.87,71.0
912.93,96.0
913.0,68.0
913.06,83.0
913.12,85.0
913.18,78.0
913.25,74.0
913.31,82.0
913.37,71.0
913.44,56.0
913.5,63.0
913.56,61.0
913.63,67.0
913.69,78.0
913.75,100.0
913.81,88.0
913.88,72.0
913.94,69.0
914.0,69.0
914.07,78.0
914.13,91.0
914.19,67.0
914.26,70.0
914.32,77.0
914.38,96.0
914.44,85.0
914.51,99.0
914.57,96.0
914.63,94.0
914.7,85.0
914.76,100.0
914.82,112.0
914.89,111.0
914.95,99.0
915.01,103.0
915.07,112.0
915.14,118.0
915.2,122.0
915.26,95.0
915.33,95.0
915.39,100.0
915.45,72.0
915.52,101.0
915.58,93.0
915.64,100.0
915.7,103.0
915.77,86.0
915.83,109.0
915.89,91.0
915.96,95.0
916.02,108.0
916.08,108.0
916.15,120.0
916.21,125.0
916.27,117.0
916.33,118.0
916.4,107.0
916.46,111.0
916.52,142.0
916.59,108.0
916.65,112.0
916.71,104.0
916.78,93.0
916.84,123.0
916.9,118.0
916.96,118.0
917.03,128.0
917.09,140.0
917.15,139.0
917.22,123.0
917.28,140.0
917.34,126.0
917.41,111.0
917.47,130.0
917.53,127.0
917.59,125.0
917.66,127.0
917.72,106.0
917.78,128.0
917.85,133.0
917.91,114.0
917.97,127.0
918.04,107.0
918.1,111.0
918.16,111.0
918.22,125.0
918.29,108.0
918.35,102.0
918.41,130.0
918.48,106.0
918.54,135.0
918.6,133.0
918.67,119.0
918.73,113.0
918.79,108.0
918.85,109.0
918.92,106.0
918.98,106.0
919.04,79.0
919.11,89.0
919.17,96.0
919.23,74.0
919.3,85.0
919.36,78.0
919.42,92.0
919.48,107.0
919.55,102.0
919.61,89.0
919.67,109.0
919.74,88.0
919.8,99.0
919.86,85.0
919.93,90.0
919.99,112.0
920.05,93.0
920.11,103.0
920.18,100.0
920.24,124.0
920.3,111.0
920.37,98.0
920.43,95.0
920.49,88.0
920.56,82.0
920.62,63.0
920.68,93.0
920.74,84.0
920.81,65.0
920.87,63.0
920.93,59.0
921.0,61.0
921.06,36.0
921.12,46.0
921.19,41.0
921.25,30.0
921.31,49.0
921.37,27.0
921.44,41.0
921.5,52.0
921.56,49.0
921.63,31.0
921.69,33.0
921.75,53.0
921.82,43.0
921.88,37.0
921.94,55.0
922.0,58.0
922.07,43.0
922.13,44.0
922.19,37.0
922.26,33.0
922.32,24.0
922.38,29.0
922.45,46.0
922.51,48.0
922.57,45.0
922.63,10.0
922.7,46.0
922.76,51.0
922.82,12.0
922.89,48.0
922.95,35.0
923.01,46.0
923.08,41.0
923.14,54.0
923.2,37.0
923.26,45.0
923.33,50.0
923.39,55.0
923.45,37.0
923.52,41.0
923.58,66.0
923.64,52.0
923.71,39.0
923.77,51.0
923.83,43.0
923.89,43.0
923.96,42.0
924.02,57.0
924.08,48.0
924.15,67.0
924.21,75.0
924.27,96.0
924.34,87.0
924.4,67.0
924.46,69.0
924.52,59.0
924.59,74.0
924.65,71.0
924.71,68.0
924.78,65.0
924.84,59.0
924.9,70.0
924.97,49.0
925.03,55.0
925.09,69.0
925.15,43.0
925.22,49.0
925.28,30.0
925.34,33.0
925.41,65.0
925.47,72.0
925.53,60.0
925.6,40.0
925.66,34.0
925.72,59.0
925.78,43.0
925.85,52.0
925.91,70.0
925.97,57.0
926.04,55.0
926.1,49.0
926.16,53.0
926.23,69.0
926.29,70.0
926.35,63.0
926.41,56.0
926.48,42.0
926.54,36.0
926.6,46.0
926.67,40.0
926.73,40.0
926.79,54.0
926.86,56.0
926.92,36.0
926.98,52.0
927.04,26.0
927.11,35.0
927.17,70.0
927.23,39.0
927.3,48.0
927.36,21.0
927.42,46.0
927.49,51.0
927.55,53.0
927.61,52.0
927.67,54.0
927.74,63.0
927.8,56.0
927.86,44.0
927.93,47.0
927.99,38.0
928.05,38.0
928.12,30.0
928.18,17.0
928.24,27.0
928.3,1.0
928.37,4.0
928.43,5.0
928.49,-3.0
928.56,17.0
928.62,29.0
928.68,10.0
928.75,5.0
928.81,3.0
928.87,7.0
928.93,17.0
929.0,8.0
929.06,15.0
929.12,7.0
929.19,11.0
929.25,15.0
929.31,5.0
929.38,20.0
929.44,8.0
929.5,0.0
929.56,6.0
929.63,23.0
929.69,27.0
929.75,24.0
929.82,21.0
929.88,33.0
929.94,43.0
930.01,36.0
930.07,29.0
930.13,24.0
930.19,20.0
930.26,33.0
930.32,30.0
930.38,38.0
930.45,26.0
930.51,18.0
930.57,14.0
930.64,16.0
930.7,18.0
930.76,31.0
930.82,33.0
930.89,42.0
930.95,33.0
931.01,37.0
931.08,29.0
931.14,42.0
931.2,65.0
931.27,31.0
931.33,33.0
931.39,37.0
931.45,56.0
931.52,60.0
931.58,67.0
931.64,51.0
931.71,49.0
931.77,64.0
931.83,66.0
931.9,82.0
931.96,67.0
932.02,48.0
932.08,71.0
932.15,61.0
932.21,51.0
932.27,55.0
932.34,63.0
932.4,73.0
932.46,85.0
932.53,74.0
932.59,57.0
932.65,56.0
932.71,68.0
932.78,68.0
932.84,72.0
932.9,60.0
932.97,62.0
933.03,70.0
933.09,56.0
933.16,64.0
933.22,57.0
933.28,74.0
933.34,66.0
933.41,75.0
933.47,84.0
933.53,78.0
933.6,93.0
933.66,109.0
933.72,101.0
933.79,107.0
933.85,79.0
933.91,85.0
933.97,105.0
934.04,103.0
934.1,104.0
934.16,105.0
934.23,121.0
934.29,126.0
934.35,120.0
934.42,133.0
934.48,127.0
934.54,113.0
934.6,117.0
934.67,128.0
934.73,130.0
934.79,138.0
934.86,138.0
934.92,139.0
934.98,146.0
935.05,150.0
935.11,146.0
935.17,159.0
935.23,156.0
935.3,147.0
935.36,145.0
935.42,142.0
935.49,128.0
935.55,125.0
935.61,132.0
935.68,150.0
935.74,134.0
935.8,121.0
935.86,125.0
935.93,123.0
935.99,142.0
936.05,137.0
936.12,135.0
936.18,154.0
936.24,137.0
936.31,136.0
936.37,135.0
936.43,141.0
936.49,132.0
936.56,124.0
936.62,145.0
936.68,136.0
936.75,144.0
936.81,139.0
936.87,135.0
936.94,154.0
937.0,160.0
937.06,132.0
937.12,137.0
937.19,138.0
937.25,114.0
937.31,135.0
937.38,119.0
937.44,139.0
937.5,115.0
937.57,106.0
937.63,126.0
937.69,126.0
937.75,107.0
937.82,88.0
937.88,110.0
937.94,86.0
938.01,106.0
938.07,114.0
938.13,106.0
938.2,104.0
938.26,115.0
938.32,101.0
938.38,106.0
938.45,129.0
938.51,130.0
938.57,114.0
938.64,114.0
938.7,95.0
938.76,99.0
938.83,106.0
938.89,117.0
938.95,113.0
939.01,97.0
939.08,104.0
939.14,101.0
939.2,100.0
939.27,91.0
939.33,94.0
939.39,83.0
939.46,87.0
939.52,87.0
939.58,99.0
939.64,93.0
939.71,97.0
939.77,103.0
939.83,87.0
939.9,80.0
939.96,93.0
940.02,87.0
940.09,77.0
940.15,89.0
940.21,99.0
940.27,103.0
940.34,108.0
940.4,114.0
940.46,100.0
940.53,117.0
940.59,121.0
940.65,129.0
940.72,126.0
940.78,121.0
940.84,131.0
940.9,113.0
940.97,136.0
941.03,129.0
941.09,143.0
941.16,146.0
941.22,140.0
941.28,126.0
941.35,139.0
941.41,142.0
941.47,120.0
941.53,142.0
941.6,159.0
941.66,159.0
941.72,149.0
941.79,155.0
941.85,147.0
941.91,154.0
941.98,167.0
942.04,165.0
942.1,164.0
942.16,151.0
942.23,186.0
942.29,166.0
942.35,161.0
942.42,165.0
942.48,175.0
942.54,183.0
942.61,169.0
942.67,157.0
942.73,155.0
942.79,163.0
942.86,142.0
942.92,129.0
942.98,121.0
943.05,101.0
943.11,105.0
943.17,128.0
943.24,118.0
943.3,128.0
943.36,110.0
943.42,109.0
943.49,93.0
943.55,103.0
943.61,113.0
943.68,95.0
943.74,100.0
943.8,96.0
943.87,110.0
943.93,99.0
943.99,94.0
944.05,114.0
944.12,97.0
944.18,112.0
944.24,111.0
944.31,90.0
944.37,110.0
944.43,113.0
944.5,104.0
944.56,88.0
944.62,93.0
944.68,110.0
944.75,102.0
944.81,110.0
944.87,110.0
944.94,111.0
945.0,110.0
945.06,121.0
945.13,114.0
945.19,103.0
945.25,102.0
945.31,91.0
945.38,78.0
945.44,90.0
945.5,94.0
945.57,81.0
945.63,74.0
945.69,85.0
945.76,82.0
945.82,92.0
945.88,77.0
945.94,88.0
946.01,82.0
946.07,74.0
946.13,78.0
946.2,54.0
946.26,91.0
946.32,75.0
946.39,71.0
946.45,87.0
946.51,77.0
946.57,98.0
946.64,92.0
946.7,76.0
946.76,95.0
946.83,111.0
946.89,101.0
946.95,91.0
947.02,73.0
947.08,73.0
947.14,87.0
947.2,104.0
947.27,85.0
947.33,88.0
947.39,84.0
947.46,82.0
947.52,61.0
947.58,85.0
947.65,69.0
947.71,60.0
947.77,80.0
947.83,77.0
947.9,66.0
947.96,55.0
948.02,54.0
948.09,59.0
948.15,55.0
948.21,47.0
948.28,46.0
948.34,55.0
948.4,70.0
948.46,58.0
948.53,48.0
948.59,45.0
948.65,52.0
948.72,57.0
948.78,59.0
948.84,58.0
948.91,60.0
948.97,40.0
949.03,52.0
949.09,30.0
949.16,55.0
949.22,53.0
949.28,62.0
949.35,55.0
949.41,57.0
949.47,63.0
949.54,49.0
949.6,62.0
949.66,62.0
949.72,63.0
949.79,67.0
949.85,71.0
949.91,52.0
949.98,71.0
950.04,95.0
950.1,86.0
950.17,84.0
950.23,86.0
950.29,77.0
950.35,74.0
950.42,82.0
950.48,66.0
950.54,53.0
950.61,70.0
950.67,66.0
950.73,63.0
950.8,70.0
950.86,73.0
950.92,70.0
950.98,69.0
951.05,65.0
951.11,71.0
951.17,85.0
951.24,92.0
951.3,84.0
951.36,83.0
951.43,69.0
951.49,58.0
951.55,53.0
951.61,27.0
951.68,27.0
951.74,22.0
951.8,34.0
951.87,47.0
951.93,49.0
951.99,49.0
952.06,68.0
952.12,39.0
952.18,36.0
952.24,50.0
952.31,53.0
952.37,65.0
952.43,51.0
952.5,60.0
952.56,43.0
952.62,65.0
952.69,65.0
952.75,50.0
952.81,63.0
952.87,73.0
952.94,77.0
953.0,68.0
953.06,80.0
953.13,81.0
953.19,70.0
953.25,69.0
953.32,78.0
953.38,90.0
953.44,55.0
953.5,70.0
953.57,69.0
953.63,62.0
953.69,44.0
953.76,56.0
953.82,49.0
953.88,50.0
953.95,64.0
954.01,48.0
954.07,60.0
954.13,39.0
954.2,38.0
954.26,23.0
954.32,40.0
954.39,25.0
954.45,23.0
954.51,44.0
954.58,18.0
954.64,19.0
954.7,23.0
954.76,18.0
954.83,49.0
954.89,30.0
954.95,27.0
955.02,33.0
955.08,43.0
955.14,42.0
955.21,32.0
955.27,27.0
955.33,23.0
955.39,24.0
955.46,10.0
955.52,9.0
955.58,30.0
955.65,24.0
955.71,39.0
955.77,46.0
955.84,54.0
955.9,58.0
955.96,43.0
956.02,40.0
956.09,33.0
956.15,60.0
956.21,62.0
956.28,44.0
956.34,59.0
956.4,60.0
956.47,66.0
956.53,73.0
956.59,55.0
956.65,71.0
956.72,62.0
956.78,55.0
956.84,59.0
956.91,82.0
956.97,57.0
957.03,63.0
957.1,73.0
957.16,69.0
957.22,62.0
957.28,67.0
957.35,95.0
957.41,81.0
957.47,77.0
957.54,115.0
957.6,100.0
957.66,108.0
957.73,115.0
957.79,119.0
957.85,117.0
957.91,115.0
957.98,126.0
958.04,96.0
958.1,115.0
958.17,125.0
958.23,97.0
958.29,108.0
958.36,100.0
958.42,115.0
958.48,112.0
958.54,109.0
958.61,118.0
958.67,126.0
958.73,120.0
958.8,126.0
958.86,119.0
958.92,114.0
958.99,113.0
959.05,127.0
959.11,128.0
959.17,99.0
959.24,131.0
959.3,118.0
959.36,131.0
959.43,131.0
959.49,110.0
959.55,130.0
959.62,131.0
959.68,133.0
959.74,118.0
959.8,123.0
959.87,123.0
959.93,115.0
959.99,128.0
960.06,134.0
960.12,120.0
960.18,135.0
960.25,133.0
960.31,119.0
960.37,128.0
960.43,138.0
960.5,97.0
960.56,118.0
960.62,125.0
960.69,138.0
960.75,136.0
960.81,129.0
960.88,132.0
960.94,117.0
961.0,123.0
961.06,140.0
961.13,142.0
961.19,131.0
961.25,146.0
961.32,130.0
961.38,123.0
961.44,98.0
961.51,99.0
961.57,128.0
961.63,126.0
961.69,127.0
961.76,123.0
961.82,120.0
961.88,120.0
961.95,125.0
962.01,109.0
962.07,112.0
962.14,99.0
962.2,94.0
962.26,107.0
962.32,120.0
962.39,105.0
962.45,106.0
962.51,110.0
962.58,98.0
962.64,110.0
962.7,104.0
962.77,110.0
962.83,97.0
962.89,88.0
962.95,81.0
963.02,103.0
963.08,94.0
963.14,82.0
963.21,71.0
963.27,55.0
963.33,71.0
963.4,81.0
963.46,80.0
963.52,97.0
963.58,65.0
963.65,69.0
963.71,95.0
963.77,90.0
963.84,72.0
963.9,76.0
963.96,78.0
964.03,77.0
964.09,95.0
964.15,81.0
964.21,84.0
964.28,77.0
964.34,78.0
964.4,80.0
964.47,83.0
964.53,81.0
964.59,90.0
964.66,90.0
964.72,101.0
964.78,99.0
964.84,108.0
964.91,94.0
964.97,77.0
965.03,76.0
965.1,79.0
965.16,77.0
965.22,70.0
965.29,71.0
965.35,88.0
965.41,84.0
965.47,81.0
965.54,81.0
965.6,81.0
965.66,66.0
965.73,80.0
965.79,78.0
965.85,85.0
965.92,103.0
965.98,96.0
966.04,88.0
966.1,93.0
966.17,113.0
966.23,133.0
966.29,110.0
966.36,106.0
966.42,110.0
966.48,111.0
966.55,98.0
966.61,99.0
966.67,106.0
966.73,104.0
966.8,102.0
966.86,95.0
966.92,110.0
966.99,113.0
967.05,115.0
967.11,123.0
967.18,121.0
967.24,124.0
967.3,121.0
967.36,134.0
967.43,120.0
967.49,115.0
967.55,128.0
967.62,121.0
967.68,131.0
967.74,134.0
967.81,153.0
967.87,138.0
967.93,134.0
967.99,156.0
968.06,148.0
968.12,151.0
968.18,143.0
968.25,131.0
968.31,111.0
968.37,128.0
968.44,152.0
968.5,143.0
968.56,141.0
968.62,132.0
968.69,131.0
968.75,137.0
968.81,135.0
968.88,128.0
968.94,125.0
969.0,128.0
969.07,146.0
969.13,114.0
969.19,136.0
969.25,137.0
969.32,112.0
969.38,143.0
969.44,151.0
969.51,129.0
969.57,129.0
969.63,126.0
969.7,129.0
969.76,123.0
969.82,114.0
969.88,126.0
969.95,111.0
970.01,101.0
970.07,114.0
970.14,96.0
970.2,108.0
970.26,110.0
970.33,99.0
970.39,109.0
970.45,110.0
970.51,96.0
970.58,97.0
970.64,79.0
970.7,95.0
970.77,88.0
970.83,90.0
970.89,68.0
970.96,85.0
971.02,77.0
971.08,77.0
971.14,71.0
971.21,51.0
971.27,48.0
971.33,50.0
971.4,72.0
971.46,61.0
971.52,60.0
971.59,61.0
971.65,61.0
971.71,54.0
971.77,47.0
971.84,77.0
971.9,76.0
971.96,77.0
972.03,61.0
972.09,62.0
972.15,71.0
972.22,77.0
972.28,63.0
972.34,72.0
972.4,69.0
972.47,69.0
972.53,79.0
972.59,99.0
972.66,110.0
972.72,84.0
972.78,82.0
972.85,99.0
972.91,82.0
972.97,89.0
973.03,91.0
973.1,80.0
973.16,82.0
973.22,86.0
973.29,62.0
973.35,62.0
973.41,71.0
973.48,52.0
973.54,53.0
973.6,60.0
973.66,72.0
973.73,81.0
973.79,71.0
973.85,45.0
973.92,22.0
973.98,55.0
974.04,60.0
974.11,42.0
974.17,47.0
974.23,58.0
974.29,32.0
974.36,49.0
974.42,44.0
974.48,53.0
974.55,73.0
974.61,73.0
974.67,76.0
974.74,54.0
974.8,76.0
974.86,80.0
974.92,90.0
974.99,90.0
975.05,95.0
975.11,93.0
975.18,109.0
975.24,110.0
975.3,99.0
975.37,107.0
975.43,115.0
975.49,106.0
975.55,98.0
975.62,101.0
975.68,96.0
975.74,99.0
975.81,113.0
975.87,103.0
975.93,90.0
976.0,101.0
976.06,83.0
976.12,94.0
976.18,88.0
976.25,73.0
976.31,103.0
976.37,99.0
976.44,84.0
976.5,82.0
976.56,63.0
976.63,81.0
976.69,78.0
976.75,83.0
976.81,54.0
976.88,64.0
976.94,71.0
977.0,76.0
977.07,86.0
977.13,80.0
977.19,82.0
977.26,114.0
977.32,106.0
977.38,101.0
977.44,102.0
977.51,90.0
977.57,102.0
977.63,84.0
977.7,80.0
977.76,69.0
977.82,76.0
977.89,86.0
977.95,76.0
978.01,63.0
978.07,70.0
978.14,56.0
978.2,74.0
978.26,61.0
978.33,56.0
978.39,72.0
978.45,53.0
978.52,57.0
978.58,44.0
978.64,52.0
978.7,59.0
978.77,60.0
978.83,57.0
978.89,53.0
978.96,51.0
979.02,44.0
979.08,48.0
979.15,34.0
979.21,40.0
979.27,51.0
979.33,55.0
979.4,40.0
979.46,44.0
979.52,43.0
979.59,37.0
979.65,27.0
979.71,39.0
979.78,53.0
979.84,44.0
979.9,37.0
979.96,33.0
980.03,28.0
980.09,40.0
980.15,40.0
980.22,25.0
980.28,7.0
980.34,8.0
980.41,7.0
980.47,-2.0
980.53,-2.0
980.59,0.0
980.66,-17.0
980.72,-2.0
980.78,19.0
980.85,16.0
980.91,8.0
980.97,14.0
981.04,18.0
981.1,20.0
981.16,13.0
981.22,18.0
981.29,15.0
981.35,21.0
981.41,45.0
981.48,44.0
981.54,33.0
981.6,29.0
981.67,50.0
981.73,48.0
981.79,39.0
981.85,48.0
981.92,27.0
981.98,33.0
982.04,39.0
982.11,13.0
982.17,22.0
982.23,21.0
982.3,47.0
982.36,39.0
982.42,38.0
982.48,68.0
982.55,44.0
982.61,47.0
982.67,48.0
982.74,48.0
982.8,58.0
982.86,52.0
982.93,40.0
982.99,48.0
983.05,38.0
983.11,47.0
983.18,52.0
983.24,47.0
983.3,52.0
983.37,49.0
983.43,38.0
983.49,54.0
983.56,56.0
983.62,51.0
983.68,60.0
983.74,78.0
983.81,76.0
983.87,59.0
983.93,73.0
984.0,84.0
984.06,76.0
984.12,52.0
984.19,77.0
984.25,96.0
984.31,93.0
984.37,97.0
984.44,74.0
984.5,92.0
984.56,111.0
984.63,112.0
984.69,104.0
984.75,84.0
984.82,102.0
984.88,93.0
984.94,97.0
985.0,100.0
985.07,91.0
985.13,88.0
985.19,107.0
985.26,97.0
985.32,95.0
985.38,90.0
985.45,89.0
985.51,91.0
985.57,89.0
985.63,100.0
985.7,99.0
985.76,93.0
985.82,93.0
985.89,99.0
985.95,96.0
986.01,92.0
986.08,87.0
986.14,87.0
986.2,98.0
986.26,99.0
986.33,109.0
986.39,98.0
986.45,89.0
986.52,121.0
986.58,110.0
986.64,110.0
986.71,111.0
986.77,121.0
986.83,128.0
986.89,134.0
986.96,137.0
987.02,127.0
987.08,122.0
987.15,117.0
987.21,127.0
987.27,125.0
987.34,133.0
987.4,113.0
987.46,130.0
987.52,111.0
987.59,107.0
987.65,105.0
987.71,95.0
987.78,99.0
987.84,85.0
987.9,83.0
987.97,82.0
988.03,84.0
988.09,83.0
988.15,87.0
988.22,69.0
988.28,67.0
988.34,88.0
988.41,74.0
988.47,74.0
988.53,81.0
988.6,80.0
988.66,84.0
988.72,81.0
988.78,64.0
988.85,69.0
988.91,72.0
988.97,50.0
989.04,63.0
989.1,60.0
989.16,74.0
989.23,78.0
989.29,90.0
989.35,90.0
989.41,79.0
989.48,68.0
989.54,66.0
989.6,70.0
989.67,64.0
989.73,75.0
989.79,63.0
989.86,83.0
989.92,80.0
989.98,75.0
990.04,71.0
990.11,80.0
990.17,71.0
990.23,78.0
990.3,93.0
990.36,79.0
990.42,87.0
990.49,90.0
990.55,96.0
990.61,97.0
990.67,89.0
990.74,92.0
990.8,102.0
990.86,102.0
990.93,93.0
990.99,102.0
991.05,112.0
991.12,121.0
991.18,115.0
991.24,107.0
991.3,113.0
991.37,115.0
991.43,108.0
991.49,118.0
991.56,134.0
991.62,118.0
991.68,103.0
991.75,115.0
991.81,98.0
991.87,125.0
991.93,129.0
992.0,121.0
992.06,132.0
992.12,121.0
992.19,116.0
992.25,111.0
992.31,106.0
992.38,125.0
992.44,107.0
992.5,111.0
992.56,132.0
992.63,152.0
992.69,133.0
992.75,125.0
992.82,137.0
992.88,165.0
992.94,169.0
993.01,153.0
993.07,162.0
993.13,148.0
993.19,147.0
993.26,151.0
993.32,139.0
993.38,144.0
993.45,166.0
993.51,154.0
993.57,138.0
993.64,157.0
993.7,164.0
993.76,143.0
993.82,165.0
993.89,166.0
993.95,159.0
994.01,145.0
994.08,137.0
994.14,151.0
994.2,125.0
994.27,138.0
994.33,129.0
994.39,128.0
994.45,121.0
994.52,129.0
994.58,126.0
994.64,108.0
994.71,106.0
994.77,94.0
994.83,89.0
994.9,74.0
994.96,105.0
995.02,91.0
995.08,75.0
995.15,84.0
995.21,87.0
995.27,102.0
995.34,82.0
995.4,71.0
995.46,85.0
995.53,78.0
995.59,64.0
995.65,86.0
995.71,70.0
995.78,76.0
995.84,62.0
995.9,86.0
995.97,51.0
996.03,89.0
996.09,96.0
996.16,50.0
996.22,78.0
996.28,79.0
996.34,89.0
996.41,93.0
996.47,92.0
996.53,89.0
996.6,82.0
996.66,71.0
996.72,81.0
996.79,74.0
996.85,78.0
996.91,76.0
996.97,70.0
997.04,48.0
997.1,66.0
997.16,70.0
997.23,53.0
997.29,56.0
997.35,60.0
997.42,69.0
997.48,77.0
997.54,72.0
997.6,73.0
997.67,63.0
997.73,60.0
997.79,74.0
997.86,81.0
997.92,55.0
997.98,47.0
998.05,56.0
998.11,48.0
998.17,34.0
998.23,30.0
998.3,18.0
998.36,33.0
998.42,40.0
998.49,64.0
998.55,42.0
998.61,35.0
998.68,47.0
998.74,54.0
998.8,16.0
998.86,30.0
998.93,55.0
998.99,29.0
999.05,30.0
999.12,38.0
999.18,36.0
999.24,17.0
999.31,34.0
999.37,21.0
999.43,27.0
999.49,22.0
999.56,41.0
999.62,20.0
999.68,5.0
999.75,21.0
999.81,12.0
999.87,19.0
