timestamp,intensity
0,-283.0
0.06,-261.0
0.13,-257.0
0.19,-251.0
0.25,-262.0
0.32,-279.0
0.38,-250.0
0.44,-258.0
0.5,-267.0
0.57,-266.0
0.63,-262.0
0.69,-277.0
0.76,-277.0
0.82,-265.0
0.88,-270.0
0.94,-273.0
1.01,-271.0
1.07,-283.0
1.13,-273.0
1.2,-262.0
1.26,-234.0
1.32,-240.0
1.39,-241.0
1.45,-249.0
1.51,-247.0
1.57,-243.0
1.64,-249.0
1.7,-257.0
1.76,-239.0
1.83,-247.0
1.89,-245.0
1.95,-244.0
2.02,-236.0
2.08,-220.0
2.14,-243.0
2.2,-235.0
2.27,-243.0
2.33,-238.0
2.39,-211.0
2.46,-204.0
2.52,-214.0
2.58,-226.0
2.65,-214.0
2.71,-187.0
2.77,-180.0
2.84,-191.0
2.9,-213.0
2.96,-219.0
3.02,-207.0
3.09,-181.0
3.15,-195.0
3.21,-213.0
3.28,-230.0
3.34,-226.0
3.4,-212.0
3.47,-211.0
3.53,-196.0
3.59,-200.0
3.65,-223.0
3.72,-216.0
3.78,-215.0
3.84,-223.0
3.91,-246.0
3.97,-234.0
4.03,-215.0
4.1,-238.0
4.16,-244.0
4.22,-254.0
4.28,-227.0
4.35,-221.0
4.41,-240.0
4.47,-221.0
4.54,-228.0
4.6,-228.0
4.66,-212.0
4.73,-206.0
4.79,-195.0
4.85,-193.0
4.91,-195.0
4.98,-229.0
5.04,-232.0
5.1,-207.0
5.17,-202.0
5.23,-196.0
5.29,-212.0
5.35,-202.0
5.42,-203.0
5.48,-203.0
5.54,-206.0
5.61,-219.0
5.67,-209.0
5.73,-217.0
5.8,-205.0
5.86,-213.0
5.92,-198.0
5.98,-205.0
6.05,-221.0
6.11,-208.0
6.17,-214.0
6.24,-213.0
6.3,-221.0
6.36,-224.0
6.43,-223.0
6.49,-231.0
6.55,-235.0
6.61,-219.0
6.68,-210.0
6.74,-244.0
6.8,-219.0
6.87,-198.0
6.93,-215.0
6.99,-243.0
7.06,-233.0
7.12,-219.0
7.18,-235.0
7.24,-224.0
7.31,-232.0
7.37,-233.0
7.43,-239.0
7.5,-243.0
7.56,-246.0
7.62,-243.0
7.69,-243.0
7.75,-275.0
7.81,-260.0
7.87,-267.0
7.94,-253.0
8.0,-261.0
8.06,-266.0
8.13,-251.0
8.19,-261.0
8.25,-264.0
8.32,-274.0
8.38,-264.0
8.44,-245.0
8.5,-263.0
8.57,-275.0
8.63,-292.0
8.69,-295.0
8.76,-277.0
8.82,-286.0
8.88,-269.0
8.95,-253.0
9.01,-266.0
9.07,-251.0
9.13,-265.0
9.2,-256.0
9.26,-251.0
9.32,-264.0
9.39,-277.0
9.45,-255.0
9.51,-274.0
9.58,-248.0
9.64,-268.0
9.7,-253.0
9.77,-240.0
9.83,-263.0
9.89,-271.0
9.95,-269.0
10.02,-269.0
10.08,-264.0
10.14,-267.0
10.21,-262.0
10.27,-271.0
10.33,-271.0
10.4,-265.0
10.46,-263.0
10.52,-276.0
10.58,-263.0
10.65,-271.0
10.71,-253.0
10.77,-231.0
10.84,-234.0
10.9,-248.0
10.96,-245.0
11.03,-257.0
11.09,-239.0
11.15,-235.0
11.21,-242.0
11.28,-262.0
11.34,-267.0
11.4,-231.0
11.47,-241.0
11.53,-250.0
11.59,-244.0
11.66,-259.0
11.72,-243.0
11.78,-241.0
11.84,-256.0
11.91,-262.0
11.97,-233.0
12.03,-237.0
12.1,-218.0
12.16,-215.0
12.22,-231.0
12.29,-218.0
12.35,-215.0
12.41,-203.0
12.47,-217.0
12.54,-225.0
12.6,-213.0
12.66,-215.0
12.73,-213.0
12.79,-230.0
12.85,-221.0
12.92,-233.0
12.98,-226.0
13.04,-231.0
13.1,-242.0
13.17,-239.0
13.23,-254.0
13.29,-249.0
13.36,-245.0
13.42,-256.0
13.48,-250.0
13.55,-237.0
13.61,-229.0
13.67,-258.0
13.73,-252.0
13.8,-249.0
13.86,-262.0
13.92,-260.0
13.99,-269.0
14.05,-266.0
14.11,-282.0
14.18,-267.0
14.24,-280.0
14.3,-287.0
14.36,-295.0
14.43,-292.0
14.49,-289.0
14.55,-269.0
14.62,-275.0
14.68,-291.0
14.74,-292.0
14.81,-276.0
14.87,-270.0
14.93,-275.0
14.99,-254.0
15.06,-258.0
15.12,-245.0
15.18,-279.0
15.25,-269.0
15.31,-290.0
15.37,-299.0
15.44,-295.0
15.5,-298.0
15.56,-307.0
15.62,-306.0
15.69,-294.0
15.75,-311.0
15.81,-296.0
15.88,-312.0
15.94,-288.0
16.0,-296.0
16.07,-314.0
16.13,-317.0
16.19,-290.0
16.25,-303.0
16.32,-335.0
16.38,-313.0
16.44,-313.0
16.51,-322.0
16.57,-326.0
16.63,-309.0
16.7,-307.0
16.76,-304.0
16.82,-310.0
16.88,-328.0
16.95,-346.0
17.01,-323.0
17.07,-339.0
17.14,-333.0
17.2,-334.0
17.26,-341.0
17.33,-328.0
17.39,-322.0
17.45,-326.0
17.51,-317.0
17.58,-333.0
17.64,-344.0
17.7,-338.0
17.77,-339.0
17.83,-324.0
17.89,-307.0
17.96,-320.0
18.02,-308.0
18.08,-310.0
18.14,-329.0
18.21,-333.0
18.27,-330.0
18.33,-315.0
18.4,-318.0
18.46,-301.0
18.52,-286.0
18.59,-280.0
18.65,-305.0
18.71,-304.0
18.77,-295.0
18.84,-306.0
18.9,-322.0
18.96,-318.0
19.03,-304.0
19.09,-293.0
19.15,-287.0
19.22,-285.0
19.28,-292.0
19.34,-297.0
19.4,-283.0
19.47,-282.0
19.53,-269.0
19.59,-283.0
19.66,-283.0
19.72,-253.0
19.78,-265.0
19.84,-269.0
19.91,-292.0
19.97,-276.0
20.03,-265.0
20.1,-276.0
20.16,-247.0
20.22,-265.0
20.29,-262.0
20.35,-258.0
20.41,-257.0
20.47,-259.0
20.54,-262.0
20.6,-255.0
20.66,-276.0
20.73,-269.0
20.79,-277.0
20.85,-267.0
20.92,-253.0
20.98,-268.0
21.04,-274.0
21.1,-245.0
21.17,-237.0
21.23,-237.0
21.29,-235.0
21.36,-219.0
21.42,-225.0
21.48,-247.0
21.55,-233.0
21.61,-226.0
21.67,-228.0
21.73,-226.0
21.8,-223.0
21.86,-213.0
21.92,-214.0
21.99,-221.0
22.05,-204.0
22.11,-210.0
22.18,-217.0
22.24,-218.0
22.3,-221.0
22.36,-219.0
22.43,-220.0
22.49,-217.0
22.55,-234.0
22.62,-214.0
22.68,-211.0
22.74,-205.0
22.81,-216.0
22.87,-219.0
22.93,-218.0
22.99,-208.0
23.06,-213.0
23.12,-205.0
23.18,-202.0
23.25,-189.0
23.31,-196.0
23.37,-215.0
23.44,-214.0
23.5,-197.0
23.56,-197.0
23.62,-199.0
23.69,-171.0
23.75,-190.0
23.81,-199.0
23.88,-187.0
23.94,-199.0
24.0,-188.0
24.07,-207.0
24.13,-219.0
24.19,-201.0
24.25,-207.0
24.32,-221.0
24.38,-211.0
24.44,-178.0
24.51,-187.0
24.57,-205.0
24.63,-218.0
24.7,-227.0
24.76,-195.0
24.82,-199.0
24.88,-194.0
24.95,-190.0
25.01,-192.0
25.07,-168.0
25.14,-183.0
25.2,-185.0
25.26,-179.0
25.33,-168.0
25.39,-163.0
25.45,-175.0
25.51,-168.0
25.58,-156.0
25.64,-133.0
25.7,-147.0
25.77,-145.0
25.83,-154.0
25.89,-163.0
25.96,-140.0
26.02,-132.0
26.08,-114.0
26.14,-113.0
26.21,-136.0
26.27,-116.0
26.33,-122.0
26.4,-126.0
26.46,-112.0
26.52,-125.0
26.59,-122.0
26.65,-103.0
26.71,-111.0
26.77,-126.0
26.84,-128.0
26.9,-125.0
26.96,-129.0
27.03,-110.0
27.09,-95.0
27.15,-108.0
27.22,-110.0
27.28,-97.0
27.34,-109.0
27.4,-86.0
27.47,-64.0
27.53,-98.0
27.59,-118.0
27.66,-112.0
27.72,-117.0
27.78,-130.0
27.85,-141.0
27.91,-147.0
27.97,-148.0
28.03,-129.0
28.1,-132.0
28.16,-113.0
28.22,-106.0
28.29,-102.0
28.35,-106.0
28.41,-92.0
28.48,-111.0
28.54,-115.0
28.6,-107.0
28.66,-104.0
28.73,-121.0
28.79,-97.0
28.85,-122.0
28.92,-103.0
28.98,-116.0
29.04,-123.0
29.11,-100.0
29.17,-104.0
29.23,-102.0
29.29,-116.0
29.36,-95.0
29.42,-87.0
29.48,-78.0
29.55,-78.0
29.61,-72.0
29.67,-74.0
29.74,-77.0
29.8,-70.0
29.86,-54.0
29.92,-62.0
29.99,-82.0
30.05,-42.0
30.11,-69.0
30.18,-76.0
30.24,-86.0
30.3,-91.0
30.37,-58.0
30.43,-64.0
30.49,-73.0
30.55,-89.0
30.62,-105.0
30.68,-97.0
30.74,-80.0
30.81,-77.0
30.87,-90.0
30.93,-88.0
31.0,-86.0
31.06,-87.0
31.12,-87.0
31.18,-84.0
31.25,-87.0
31.31,-85.0
31.37,-84.0
31.44,-102.0
31.5,-96.0
31.56,-87.0
31.63,-93.0
31.69,-91.0
31.75,-83.0
31.81,-75.0
31.88,-86.0
31.94,-92.0
32.0,-78.0
32.07,-91.0
32.13,-103.0
32.19,-100.0
32.26,-92.0
32.32,-103.0
32.38,-110.0
32.44,-99.0
32.51,-95.0
32.57,-103.0
32.63,-100.0
32.7,-83.0
32.76,-97.0
32.82,-104.0
32.89,-116.0
32.95,-99.0
33.01,-96.0
33.07,-105.0
33.14,-118.0
33.2,-126.0
33.26,-126.0
33.33,-103.0
33.39,-95.0
33.45,-97.0
33.52,-114.0
33.58,-114.0
33.64,-107.0
33.7,-121.0
33.77,-113.0
33.83,-98.0
33.89,-107.0
33.96,-118.0
34.02,-125.0
34.08,-117.0
34.15,-117.0
34.21,-130.0
34.27,-110.0
34.33,-118.0
34.4,-113.0
34.46,-137.0
34.52,-132.0
34.59,-129.0
34.65,-129.0
34.71,-148.0
34.78,-101.0
34.84,-122.0
34.9,-147.0
34.96,-137.0
35.03,-134.0
35.09,-124.0
35.15,-138.0
35.22,-124.0
35.28,-117.0
35.34,-122.0
35.41,-136.0
35.47,-133.0
35.53,-102.0
35.59,-105.0
35.66,-102.0
35.72,-126.0
35.78,-117.0
35.85,-127.0
35.91,-130.0
35.97,-96.0
36.04,-99.0
36.1,-96.0
36.16,-101.0
36.22,-94.0
36.29,-115.0
36.35,-115.0
36.41,-118.0
36.48,-93.0
36.54,-97.0
36.6,-76.0
36.67,-84.0
36.73,-85.0
36.79,-86.0
36.85,-90.0
36.92,-120.0
36.98,-111.0
37.04,-125.0
37.11,-125.0
37.17,-107.0
37.23,-101.0
37.3,-96.0
37.36,-112.0
37.42,-115.0
37.48,-117.0
37.55,-109.0
37.61,-117.0
37.67,-124.0
37.74,-120.0
37.8,-116.0
37.86,-106.0
37.93,-94.0
37.99,-125.0
38.05,-128.0
38.12,-113.0
38.18,-127.0
38.24,-129.0
38.3,-124.0
38.37,-133.0
38.43,-136.0
38.49,-132.0
38.56,-130.0
38.62,-124.0
38.68,-139.0
38.75,-123.0
38.81,-116.0
38.87,-119.0
38.93,-123.0
39.0,-117.0
39.06,-111.0
39.12,-122.0
39.19,-121.0
39.25,-123.0
39.31,-123.0
39.38,-89.0
39.44,-114.0
39.5,-122.0
39.56,-122.0
39.63,-129.0
39.69,-127.0
39.75,-134.0
39.82,-121.0
39.88,-124.0
39.94,-142.0
40.01,-124.0
40.07,-113.0
40.13,-104.0
40.19,-113.0
40.26,-111.0
40.32,-114.0
40.38,-112.0
40.45,-137.0
40.51,-139.0
40.57,-123.0
40.64,-130.0
40.7,-131.0
40.76,-129.0
40.82,-104.0
40.89,-113.0
40.95,-125.0
41.01,-148.0
41.08,-150.0
41.14,-135.0
41.2,-135.0
41.27,-118.0
41.33,-129.0
41.39,-123.0
41.45,-123.0
41.52,-136.0
41.58,-114.0
41.64,-104.0
41.71,-110.0
41.77,-126.0
41.83,-126.0
41.9,-119.0
41.96,-112.0
42.02,-134.0
42.08,-119.0
42.15,-114.0
42.21,-125.0
42.27,-142.0
42.34,-140.0
42.4,-126.0
42.46,-136.0
42.53,-123.0
42.59,-121.0
42.65,-111.0
42.71,-114.0
42.78,-105.0
42.84,-102.0
42.9,-96.0
42.97,-92.0
43.03,-85.0
43.09,-103.0
43.16,-89.0
43.22,-84.0
43.28,-117.0
43.34,-96.0
43.41,-112.0
43.47,-95.0
43.53,-114.0
43.6,-138.0
43.66,-100.0
43.72,-108.0
43.79,-108.0
43.85,-122.0
43.91,-119.0
43.97,-124.0
44.04,-125.0
44.1,-141.0
44.16,-105.0
44.23,-115.0
44.29,-131.0
44.35,-121.0
44.42,-119.0
44.48,-100.0
44.54,-130.0
44.6,-110.0
44.67,-86.0
44.73,-75.0
44.79,-65.0
44.86,-83.0
44.92,-80.0
44.98,-61.0
45.05,-84.0
45.11,-84.0
45.17,-75.0
45.23,-67.0
45.3,-53.0
45.36,-70.0
45.42,-63.0
45.49,-71.0
45.55,-83.0
45.61,-65.0
45.68,-69.0
45.74,-87.0
45.8,-78.0
45.86,-49.0
45.93,-71.0
45.99,-69.0
46.05,-79.0
46.12,-77.0
46.18,-75.0
46.24,-108.0
46.31,-98.0
46.37,-94.0
46.43,-93.0
46.49,-85.0
46.56,-90.0
46.62,-86.0
46.68,-71.0
46.75,-86.0
46.81,-84.0
46.87,-95.0
46.94,-69.0
47.0,-78.0
47.06,-111.0
47.12,-71.0
47.19,-73.0
47.25,-73.0
47.31,-81.0
47.38,-62.0
47.44,-43.0
47.5,-63.0
47.57,-44.0
47.63,-48.0
47.69,-67.0
47.75,-54.0
47.82,-60.0
47.88,-36.0
47.94,-64.0
48.01,-78.0
48.07,-70.0
48.13,-72.0
48.2,-46.0
48.26,-63.0
48.32,-66.0
48.38,-78.0
48.45,-72.0
48.51,-57.0
48.57,-70.0
48.64,-61.0
48.7,-80.0
48.76,-80.0
48.83,-68.0
48.89,-88.0
48.95,-79.0
49.01,-53.0
49.08,-68.0
49.14,-88.0
49.2,-70.0
49.27,-69.0
49.33,-73.0
49.39,-72.0
49.46,-80.0
49.52,-96.0
49.58,-86.0
49.64,-82.0
49.71,-78.0
49.77,-87.0
49.83,-69.0
49.9,-91.0
49.96,-74.0
50.02,-71.0
50.09,-74.0
50.15,-87.0
50.21,-95.0
50.27,-66.0
50.34,-85.0
50.4,-83.0
50.46,-57.0
50.53,-76.0
50.59,-55.0
50.65,-66.0
50.72,-66.0
50.78,-59.0
50.84,-70.0
50.9,-73.0
50.97,-79.0
51.03,-97.0
51.09,-77.0
51.16,-59.0
51.22,-62.0
51.28,-80.0
51.35,-59.0
51.41,-76.0
51.47,-80.0
51.53,-58.0
51.6,-64.0
51.66,-59.0
51.72,-51.0
51.79,-50.0
51.85,-37.0
51.91,-56.0
51.98,-70.0
52.04,-40.0
52.1,-27.0
52.16,-33.0
52.23,-34.0
52.29,-20.0
52.35,-10.0
52.42,-9.0
52.48,0.0
52.54,-8.0
52.61,-32.0
52.67,-18.0
52.73,-10.0
52.79,-30.0
52.86,-23.0
52.92,-8.0
52.98,-13.0
53.05,-11.0
53.11,-20.0
53.17,0.0
53.24,-23.0
53.3,-10.0
53.36,3.0
53.42,11.0
53.49,-9.0
53.55,2.0
53.61,-12.0
53.68,-8.0
53.74,-18.0
53.8,-18.0
53.87,0.0
53.93,-14.0
53.99,-21.0
54.05,-23.0
54.12,-37.0
54.18,-29.0
54.24,-34.0
54.31,-33.0
54.37,-34.0
54.43,-29.0
54.5,-39.0
54.56,-62.0
54.62,-49.0
54.68,-48.0
54.75,-50.0
54.81,-50.0
54.87,-34.0
54.94,-20.0
55.0,-47.0
55.06,-55.0
55.13,-43.0
55.19,-27.0
55.25,-50.0
55.31,-40.0
55.38,-32.0
55.44,-30.0
55.5,-39.0
55.57,-28.0
55.63,-29.0
55.69,-27.0
55.76,-34.0
55.82,-23.0
55.88,-37.0
55.94,-35.0
56.01,-39.0
56.07,-50.0
56.13,-53.0
56.2,-53.0
56.26,-55.0
56.32,-69.0
56.39,-57.0
56.45,-52.0
56.51,-41.0
56.57,-52.0
56.64,-58.0
56.7,-57.0
56.76,-71.0
56.83,-83.0
56.89,-91.0
56.95,-69.0
57.02,-43.0
57.08,-62.0
57.14,-55.0
57.2,-60.0
57.27,-51.0
57.33,-54.0
57.39,-50.0
57.46,-30.0
57.52,-29.0
57.58,-32.0
57.65,-40.0
57.71,-47.0
57.77,-44.0
57.83,-36.0
57.9,-37.0
57.96,-49.0
58.02,-50.0
58.09,-57.0
58.15,-42.0
58.21,-67.0
58.28,-53.0
58.34,-66.0
58.4,-71.0
58.46,-66.0
58.53,-81.0
58.59,-57.0
58.65,-67.0
58.72,-50.0
58.78,-54.0
58.84,-48.0
58.91,-47.0
58.97,-53.0
59.03,-64.0
59.09,-62.0
59.16,-61.0
59.22,-38.0
59.28,-58.0
59.35,-62.0
59.41,-57.0
59.47,-58.0
59.54,-50.0
59.6,-40.0
59.66,-50.0
59.72,-58.0
59.79,-69.0
59.85,-54.0
59.91,-51.0
59.98,-62.0
60.04,-84.0
60.1,-73.0
60.17,-72.0
60.23,-73.0
60.29,-66.0
60.35,-77.0
60.42,-65.0
60.48,-90.0
60.54,-98.0
60.61,-81.0
60.67,-73.0
60.73,-76.0
60.8,-71.0
60.86,-73.0
60.92,-73.0
60.98,-69.0
61.05,-89.0
61.11,-91.0
61.17,-86.0
61.24,-78.0
61.3,-90.0
61.36,-95.0
61.43,-84.0
61.49,-75.0
61.55,-81.0
61.61,-82.0
61.68,-70.0
61.74,-83.0
61.8,-75.0
61.87,-76.0
61.93,-57.0
61.99,-59.0
62.06,-61.0
62.12,-52.0
62.18,-62.0
62.24,-43.0
62.31,-55.0
62.37,-84.0
62.43,-55.0
62.5,-53.0
62.56,-57.0
62.62,-58.0
62.69,-62.0
62.75,-48.0
62.81,-48.0
62.87,-44.0
62.94,-52.0
63.0,-62.0
63.06,-48.0
63.13,-56.0
63.19,-43.0
63.25,-27.0
63.32,-25.0
63.38,-22.0
63.44,-5.0
63.5,-13.0
63.57,-39.0
63.63,-26.0
63.69,-22.0
63.76,-18.0
63.82,-30.0
63.88,-7.0
63.95,-2.0
64.01,-6.0
64.07,1.0
64.13,-9.0
64.2,-1.0
64.26,3.0
64.32,10.0
64.39,13.0
64.45,5.0
64.51,10.0
64.58,17.0
64.64,27.0
64.7,10.0
64.76,13.0
64.83,13.0
64.89,10.0
64.95,21.0
65.02,24.0
65.08,31.0
65.14,18.0
65.21,8.0
65.27,17.0
65.33,-2.0
65.39,6.0
65.46,1.0
65.52,4.0
65.58,-8.0
65.65,-20.0
65.71,-1.0
65.77,-25.0
65.84,-41.0
65.9,-15.0
65.96,-4.0
66.02,-15.0
66.09,-20.0
66.15,-18.0
66.21,-37.0
66.28,-4.0
66.34,-4.0
66.4,-30.0
66.47,-15.0
66.53,-21.0
66.59,-22.0
66.65,-35.0
66.72,-24.0
66.78,-19.0
66.84,-29.0
66.91,-27.0
66.97,-39.0
67.03,-26.0
67.1,-19.0
67.16,-20.0
67.22,-27.0
67.28,-23.0
67.35,-13.0
67.41,-6.0
67.47,-11.0
67.54,-9.0
67.6,9.0
67.66,8.0
67.73,-3.0
67.79,-20.0
67.85,-6.0
67.91,-18.0
67.98,-40.0
68.04,-30.0
68.1,-39.0
68.17,-50.0
68.23,-45.0
68.29,-70.0
68.36,-70.0
68.42,-47.0
68.48,-54.0
68.54,-47.0
68.61,-36.0
68.67,-16.0
68.73,-35.0
68.8,-35.0
68.86,-29.0
68.92,-27.0
68.99,-32.0
69.05,-18.0
69.11,-30.0
69.17,-21.0
69.24,-46.0
69.3,-40.0
69.36,-51.0
69.43,-22.0
69.49,4.0
69.55,-14.0
69.62,-18.0
69.68,-18.0
69.74,-27.0
69.8,-17.0
69.87,-23.0
69.93,-15.0
69.99,-26.0
70.06,-6.0
70.12,-6.0
70.18,-10.0
70.25,0.0
70.31,-10.0
70.37,2.0
70.43,-17.0
70.5,15.0
70.56,-5.0
70.62,-26.0
70.69,-20.0
70.75,-3.0
70.81,12.0
70.88,-13.0
70.94,-23.0
71.0,-28.0
71.06,-16.0
71.13,-27.0
71.19,-12.0
71.25,-26.0
71.32,-29.0
71.38,-15.0
71.44,-21.0
71.51,-24.0
71.57,-33.0
71.63,-39.0
71.69,-35.0
71.76,-38.0
71.82,-29.0
71.88,-37.0
71.95,-28.0
72.01,-26.0
72.07,-60.0
72.14,-63.0
72.2,-72.0
72.26,-64.0
72.32,-47.0
72.39,-52.0
72.45,-44.0
72.51,-47.0
72.58,-54.0
72.64,-39.0
72.7,-43.0
72.77,-63.0
72.83,-59.0
72.89,-59.0
72.95,-45.0
73.02,-63.0
73.08,-76.0
73.14,-74.0
73.21,-77.0
73.27,-82.0
73.33,-75.0
73.4,-72.0
73.46,-51.0
73.52,-76.0
73.58,-78.0
73.65,-68.0
73.71,-71.0
73.77,-64.0
73.84,-60.0
73.9,-66.0
73.96,-81.0
74.03,-83.0
74.09,-91.0
74.15,-86.0
74.21,-85.0
74.28,-81.0
74.34,-77.0
74.4,-94.0
74.47,-106.0
74.53,-85.0
74.59,-83.0
74.66,-73.0
74.72,-83.0
74.78,-87.0
74.84,-89.0
74.91,-103.0
74.97,-88.0
75.03,-70.0
75.1,-78.0
75.16,-72.0
75.22,-97.0
75.29,-85.0
75.35,-97.0
75.41,-103.0
75.47,-80.0
75.54,-71.0
75.6,-101.0
75.66,-98.0
75.73,-68.0
75.79,-81.0
75.85,-70.0
75.92,-64.0
75.98,-67.0
76.04,-82.0
76.1,-91.0
76.17,-99.0
76.23,-99.0
76.29,-98.0
76.36,-118.0
76.42,-108.0
76.48,-106.0
76.55,-111.0
76.61,-114.0
76.67,-116.0
76.73,-113.0
76.8,-105.0
76.86,-110.0
76.92,-91.0
76.99,-106.0
77.05,-93.0
77.11,-101.0
77.18,-103.0
77.24,-82.0
77.3,-67.0
77.36,-78.0
77.43,-86.0
77.49,-56.0
77.55,-52.0
77.62,-62.0
77.68,-59.0
77.74,-53.0
77.81,-37.0
77.87,-27.0
77.93,-28.0
77.99,-35.0
78.06,-41.0
78.12,-34.0
78.18,-28.0
78.25,-17.0
78.31,-21.0
78.37,-35.0
78.44,-18.0
78.5,-4.0
78.56,-2.0
78.62,-10.0
78.69,-5.0
78.75,14.0
78.81,-1.0
78.88,3.0
78.94,-1.0
79.0,6.0
79.07,-6.0
79.13,-4.0
79.19,-2.0
79.25,9.0
79.32,25.0
79.38,20.0
79.44,25.0
79.51,24.0
79.57,25.0
79.63,25.0
79.7,29.0
79.76,21.0
79.82,39.0
79.88,33.0
79.95,25.0
80.01,20.0
80.07,22.0
80.14,21.0
80.2,34.0
80.26,47.0
80.33,21.0
80.39,35.0
80.45,41.0
80.51,38.0
80.58,10.0
80.64,30.0
80.7,50.0
80.77,44.0
80.83,29.0
80.89,44.0
80.96,47.0
81.02,53.0
81.08,75.0
81.14,84.0
81.21,72.0
81.27,70.0
81.33,72.0
81.4,62.0
81.46,78.0
81.52,69.0
81.59,77.0
81.65,78.0
81.71,87.0
81.77,73.0
81.84,75.0
81.9,68.0
81.96,47.0
82.03,70.0
82.09,71.0
82.15,46.0
82.22,55.0
82.28,76.0
82.34,61.0
82.4,62.0
82.47,69.0
82.53,68.0
82.59,60.0
82.66,43.0
82.72,59.0
82.78,61.0
82.85,54.0
82.91,87.0
82.97,80.0
83.03,84.0
83.1,81.0
83.16,70.0
83.22,81.0
83.29,72.0
83.35,76.0
83.41,84.0
83.48,91.0
83.54,102.0
83.6,88.0
83.66,87.0
83.73,99.0
83.79,115.0
83.85,122.0
83.92,119.0
83.98,120.0
84.04,109.0
84.11,98.0
84.17,118.0
84.23,126.0
84.29,119.0
84.36,124.0
84.42,134.0
84.48,132.0
84.55,124.0
84.61,158.0
84.67,132.0
84.74,146.0
84.8,119.0
84.86,108.0
84.92,119.0
84.99,116.0
85.05,113.0
85.11,113.0
85.18,122.0
85.24,120.0
85.3,124.0
85.37,122.0
85.43,140.0
85.49,133.0
85.55,117.0
85.62,138.0
85.68,140.0
85.74,162.0
85.81,143.0
85.87,165.0
85.93,139.0
86.0,140.0
86.06,149.0
86.12,144.0
86.18,138.0
86.25,151.0
86.31,138.0
86.37,144.0
86.44,152.0
86.5,145.0
86.56,137.0
86.63,120.0
86.69,134.0
86.75,135.0
86.81,139.0
86.88,163.0
86.94,142.0
87.0,148.0
87.07,152.0
87.13,139.0
87.19,130.0
87.26,146.0
87.32,154.0
87.38,127.0
87.44,120.0
87.51,130.0
87.57,128.0
87.63,122.0
87.7,105.0
87.76,109.0
87.82,120.0
87.89,130.0
87.95,116.0
88.01,113.0
88.07,114.0
88.14,113.0
88.2,110.0
88.26,103.0
88.33,115.0
88.39,119.0
88.45,95.0
88.52,85.0
88.58,84.0
88.64,89.0
88.7,109.0
88.77,108.0
88.83,82.0
88.89,79.0
88.96,95.0
89.02,95.0
89.08,80.0
89.15,96.0
89.21,103.0
89.27,98.0
89.33,72.0
89.4,77.0
89.46,94.0
89.52,86.0
89.59,76.0
89.65,74.0
89.71,73.0
89.78,56.0
89.84,41.0
89.9,56.0
89.96,69.0
90.03,71.0
90.09,83.0
90.15,88.0
90.22,79.0
90.28,98.0
90.34,76.0
90.41,73.0
90.47,84.0
90.53,70.0
90.59,82.0
90.66,92.0
90.72,53.0
90.78,66.0
90.85,47.0
90.91,51.0
90.97,43.0
91.04,43.0
91.1,28.0
91.16,14.0
91.22,13.0
91.29,21.0
91.35,17.0
91.41,14.0
91.48,35.0
91.54,25.0
91.6,20.0
91.67,31.0
91.73,26.0
91.79,14.0
91.85,15.0
91.92,-3.0
91.98,19.0
92.04,14.0
92.11,6.0
92.17,-3.0
92.23,-14.0
92.3,-4.0
92.36,-25.0
92.42,-3.0
92.48,-3.0
92.55,-20.0
92.61,-17.0
92.67,-7.0
92.74,-16.0
92.8,-16.0
92.86,-20.0
92.93,-28.0
92.99,-41.0
93.05,-45.0
93.11,-47.0
93.18,-50.0
93.24,-41.0
93.3,-39.0
93.37,-37.0
93.43,-35.0
93.49,-35.0
93.56,-45.0
93.62,-49.0
93.68,-39.0
93.74,-40.0
93.81,-34.0
93.87,-22.0
93.93,-21.0
94.0,-56.0
94.06,-39.0
94.12,-40.0
94.19,-33.0
94.25,-38.0
94.31,-55.0
94.37,-41.0
94.44,-31.0
94.5,-33.0
94.56,-41.0
94.63,-47.0
94.69,-47.0
94.75,-19.0
94.82,-28.0
94.88,-20.0
94.94,-34.0
95.0,-44.0
95.07,-36.0
95.13,-19.0
95.19,-11.0
95.26,-22.0
95.32,-1.0
95.38,-10.0
95.45,-5.0
95.51,-8.0
95.57,-18.0
95.63,-7.0
95.7,1.0
95.76,-6.0
95.82,1.0
95.89,-1.0
95.95,-4.0
96.01,11.0
96.08,13.0
96.14,3.0
96.2,-15.0
96.26,-4.0
96.33,7.0
96.39,-10.0
96.45,-16.0
96.52,-8.0
96.58,-13.0
96.64,-7.0
96.71,-15.0
96.77,-15.0
96.83,-17.0
96.89,-10.0
96.96,-8.0
97.02,-14.0
97.08,3.0
97.15,13.0
97.21,16.0
97.27,17.0
97.34,35.0
97.4,25.0
97.46,16.0
97.52,4.0
97.59,17.0
97.65,35.0
97.71,28.0
97.78,40.0
97.84,32.0
97.9,33.0
97.97,22.0
98.03,26.0
98.09,16.0
98.15,13.0
98.22,26.0
98.28,46.0
98.34,35.0
98.41,45.0
98.47,48.0
98.53,46.0
98.6,31.0
98.66,42.0
98.72,43.0
98.78,54.0
98.85,54.0
98.91,61.0
98.97,81.0
99.04,53.0
99.1,51.0
99.16,44.0
99.23,21.0
99.29,36.0
99.35,64.0
99.41,39.0
99.48,36.0
99.54,15.0
99.6,25.0
99.67,16.0
99.73,9.0
99.79,17.0
99.86,17.0
99.92,20.0
99.98,25.0
100.04,19.0
100.11,4.0
100.17,27.0
100.23,15.0
100.3,27.0
100.36,25.0
100.42,24.0
100.49,52.0
100.55,49.0
100.61,32.0
100.67,37.0
100.74,48.0
100.8,65.0
100.86,36.0
100.93,44.0
100.99,72.0
101.05,58.0
101.12,71.0
101.18,52.0
101.24,61.0
101.3,59.0
101.37,68.0
101.43,78.0
101.49,69.0
101.56,70.0
101.62,91.0
101.68,62.0
101.75,74.0
101.81,80.0
101.87,70.0
101.93,85.0
102.0,79.0
102.06,80.0
102.12,65.0
102.19,59.0
102.25,58.0
102.31,68.0
102.38,87.0
102.44,68.0
102.5,98.0
102.56,126.0
102.63,105.0
102.69,103.0
102.75,118.0
102.82,126.0
102.88,134.0
102.94,134.0
103.01,122.0
103.07,114.0
103.13,134.0
103.19,131.0
103.26,138.0
103.32,127.0
103.38,127.0
103.45,145.0
103.51,158.0
103.57,143.0
103.64,148.0
103.7,161.0
103.76,157.0
103.82,167.0
103.89,171.0
103.95,170.0
104.01,177.0
104.08,165.0
104.14,156.0
104.2,156.0
104.27,151.0
104.33,160.0
104.39,154.0
104.45,164.0
104.52,170.0
104.58,168.0
104.64,170.0
104.71,143.0
104.77,154.0
104.83,168.0
104.9,146.0
104.96,138.0
105.02,153.0
105.08,132.0
105.15,119.0
105.21,123.0
105.27,142.0
105.34,135.0
105.4,151.0
105.46,133.0
105.53,147.0
105.59,137.0
105.65,133.0
105.71,138.0
105.78,136.0
105.84,152.0
105.9,127.0
105.97,150.0
106.03,157.0
106.09,134.0
106.16,125.0
106.22,146.0
106.28,140.0
106.34,115.0
106.41,112.0
106.47,115.0
106.53,116.0
106.6,105.0
106.66,105.0
106.72,127.0
106.79,142.0
106.85,126.0
106.91,115.0
106.97,118.0
107.04,125.0
107.1,126.0
107.16,109.0
107.23,96.0
107.29,97.0
107.35,113.0
107.42,85.0
107.48,91.0
107.54,83.0
107.6,86.0
107.67,66.0
107.73,82.0
107.79,89.0
107.86,105.0
107.92,79.0
107.98,94.0
108.05,96.0
108.11,83.0
108.17,81.0
108.23,87.0
108.3,76.0
108.36,55.0
108.42,76.0
108.49,83.0
108.55,72.0
108.61,76.0
108.68,76.0
108.74,83.0
108.8,83.0
108.86,83.0
108.93,75.0
108.99,66.0
109.05,52.0
109.12,68.0
109.18,78.0
109.24,59.0
109.31,63.0
109.37,68.0
109.43,61.0
109.49,72.0
109.56,74.0
109.62,92.0
109.68,79.0
109.75,60.0
109.81,72.0
109.87,53.0
109.94,62.0
110.0,49.0
110.06,49.0
110.12,62.0
110.19,52.0
110.25,44.0
110.31,30.0
110.38,46.0
110.44,52.0
110.5,37.0
110.57,59.0
110.63,51.0
110.69,56.0
110.75,54.0
110.82,39.0
110.88,41.0
110.94,43.0
111.01,55.0
111.07,44.0
111.13,32.0
111.2,24.0
111.26,24.0
111.32,25.0
111.38,8.0
111.45,21.0
111.51,27.0
111.57,32.0
111.64,25.0
111.7,34.0
111.76,37.0
111.83,35.0
111.89,31.0
111.95,20.0
112.01,23.0
112.08,38.0
112.14,33.0
112.2,19.0
112.27,9.0
112.33,25.0
112.39,38.0
112.46,41.0
112.52,30.0
112.58,21.0
112.64,31.0
112.71,31.0
112.77,36.0
112.83,44.0
112.9,59.0
112.96,42.0
113.02,55.0
113.09,65.0
113.15,45.0
113.21,50.0
113.27,68.0
113.34,67.0
113.4,53.0
113.46,41.0
113.53,56.0
113.59,50.0
113.65,30.0
113.72,29.0
113.78,31.0
113.84,35.0
113.9,39.0
113.97,41.0
114.03,34.0
114.09,70.0
114.16,49.0
114.22,33.0
114.28,36.0
114.35,31.0
114.41,41.0
114.47,42.0
114.53,50.0
114.6,52.0
114.66,50.0
114.72,50.0
114.79,54.0
114.85,48.0
114.91,35.0
114.98,57.0
115.04,67.0
115.1,74.0
115.16,89.0
115.23,75.0
115.29,45.0
115.35,75.0
115.42,68.0
115.48,68.0
115.54,55.0
115.61,76.0
115.67,57.0
115.73,41.0
115.79,48.0
115.86,57.0
115.92,43.0
115.98,44.0
116.05,20.0
116.11,47.0
116.17,30.0
116.24,10.0
116.3,30.0
116.36,30.0
116.42,30.0
116.49,24.0
116.55,24.0
116.61,6.0
116.68,22.0
116.74,15.0
116.8,38.0
116.87,41.0
116.93,45.0
116.99,49.0
117.05,33.0
117.12,64.0
117.18,31.0
117.24,18.0
117.31,24.0
117.37,39.0
117.43,38.0
117.5,22.0
117.56,11.0
117.62,10.0
117.68,8.0
117.75,6.0
117.81,-5.0
117.87,15.0
117.94,14.0
118.0,5.0
118.06,16.0
118.13,22.0
118.19,30.0
118.25,29.0
118.31,34.0
118.38,47.0
118.44,29.0
118.5,48.0
118.57,59.0
118.63,49.0
118.69,49.0
118.76,50.0
118.82,55.0
118.88,42.0
118.94,58.0
119.01,72.0
119.07,71.0
119.13,78.0
119.2,78.0
119.26,75.0
119.32,82.0
119.39,72.0
119.45,52.0
119.51,55.0
119.57,71.0
119.64,93.0
119.7,94.0
119.76,77.0
119.83,87.0
119.89,84.0
119.95,77.0
120.02,93.0
120.08,91.0
120.14,114.0
120.2,93.0
120.27,86.0
120.33,96.0
120.39,100.0
120.46,115.0
120.52,106.0
120.58,90.0
120.65,97.0
120.71,99.0
120.77,121.0
120.83,108.0
120.9,118.0
120.96,100.0
121.02,98.0
121.09,97.0
121.15,69.0
121.21,95.0
121.28,96.0
121.34,85.0
121.4,95.0
121.46,80.0
121.53,89.0
121.59,76.0
121.65,70.0
121.72,94.0
121.78,72.0
121.84,85.0
121.91,90.0
121.97,88.0
122.03,80.0
122.09,66.0
122.16,75.0
122.22,93.0
122.28,84.0
122.35,87.0
122.41,78.0
122.47,74.0
122.54,60.0
122.6,64.0
122.66,64.0
122.72,68.0
122.79,83.0
122.85,55.0
122.91,60.0
122.98,66.0
123.04,68.0
123.1,82.0
123.17,57.0
123.23,53.0
123.29,56.0
123.35,59.0
123.42,52.0
123.48,52.0
123.54,68.0
123.61,66.0
123.67,61.0
123.73,53.0
123.8,66.0
123.86,85.0
123.92,74.0
123.98,72.0
124.05,70.0
124.11,47.0
124.17,69.0
124.24,74.0
124.3,79.0
124.36,70.0
124.43,76.0
124.49,55.0
124.55,70.0
124.61,53.0
124.68,57.0
124.74,63.0
124.8,48.0
124.87,31.0
124.93,39.0
124.99,31.0
125.06,32.0
125.12,27.0
125.18,2.0
125.24,5.0
125.31,22.0
125.37,38.0
125.43,15.0
125.5,5.0
125.56,-17.0
125.62,8.0
125.69,23.0
125.75,5.0
125.81,14.0
125.87,16.0
125.94,29.0
126.0,2.0
126.06,-3.0
126.13,3.0
126.19,-9.0
126.25,-7.0
126.32,-19.0
126.38,-6.0
126.44,-3.0
126.5,-10.0
126.57,-26.0
126.63,-40.0
126.69,-47.0
126.76,-37.0
126.82,-13.0
126.88,-27.0
126.95,-25.0
127.01,-18.0
127.07,-20.0
127.13,-21.0
127.2,-18.0
127.26,-38.0
127.32,-30.0
127.39,-28.0
127.45,-37.0
127.51,-44.0
127.58,-24.0
127.64,-43.0
127.7,-58.0
127.76,-17.0
127.83,-29.0
127.89,-50.0
127.95,-55.0
128.02,-50.0
128.08,-36.0
128.14,-31.0
128.21,-42.0
128.27,-36.0
128.33,-47.0
128.39,-44.0
128.46,-38.0
128.52,-43.0
128.58,-47.0
128.65,-51.0
128.71,-34.0
128.77,-26.0
128.84,-23.0
128.9,-18.0
128.96,-33.0
129.02,-32.0
129.09,-38.0
129.15,-19.0
129.21,-20.0
129.28,-27.0
129.34,-21.0
129.4,-16.0
129.47,-9.0
129.53,-35.0
129.59,-14.0
129.65,-15.0
129.72,-10.0
129.78,-23.0
129.84,-20.0
129.91,-15.0
129.97,-21.0
130.03,4.0
130.1,-7.0
130.16,6.0
130.22,3.0
130.28,-3.0
130.35,2.0
130.41,11.0
130.47,18.0
130.54,-8.0
130.6,2.0
130.66,-11.0
130.73,-5.0
130.79,-5.0
130.85,3.0
130.91,12.0
130.98,-9.0
131.04,-14.0
131.1,-4.0
131.17,-10.0
131.23,2.0
131.29,0.0
131.36,-17.0
131.42,-20.0
131.48,15.0
131.54,19.0
131.61,20.0
131.67,16.0
131.73,17.0
131.8,18.0
131.86,1.0
131.92,-7.0
131.99,3.0
132.05,2.0
132.11,-9.0
132.17,-17.0
132.24,-11.0
132.3,-17.0
132.36,-7.0
132.43,6.0
132.49,8.0
132.55,-8.0
132.62,-26.0
132.68,-9.0
132.74,-12.0
132.8,0.0
132.87,-16.0
132.93,-17.0
132.99,-20.0
133.06,-16.0
133.12,-20.0
133.18,-13.0
133.25,-4.0
133.31,-18.0
133.37,-1.0
133.43,1.0
133.5,6.0
133.56,-4.0
133.62,15.0
133.69,20.0
133.75,13.0
133.81,26.0
133.88,29.0
133.94,42.0
134.0,4.0
134.06,13.0
134.13,29.0
134.19,35.0
134.25,42.0
134.32,36.0
134.38,50.0
134.44,46.0
134.51,48.0
134.57,50.0
134.63,27.0
134.69,41.0
134.76,40.0
134.82,77.0
134.88,51.0
134.95,42.0
135.01,54.0
135.07,73.0
135.14,55.0
135.2,38.0
135.26,74.0
135.32,66.0
135.39,67.0
135.45,54.0
135.51,60.0
135.58,64.0
135.64,94.0
135.7,80.0
135.77,64.0
135.83,56.0
135.89,66.0
135.95,55.0
136.02,86.0
136.08,93.0
136.14,95.0
136.21,116.0
136.27,121.0
136.33,107.0
136.4,124.0
136.46,112.0
136.52,142.0
136.58,138.0
136.65,127.0
136.71,142.0
136.77,150.0
136.84,140.0
136.9,147.0
136.96,151.0
137.03,151.0
137.09,152.0
137.15,132.0
137.21,140.0
137.28,130.0
137.34,155.0
137.4,153.0
137.47,143.0
137.53,146.0
137.59,143.0
137.66,129.0
137.72,139.0
137.78,137.0
137.84,133.0
137.91,146.0
137.97,154.0
138.03,154.0
138.1,123.0
138.16,122.0
138.22,144.0
138.29,132.0
138.35,132.0
138.41,139.0
138.47,134.0
138.54,141.0
138.6,144.0
138.66,136.0
138.73,154.0
138.79,166.0
138.85,147.0
138.92,147.0
138.98,136.0
139.04,151.0
139.1,181.0
139.17,151.0
139.23,151.0
139.29,157.0
139.36,145.0
139.42,126.0
139.48,145.0
139.55,144.0
139.61,148.0
139.67,129.0
139.73,145.0
139.8,135.0
139.86,113.0
139.92,152.0
139.99,120.0
140.05,115.0
140.11,136.0
140.18,123.0
140.24,118.0
140.3,107.0
140.36,119.0
140.43,120.0
140.49,136.0
140.55,116.0
140.62,136.0
140.68,121.0
140.74,124.0
140.81,141.0
140.87,136.0
140.93,119.0
140.99,119.0
141.06,136.0
141.12,106.0
141.18,85.0
141.25,106.0
141.31,107.0
141.37,128.0
141.44,123.0
141.5,124.0
141.56,92.0
141.62,107.0
141.69,109.0
141.75,104.0
141.81,122.0
141.88,102.0
141.94,107.0
142.0,103.0
142.07,104.0
142.13,101.0
142.19,90.0
142.25,81.0
142.32,81.0
142.38,87.0
142.44,60.0
142.51,77.0
142.57,93.0
142.63,69.0
142.7,60.0
142.76,61.0
142.82,44.0
142.88,41.0
142.95,50.0
143.01,73.0
143.07,63.0
143.14,75.0
143.2,48.0
143.26,47.0
143.33,50.0
143.39,42.0
143.45,59.0
143.51,48.0
143.58,41.0
143.64,34.0
143.7,36.0
143.77,38.0
143.83,15.0
143.89,13.0
143.96,33.0
144.02,33.0
144.08,26.0
144.14,25.0
144.21,26.0
144.27,30.0
144.33,39.0
144.4,38.0
144.46,38.0
144.52,47.0
144.59,40.0
144.65,32.0
144.71,32.0
144.77,59.0
144.84,78.0
144.9,52.0
144.96,54.0
145.03,54.0
145.09,63.0
145.15,61.0
145.22,65.0
145.28,98.0
145.34,97.0
145.4,101.0
145.47,96.0
145.53,94.0
145.59,92.0
145.66,84.0
145.72,110.0
145.78,87.0
145.85,89.0
145.91,89.0
145.97,85.0
146.03,87.0
146.1,82.0
146.16,64.0
146.22,55.0
146.29,74.0
146.35,59.0
146.41,56.0
146.47,57.0
146.54,43.0
146.6,34.0
146.66,59.0
146.73,57.0
146.79,53.0
146.85,52.0
146.92,63.0
146.98,46.0
147.04,59.0
147.1,55.0
147.17,34.0
147.23,47.0
147.29,59.0
147.36,67.0
147.42,61.0
147.48,38.0
147.55,35.0
147.61,23.0
147.67,40.0
147.73,40.0
147.8,52.0
147.86,59.0
147.92,70.0
147.99,74.0
148.05,55.0
148.11,59.0
148.18,43.0
148.24,59.0
148.3,57.0
148.36,44.0
148.43,52.0
148.49,38.0
148.55,59.0
148.62,60.0
148.68,62.0
148.74,46.0
148.81,32.0
148.87,47.0
148.93,49.0
148.99,57.0
149.06,46.0
149.12,34.0
149.18,30.0
149.25,29.0
149.31,32.0
149.37,43.0
149.44,49.0
149.5,29.0
149.56,34.0
149.62,24.0
149.69,23.0
149.75,25.0
149.81,35.0
149.88,33.0
149.94,19.0
150.0,30.0
150.07,15.0
150.13,24.0
150.19,-4.0
150.25,-3.0
150.32,21.0
150.38,14.0
150.44,16.0
150.51,-7.0
150.57,-3.0
150.63,-7.0
150.7,-9.0
150.76,10.0
150.82,12.0
150.88,12.0
150.95,4.0
151.01,17.0
151.07,27.0
151.14,9.0
151.2,3.0
151.26,5.0
151.33,-2.0
151.39,-4.0
151.45,11.0
151.51,0.0
151.58,10.0
151.64,14.0
151.7,18.0
151.77,9.0
151.83,10.0
151.89,12.0
151.96,9.0
152.02,15.0
152.08,-1.0
152.14,-2.0
152.21,-1.0
152.27,-14.0
152.33,-16.0
152.4,-8.0
152.46,0.0
152.52,12.0
152.59,2.0
152.65,18.0
152.71,12.0
152.77,16.0
152.84,38.0
152.9,35.0
152.96,28.0
153.03,36.0
153.09,42.0
153.15,36.0
153.22,43.0
153.28,46.0
153.34,55.0
153.4,45.0
153.47,43.0
153.53,41.0
153.59,39.0
153.66,52.0
153.72,40.0
153.78,33.0
153.85,48.0
153.91,52.0
153.97,70.0
154.03,51.0
154.1,38.0
154.16,60.0
154.22,56.0
154.29,60.0
154.35,31.0
154.41,53.0
154.48,63.0
154.54,57.0
154.6,69.0
154.66,70.0
154.73,54.0
154.79,87.0
154.85,58.0
154.92,72.0
154.98,87.0
155.04,79.0
155.11,74.0
155.17,96.0
155.23,91.0
155.29,74.0
155.36,93.0
155.42,102.0
155.48,86.0
155.55,98.0
155.61,101.0
155.67,76.0
155.74,82.0
155.8,98.0
155.86,105.0
155.92,87.0
155.99,87.0
156.05,75.0
156.11,63.0
156.18,60.0
156.24,70.0
156.3,76.0
156.37,85.0
156.43,88.0
156.49,91.0
156.55,86.0
156.62,81.0
156.68,87.0
156.74,90.0
156.81,57.0
156.87,75.0
156.93,81.0
157.0,76.0
157.06,93.0
157.12,75.0
157.18,99.0
157.25,83.0
157.31,63.0
157.37,76.0
157.44,49.0
157.5,66.0
157.56,58.0
157.63,31.0
157.69,61.0
157.75,71.0
157.81,57.0
157.88,41.0
157.94,46.0
158.0,45.0
158.07,60.0
158.13,61.0
158.19,64.0
158.26,75.0
158.32,72.0
158.38,59.0
158.44,71.0
158.51,67.0
158.57,67.0
158.63,74.0
158.7,58.0
158.76,68.0
158.82,79.0
158.89,79.0
158.95,80.0
159.01,80.0
159.07,75.0
159.14,83.0
159.2,75.0
159.26,91.0
159.33,84.0
159.39,80.0
159.45,64.0
159.52,102.0
159.58,109.0
159.64,90.0
159.7,85.0
159.77,80.0
159.83,64.0
159.89,67.0
159.96,80.0
160.02,85.0
160.08,86.0
160.15,81.0
160.21,75.0
160.27,55.0
160.33,67.0
160.4,84.0
160.46,85.0
160.52,74.0
160.59,65.0
160.65,62.0
160.71,103.0
160.78,75.0
160.84,80.0
160.9,93.0
160.96,73.0
161.03,56.0
161.09,57.0
161.15,93.0
161.22,91.0
161.28,86.0
161.34,82.0
161.41,96.0
161.47,93.0
161.53,101.0
161.59,92.0
161.66,107.0
161.72,113.0
161.78,99.0
161.85,101.0
161.91,103.0
161.97,107.0
162.04,106.0
162.1,104.0
162.16,102.0
162.22,99.0
162.29,87.0
162.35,103.0
162.41,77.0
162.48,97.0
162.54,87.0
162.6,97.0
162.67,97.0
162.73,85.0
162.79,89.0
162.85,97.0
162.92,89.0
162.98,91.0
163.04,85.0
163.11,99.0
163.17,107.0
163.23,119.0
163.3,131.0
163.36,101.0
163.42,96.0
163.48,105.0
163.55,90.0
163.61,91.0
163.67,109.0
163.74,84.0
163.8,93.0
163.86,110.0
163.93,75.0
163.99,87.0
164.05,86.0
164.11,95.0
164.18,99.0
164.24,85.0
164.3,81.0
164.37,92.0
164.43,94.0
164.49,90.0
164.56,85.0
164.62,87.0
164.68,71.0
164.74,76.0
164.81,90.0
164.87,102.0
164.93,87.0
165.0,97.0
165.06,107.0
165.12,102.0
165.19,104.0
165.25,98.0
165.31,89.0
165.37,95.0
165.44,79.0
165.5,69.0
165.56,88.0
165.63,76.0
165.69,78.0
165.75,67.0
165.82,61.0
165.88,77.0
165.94,100.0
166.0,88.0
166.07,75.0
166.13,90.0
166.19,79.0
166.26,76.0
166.32,68.0
166.38,71.0
166.45,59.0
166.51,61.0
166.57,63.0
166.63,54.0
166.7,52.0
166.76,51.0
166.82,52.0
166.89,55.0
166.95,47.0
167.01,57.0
167.08,59.0
167.14,57.0
167.2,66.0
167.26,68.0
167.33,67.0
167.39,61.0
167.45,70.0
167.52,72.0
167.58,58.0
167.64,67.0
167.71,61.0
167.77,66.0
167.83,68.0
167.89,74.0
167.96,73.0
168.02,70.0
168.08,77.0
168.15,71.0
168.21,75.0
168.27,41.0
168.34,42.0
168.4,39.0
168.46,46.0
168.52,33.0
168.59,36.0
168.65,63.0
168.71,54.0
168.78,39.0
168.84,28.0
168.9,7.0
168.97,9.0
169.03,20.0
169.09,23.0
169.15,32.0
169.22,37.0
169.28,51.0
169.34,39.0
169.41,48.0
169.47,57.0
169.53,44.0
169.6,35.0
169.66,25.0
169.72,39.0
169.78,46.0
169.85,58.0
169.91,49.0
169.97,37.0
170.04,46.0
170.1,33.0
170.16,46.0
170.23,57.0
170.29,63.0
170.35,55.0
170.41,51.0
170.48,35.0
170.54,67.0
170.6,69.0
170.67,55.0
170.73,54.0
170.79,51.0
170.86,60.0
170.92,63.0
170.98,64.0
171.04,47.0
171.11,57.0
171.17,66.0
171.23,76.0
171.3,87.0
171.36,61.0
171.42,73.0
171.49,62.0
171.55,40.0
171.61,68.0
171.67,86.0
171.74,77.0
171.8,64.0
171.86,71.0
171.93,74.0
171.99,60.0
172.05,83.0
172.12,62.0
172.18,56.0
172.24,52.0
172.3,79.0
172.37,80.0
172.43,76.0
172.49,64.0
172.56,79.0
172.62,91.0
172.68,71.0
172.75,68.0
172.81,74.0
172.87,55.0
172.93,58.0
173.0,60.0
173.06,57.0
173.12,57.0
173.19,52.0
173.25,59.0
173.31,45.0
173.38,66.0
173.44,56.0
173.5,64.0
173.56,68.0
173.63,60.0
173.69,59.0
173.75,44.0
173.82,57.0
173.88,65.0
173.94,71.0
174.01,49.0
174.07,51.0
174.13,53.0
174.19,57.0
174.26,51.0
174.32,54.0
174.38,65.0
174.45,41.0
174.51,53.0
174.57,68.0
174.64,62.0
174.7,65.0
174.76,61.0
174.82,57.0
174.89,52.0
174.95,49.0
175.01,38.0
175.08,46.0
175.14,50.0
175.2,34.0
175.27,42.0
175.33,32.0
175.39,33.0
175.45,33.0
175.52,32.0
175.58,46.0
175.64,51.0
175.71,35.0
175.77,24.0
175.83,40.0
175.9,40.0
175.96,19.0
176.02,13.0
176.08,28.0
176.15,41.0
176.21,33.0
176.27,34.0
176.34,39.0
176.4,51.0
176.46,61.0
176.53,50.0
176.59,42.0
176.65,39.0
176.71,11.0
176.78,16.0
176.84,46.0
176.9,50.0
176.97,52.0
177.03,39.0
177.09,36.0
177.16,39.0
177.22,36.0
177.28,54.0
177.34,43.0
177.41,61.0
177.47,51.0
177.53,40.0
177.6,52.0
177.66,32.0
177.72,36.0
177.79,55.0
177.85,28.0
177.91,27.0
177.97,18.0
178.04,33.0
178.1,48.0
178.16,39.0
178.23,15.0
178.29,28.0
178.35,24.0
178.42,24.0
178.48,12.0
178.54,-1.0
178.6,15.0
178.67,11.0
178.73,24.0
178.79,45.0
178.86,37.0
178.92,35.0
178.98,50.0
179.05,43.0
179.11,23.0
179.17,29.0
179.23,25.0
179.3,35.0
179.36,3.0
179.42,8.0
179.49,18.0
179.55,8.0
179.61,27.0
179.68,25.0
179.74,16.0
179.8,16.0
179.86,9.0
179.93,6.0
179.99,4.0
180.05,18.0
180.12,9.0
180.18,16.0
180.24,34.0
180.31,47.0
180.37,50.0
180.43,36.0
180.49,51.0
180.56,51.0
180.62,68.0
180.68,51.0
180.75,59.0
180.81,74.0
180.87,60.0
180.94,64.0
181.0,67.0
181.06,71.0
181.12,95.0
181.19,81.0
181.25,63.0
181.31,82.0
181.38,67.0
181.44,55.0
181.5,61.0
181.57,61.0
181.63,64.0
181.69,69.0
181.75,67.0
181.82,63.0
181.88,63.0
181.94,68.0
182.01,72.0
182.07,67.0
182.13,64.0
182.2,47.0
182.26,57.0
182.32,60.0
182.38,46.0
182.45,43.0
182.51,44.0
182.57,36.0
182.64,49.0
182.7,56.0
182.76,55.0
182.83,72.0
182.89,77.0
182.95,51.0
183.01,55.0
183.08,46.0
183.14,61.0
183.2,79.0
183.27,61.0
183.33,43.0
183.39,25.0
183.46,46.0
183.52,33.0
183.58,16.0
183.64,16.0
183.71,27.0
183.77,18.0
183.83,20.0
183.9,18.0
183.96,16.0
184.02,5.0
184.09,-1.0
184.15,-8.0
184.21,-8.0
184.27,6.0
184.34,8.0
184.4,0.0
184.46,22.0
184.53,-8.0
184.59,-15.0
184.65,-3.0
184.72,-1.0
184.78,21.0
184.84,11.0
184.9,3.0
184.97,13.0
185.03,19.0
185.09,4.0
185.16,14.0
185.22,27.0
185.28,27.0
185.35,26.0
185.41,26.0
185.47,40.0
185.53,45.0
185.6,44.0
185.66,66.0
185.72,44.0
185.79,54.0
185.85,52.0
185.91,68.0
185.98,79.0
186.04,84.0
186.1,84.0
186.16,78.0
186.23,96.0
186.29,100.0
186.35,82.0
186.42,90.0
186.48,93.0
186.54,84.0
186.61,77.0
186.67,71.0
186.73,90.0
186.79,94.0
186.86,96.0
186.92,121.0
186.98,107.0
187.05,92.0
187.11,84.0
187.17,96.0
187.24,98.0
187.3,92.0
187.36,117.0
187.42,111.0
187.49,133.0
187.55,123.0
187.61,133.0
187.68,121.0
187.74,136.0
187.8,121.0
187.87,118.0
187.93,107.0
187.99,112.0
188.05,121.0
188.12,107.0
188.18,120.0
188.24,110.0
188.31,107.0
188.37,125.0
188.43,126.0
188.5,131.0
188.56,101.0
188.62,104.0
188.68,134.0
188.75,122.0
188.81,118.0
188.87,119.0
188.94,109.0
189.0,112.0
189.06,119.0
189.13,114.0
189.19,113.0
189.25,121.0
189.31,120.0
189.38,115.0
189.44,101.0
189.5,123.0
189.57,120.0
189.63,100.0
189.69,129.0
189.76,122.0
189.82,119.0
189.88,129.0
189.94,119.0
190.01,127.0
190.07,134.0
190.13,117.0
190.2,127.0
190.26,108.0
190.32,114.0
190.39,134.0
190.45,139.0
190.51,140.0
190.57,131.0
190.64,131.0
190.7,120.0
190.76,115.0
190.83,113.0
190.89,109.0
190.95,112.0
191.02,120.0
191.08,134.0
191.14,133.0
191.2,122.0
191.27,118.0
191.33,135.0
191.39,130.0
191.46,136.0
191.52,149.0
191.58,142.0
191.65,140.0
191.71,143.0
191.77,159.0
191.83,120.0
191.9,115.0
191.96,134.0
192.02,140.0
192.09,126.0
192.15,128.0
192.21,137.0
192.28,127.0
192.34,140.0
192.4,145.0
192.46,156.0
192.53,156.0
192.59,143.0
192.65,147.0
192.72,140.0
192.78,144.0
192.84,132.0
192.91,109.0
192.97,129.0
193.03,131.0
193.09,129.0
193.16,132.0
193.22,118.0
193.28,129.0
193.35,127.0
193.41,98.0
193.47,96.0
193.54,96.0
193.6,125.0
193.66,111.0
193.72,129.0
193.79,109.0
193.85,91.0
193.91,107.0
193.98,125.0
194.04,101.0
194.1,103.0
194.17,118.0
194.23,114.0
194.29,122.0
194.35,137.0
194.42,109.0
194.48,99.0
194.54,92.0
194.61,114.0
194.67,114.0
194.73,102.0
194.8,115.0
194.86,107.0
194.92,100.0
194.98,97.0
195.05,111.0
195.11,127.0
195.17,125.0
195.24,118.0
195.3,130.0
195.36,143.0
195.43,129.0
195.49,144.0
195.55,150.0
195.61,146.0
195.68,110.0
195.74,111.0
195.8,109.0
195.87,86.0
195.93,125.0
195.99,140.0
196.06,113.0
196.12,121.0
196.18,116.0
196.24,131.0
196.31,120.0
196.37,114.0
196.43,111.0
196.5,122.0
196.56,98.0
196.62,102.0
196.69,118.0
196.75,115.0
196.81,108.0
196.87,120.0
196.94,104.0
197.0,105.0
197.06,109.0
197.13,114.0
197.19,128.0
197.25,130.0
197.32,132.0
197.38,121.0
197.44,124.0
197.5,118.0
197.57,133.0
197.63,113.0
197.69,122.0
197.76,141.0
197.82,132.0
197.88,122.0
197.95,129.0
198.01,111.0
198.07,106.0
198.13,107.0
198.2,104.0
198.26,127.0
198.32,127.0
198.39,141.0
198.45,115.0
198.51,114.0
198.58,103.0
198.64,118.0
198.7,117.0
198.76,107.0
198.83,107.0
198.89,110.0
198.95,103.0
199.02,84.0
199.08,71.0
199.14,97.0
199.21,78.0
199.27,77.0
199.33,86.0
199.39,88.0
199.46,85.0
199.52,89.0
199.58,85.0
199.65,88.0
199.71,85.0
199.77,84.0
199.84,69.0
199.9,55.0
199.96,58.0
200.02,66.0
200.09,73.0
200.15,70.0
200.21,53.0
200.28,62.0
200.34,54.0
200.4,66.0
200.47,67.0
200.53,37.0
200.59,46.0
200.65,63.0
200.72,70.0
200.78,57.0
200.84,52.0
200.91,41.0
200.97,67.0
201.03,70.0
201.1,41.0
201.16,55.0
201.22,46.0
201.28,62.0
201.35,44.0
201.41,33.0
201.47,25.0
201.54,32.0
201.6,29.0
201.66,18.0
201.73,18.0
201.79,45.0
201.85,45.0
201.91,15.0
201.98,22.0
202.04,28.0
202.1,20.0
202.17,32.0
202.23,28.0
202.29,29.0
202.36,29.0
202.42,20.0
202.48,37.0
202.54,24.0
202.61,6.0
202.67,30.0
202.73,37.0
202.8,36.0
202.86,34.0
202.92,37.0
202.99,55.0
203.05,24.0
203.11,40.0
203.17,42.0
203.24,59.0
203.3,55.0
203.36,90.0
203.43,95.0
203.49,101.0
203.55,87.0
203.62,67.0
203.68,52.0
203.74,56.0
203.8,48.0
203.87,34.0
203.93,42.0
203.99,25.0
204.06,43.0
204.12,51.0
204.18,59.0
204.25,47.0
204.31,35.0
204.37,44.0
204.43,56.0
204.5,38.0
204.56,18.0
204.62,34.0
204.69,52.0
204.75,51.0
204.81,55.0
204.88,74.0
204.94,69.0
205.0,48.0
205.06,54.0
205.13,52.0
205.19,60.0
205.25,62.0
205.32,49.0
205.38,72.0
205.44,68.0
205.51,66.0
205.57,73.0
205.63,28.0
205.69,57.0
205.76,36.0
205.82,38.0
205.88,37.0
205.95,46.0
206.01,61.0
206.07,52.0
206.14,52.0
206.2,35.0
206.26,55.0
206.32,52.0
206.39,45.0
206.45,40.0
206.51,41.0
206.58,53.0
206.64,26.0
206.7,10.0
206.77,39.0
206.83,17.0
206.89,38.0
206.95,32.0
207.02,14.0
207.08,4.0
207.14,8.0
207.21,41.0
207.27,19.0
207.33,31.0
207.4,26.0
207.46,49.0
207.52,27.0
207.58,44.0
207.65,27.0
207.71,28.0
207.77,21.0
207.84,25.0
207.9,32.0
207.96,32.0
208.03,39.0
208.09,51.0
208.15,40.0
208.21,37.0
208.28,48.0
208.34,30.0
208.4,42.0
208.47,42.0
208.53,51.0
208.59,31.0
208.66,43.0
208.72,21.0
208.78,45.0
208.84,51.0
208.91,48.0
208.97,42.0
209.03,34.0
209.1,20.0
209.16,46.0
209.22,47.0
209.29,38.0
209.35,37.0
209.41,25.0
209.47,1.0
209.54,10.0
209.6,21.0
209.66,17.0
209.73,-3.0
209.79,0.0
209.85,14.0
209.92,29.0
209.98,27.0
210.04,11.0
210.1,10.0
210.17,32.0
210.23,27.0
210.29,15.0
210.36,29.0
210.42,24.0
210.48,48.0
210.55,46.0
210.61,19.0
210.67,27.0
210.73,31.0
210.8,26.0
210.86,43.0
210.92,47.0
210.99,25.0
211.05,15.0
211.11,15.0
211.18,25.0
211.24,18.0
211.3,42.0
211.36,35.0
211.43,41.0
211.49,60.0
211.55,70.0
211.62,55.0
211.68,38.0
211.74,68.0
211.81,72.0
211.87,58.0
211.93,87.0
211.99,73.0
212.06,82.0
212.12,80.0
212.18,83.0
212.25,94.0
212.31,90.0
212.37,99.0
212.44,101.0
212.5,88.0
212.56,95.0
212.62,90.0
212.69,97.0
212.75,94.0
212.81,104.0
212.88,113.0
212.94,120.0
213.0,123.0
213.07,123.0
213.13,129.0
213.19,113.0
213.25,126.0
213.32,129.0
213.38,92.0
213.44,111.0
213.51,117.0
213.57,113.0
213.63,126.0
213.7,134.0
213.76,128.0
213.82,139.0
213.88,130.0
213.95,120.0
214.01,127.0
214.07,116.0
214.14,115.0
214.2,119.0
214.26,117.0
214.33,124.0
214.39,149.0
214.45,153.0
214.51,118.0
214.58,109.0
214.64,132.0
214.7,132.0
214.77,118.0
214.83,103.0
214.89,114.0
214.96,111.0
215.02,121.0
215.08,113.0
215.14,118.0
215.21,122.0
215.27,115.0
215.33,109.0
215.4,103.0
215.46,112.0
215.52,135.0
215.59,121.0
215.65,114.0
215.71,143.0
215.77,132.0
215.84,146.0
215.9,126.0
215.96,98.0
216.03,120.0
216.09,110.0
216.15,112.0
216.22,106.0
216.28,91.0
216.34,113.0
216.4,116.0
216.47,114.0
216.53,131.0
216.59,117.0
216.66,98.0
216.72,103.0
216.78,92.0
216.85,119.0
216.91,98.0
216.97,96.0
217.03,109.0
217.1,123.0
217.16,134.0
217.22,110.0
217.29,105.0
217.35,87.0
217.41,103.0
217.48,114.0
217.54,115.0
217.6,105.0
217.66,109.0
217.73,124.0
217.79,105.0
217.85,110.0
217.92,100.0
217.98,110.0
218.04,118.0
218.11,118.0
218.17,143.0
218.23,140.0
218.29,135.0
218.36,138.0
218.42,155.0
218.48,157.0
218.55,145.0
218.61,143.0
218.67,147.0
218.74,150.0
218.8,158.0
218.86,173.0
218.92,142.0
218.99,168.0
219.05,180.0
219.11,176.0
219.18,166.0
219.24,161.0
219.3,180.0
219.37,177.0
219.43,171.0
219.49,175.0
219.55,194.0
219.62,162.0
219.68,145.0
219.74,153.0
219.81,157.0
219.87,163.0
219.93,160.0
220.0,168.0
220.06,161.0
220.12,172.0
220.18,156.0
220.25,171.0
220.31,167.0
220.37,166.0
220.44,168.0
220.5,159.0
220.56,168.0
220.63,164.0
220.69,166.0
220.75,187.0
220.81,187.0
220.88,153.0
220.94,157.0
221.0,155.0
221.07,140.0
221.13,151.0
221.19,168.0
221.26,169.0
221.32,179.0
221.38,172.0
221.44,178.0
221.51,179.0
221.57,166.0
221.63,157.0
221.7,150.0
221.76,153.0
221.82,145.0
221.89,139.0
221.95,150.0
222.01,134.0
222.07,157.0
222.14,157.0
222.2,161.0
222.26,163.0
222.33,150.0
222.39,153.0
222.45,157.0
222.52,127.0
222.58,140.0
222.64,102.0
222.7,114.0
222.77,127.0
222.83,94.0
222.89,98.0
222.96,95.0
223.02,117.0
223.08,111.0
223.15,107.0
223.21,95.0
223.27,95.0
223.33,98.0
223.4,99.0
223.46,124.0
223.52,121.0
223.59,124.0
223.65,110.0
223.71,118.0
223.78,111.0
223.84,89.0
223.9,98.0
223.96,84.0
224.03,81.0
224.09,73.0
224.15,77.0
224.22,69.0
224.28,63.0
224.34,58.0
224.41,62.0
224.47,62.0
224.53,44.0
224.59,36.0
224.66,30.0
224.72,48.0
224.78,37.0
224.85,27.0
224.91,47.0
224.97,37.0
225.04,26.0
225.1,34.0
225.16,24.0
225.22,29.0
225.29,19.0
225.35,36.0
225.41,57.0
225.48,41.0
225.54,32.0
225.6,41.0
225.67,47.0
225.73,46.0
225.79,48.0
225.85,30.0
225.92,25.0
225.98,15.0
226.04,16.0
226.11,26.0
226.17,15.0
226.23,11.0
226.3,3.0
226.36,0.0
226.42,-6.0
226.48,-4.0
226.55,19.0
226.61,3.0
226.67,-2.0
226.74,-36.0
226.8,-28.0
226.86,-22.0
226.93,-48.0
226.99,-37.0
227.05,-42.0
227.11,-32.0
227.18,-43.0
227.24,-32.0
227.3,-39.0
227.37,-36.0
227.43,-35.0
227.49,-58.0
227.56,-40.0
227.62,-41.0
227.68,-37.0
227.74,-48.0
227.81,-35.0
227.87,-30.0
227.93,-51.0
228.0,-52.0
228.06,-48.0
228.12,-44.0
228.19,-34.0
228.25,-46.0
228.31,-43.0
228.37,-42.0
228.44,-46.0
228.5,-38.0
228.56,-53.0
228.63,-49.0
228.69,-47.0
228.75,-45.0
228.82,-41.0
228.88,-13.0
228.94,-8.0
229.0,3.0
229.07,-11.0
229.13,-10.0
229.19,-7.0
229.26,-9.0
229.32,-10.0
229.38,14.0
229.45,6.0
229.51,13.0
229.57,11.0
229.63,11.0
229.7,13.0
229.76,-17.0
229.82,2.0
229.89,17.0
229.95,2.0
230.01,3.0
230.08,-5.0
230.14,-18.0
230.2,24.0
230.26,3.0
230.33,2.0
230.39,7.0
230.45,-10.0
230.52,-6.0
230.58,-22.0
230.64,-6.0
230.71,-7.0
230.77,-8.0
230.83,-12.0
230.89,4.0
230.96,12.0
231.02,4.0
231.08,-8.0
231.15,4.0
231.21,4.0
231.27,3.0
231.34,18.0
231.4,-6.0
231.46,-3.0
231.52,27.0
231.59,10.0
231.65,10.0
231.71,8.0
231.78,2.0
231.84,-4.0
231.9,-10.0
231.97,7.0
232.03,-3.0
232.09,3.0
232.15,12.0
232.22,-5.0
232.28,2.0
232.34,-2.0
232.41,6.0
232.47,9.0
232.53,17.0
232.6,1.0
232.66,-19.0
232.72,-9.0
232.78,5.0
232.85,6.0
232.91,5.0
232.97,1.0
233.04,-7.0
233.1,16.0
233.16,-15.0
233.23,-15.0
233.29,-12.0
233.35,-6.0
233.41,-17.0
233.48,9.0
233.54,5.0
233.6,-3.0
233.67,8.0
233.73,6.0
233.79,20.0
233.86,22.0
233.92,25.0
233.98,38.0
234.04,41.0
234.11,36.0
234.17,35.0
234.23,34.0
234.3,49.0
234.36,35.0
234.42,56.0
234.49,68.0
234.55,73.0
234.61,67.0
234.67,51.0
234.74,42.0
234.8,44.0
234.86,35.0
234.93,22.0
234.99,35.0
235.05,56.0
235.12,56.0
235.18,56.0
235.24,58.0
235.3,70.0
235.37,61.0
235.43,40.0
235.49,71.0
235.56,88.0
235.62,71.0
235.68,64.0
235.75,59.0
235.81,52.0
235.87,69.0
235.93,71.0
236.0,64.0
236.06,79.0
236.12,78.0
236.19,91.0
236.25,100.0
236.31,116.0
236.38,106.0
236.44,122.0
236.5,106.0
236.56,115.0
236.63,111.0
236.69,111.0
236.75,119.0
236.82,117.0
236.88,133.0
236.94,132.0
237.01,150.0
237.07,157.0
237.13,133.0
237.19,151.0
237.26,139.0
237.32,130.0
237.38,149.0
237.45,166.0
237.51,151.0
237.57,144.0
237.64,169.0
237.7,151.0
237.76,165.0
237.82,175.0
237.89,193.0
237.95,187.0
238.01,187.0
238.08,186.0
238.14,178.0
238.2,181.0
238.27,203.0
238.33,176.0
238.39,177.0
238.45,192.0
238.52,168.0
238.58,171.0
238.64,173.0
238.71,180.0
238.77,177.0
238.83,179.0
238.9,181.0
238.96,181.0
239.02,209.0
239.08,228.0
239.15,213.0
239.21,209.0
239.27,188.0
239.34,193.0
239.4,176.0
239.46,187.0
239.53,199.0
239.59,206.0
239.65,201.0
239.71,189.0
239.78,198.0
239.84,196.0
239.9,204.0
239.97,198.0
240.03,202.0
240.09,205.0
240.16,180.0
240.22,189.0
240.28,190.0
240.34,199.0
240.41,198.0
240.47,205.0
240.53,191.0
240.6,208.0
240.66,218.0
240.72,226.0
240.79,215.0
240.85,194.0
240.91,199.0
240.97,205.0
241.04,199.0
241.1,212.0
241.16,201.0
241.23,212.0
241.29,192.0
241.35,198.0
241.42,186.0
241.48,203.0
241.54,194.0
241.6,202.0
241.67,201.0
241.73,191.0
241.79,198.0
241.86,195.0
241.92,190.0
241.98,184.0
242.05,184.0
242.11,167.0
242.17,171.0
242.23,155.0
242.3,173.0
242.36,170.0
242.42,155.0
242.49,177.0
242.55,163.0
242.61,169.0
242.68,177.0
242.74,154.0
242.8,167.0
242.86,157.0
242.93,148.0
242.99,141.0
243.05,148.0
243.12,171.0
243.18,147.0
243.24,160.0
243.31,165.0
243.37,146.0
243.43,140.0
243.49,124.0
243.56,128.0
243.62,121.0
243.68,113.0
243.75,123.0
243.81,114.0
243.87,102.0
243.94,82.0
244.0,106.0
244.06,100.0
244.12,100.0
244.19,99.0
244.25,89.0
244.31,109.0
244.38,125.0
244.44,131.0
244.5,113.0
244.57,109.0
244.63,114.0
244.69,106.0
244.75,114.0
244.82,109.0
244.88,105.0
244.94,113.0
245.01,128.0
245.07,126.0
245.13,125.0
245.2,114.0
245.26,114.0
245.32,114.0
245.38,127.0
245.45,133.0
245.51,120.0
245.57,125.0
245.64,122.0
245.7,127.0
245.76,96.0
245.83,86.0
245.89,112.0
245.95,106.0
246.01,125.0
246.08,99.0
246.14,104.0
246.2,122.0
246.27,93.0
246.33,109.0
246.39,101.0
246.46,110.0
246.52,116.0
246.58,114.0
246.64,117.0
246.71,119.0
246.77,113.0
246.83,104.0
246.9,119.0
246.96,94.0
247.02,128.0
247.09,115.0
247.15,116.0
247.21,119.0
247.27,112.0
247.34,129.0
247.4,118.0
247.46,97.0
247.53,116.0
247.59,125.0
247.65,120.0
247.72,98.0
247.78,89.0
247.84,102.0
247.9,114.0
247.97,117.0
248.03,124.0
248.09,112.0
248.16,100.0
248.22,115.0
248.28,114.0
248.35,107.0
248.41,113.0
248.47,83.0
248.53,92.0
248.6,95.0
248.66,86.0
248.72,81.0
248.79,88.0
248.85,86.0
248.91,81.0
248.98,83.0
249.04,81.0
249.1,70.0
249.16,77.0
249.23,78.0
249.29,83.0
249.35,83.0
249.42,95.0
249.48,100.0
249.54,94.0
249.61,81.0
249.67,81.0
249.73,70.0
249.79,63.0
249.86,42.0
249.92,57.0
249.98,66.0
250.05,47.0
250.11,34.0
250.17,57.0
250.24,65.0
250.3,42.0
250.36,33.0
250.42,33.0
250.49,34.0
250.55,39.0
250.61,39.0
250.68,55.0
250.74,48.0
250.8,36.0
250.87,34.0
250.93,40.0
250.99,40.0
251.05,21.0
251.12,27.0
251.18,10.0
251.24,29.0
251.31,36.0
251.37,31.0
251.43,47.0
251.5,57.0
251.56,50.0
251.62,50.0
251.68,30.0
251.75,16.0
251.81,36.0
251.87,34.0
251.94,18.0
252.0,30.0
252.06,30.0
252.13,35.0
252.19,37.0
252.25,48.0
252.31,48.0
252.38,53.0
252.44,72.0
252.5,53.0
252.57,52.0
252.63,63.0
252.69,54.0
252.76,46.0
252.82,55.0
252.88,38.0
252.94,50.0
253.01,53.0
253.07,40.0
253.13,72.0
253.2,81.0
253.26,52.0
253.32,53.0
253.39,50.0
253.45,50.0
253.51,41.0
253.57,48.0
253.64,48.0
253.7,53.0
253.76,65.0
253.83,44.0
253.89,50.0
253.95,60.0
254.02,73.0
254.08,92.0
254.14,99.0
254.2,102.0
254.27,112.0
254.33,123.0
254.39,112.0
254.46,95.0
254.52,107.0
254.58,114.0
254.65,98.0
254.71,119.0
254.77,88.0
254.83,110.0
254.9,96.0
254.96,105.0
255.02,128.0
255.09,113.0
255.15,118.0
255.21,113.0
255.28,114.0
255.34,101.0
255.4,109.0
255.46,120.0
255.53,129.0
255.59,135.0
255.65,127.0
255.72,122.0
255.78,111.0
255.84,88.0
255.91,98.0
255.97,125.0
256.03,114.0
256.09,118.0
256.16,114.0
256.22,117.0
256.28,129.0
256.35,130.0
256.41,145.0
256.47,138.0
256.54,138.0
256.6,120.0
256.66,133.0
256.72,125.0
256.79,98.0
256.85,110.0
256.91,114.0
256.98,121.0
257.04,118.0
257.1,115.0
257.17,125.0
257.23,116.0
257.29,115.0
257.35,113.0
257.42,105.0
257.48,91.0
257.54,111.0
257.61,106.0
257.67,124.0
257.73,121.0
257.8,112.0
257.86,104.0
257.92,86.0
257.98,101.0
258.05,88.0
258.11,108.0
258.17,116.0
258.24,113.0
258.3,114.0
258.36,102.0
258.43,104.0
258.49,99.0
258.55,115.0
258.61,102.0
258.68,74.0
258.74,102.0
258.8,75.0
258.87,81.0
258.93,87.0
258.99,90.0
259.06,86.0
259.12,95.0
259.18,62.0
259.24,70.0
259.31,59.0
259.37,69.0
259.43,75.0
259.5,73.0
259.56,91.0
259.62,67.0
259.69,54.0
259.75,60.0
259.81,42.0
259.87,61.0
259.94,74.0
260.0,59.0
260.06,43.0
260.13,48.0
260.19,53.0
260.25,61.0
260.32,44.0
260.38,39.0
260.44,51.0
260.5,48.0
260.57,34.0
260.63,52.0
260.69,56.0
260.76,24.0
260.82,27.0
260.88,19.0
260.95,39.0
261.01,26.0
261.07,27.0
261.13,14.0
261.2,-7.0
261.26,26.0
261.32,27.0
261.39,14.0
261.45,8.0
261.51,10.0
261.58,16.0
261.64,3.0
261.7,-21.0
261.76,-27.0
261.83,-8.0
261.89,9.0
261.95,12.0
262.02,13.0
262.08,22.0
262.14,8.0
262.21,5.0
262.27,7.0
262.33,8.0
262.39,27.0
262.46,17.0
262.52,12.0
262.58,-8.0
262.65,-30.0
262.71,-11.0
262.77,-7.0
262.84,-15.0
262.9,3.0
262.96,6.0
263.02,5.0
263.09,-3.0
263.15,7.0
263.21,20.0
263.28,7.0
263.34,-9.0
263.4,10.0
263.47,23.0
263.53,28.0
263.59,22.0
263.65,29.0
263.72,33.0
263.78,45.0
263.84,32.0
263.91,14.0
263.97,25.0
264.03,25.0
264.1,45.0
264.16,50.0
264.22,26.0
264.28,48.0
264.35,73.0
264.41,58.0
264.47,52.0
264.54,59.0
264.6,60.0
264.66,63.0
264.73,62.0
264.79,62.0
264.85,68.0
264.91,71.0
264.98,61.0
265.04,65.0
265.1,81.0
265.17,80.0
265.23,79.0
265.29,72.0
265.36,65.0
265.42,66.0
265.48,64.0
265.54,43.0
265.61,35.0
265.67,37.0
265.73,33.0
265.8,45.0
265.86,55.0
265.92,57.0
265.99,74.0
266.05,53.0
266.11,53.0
266.17,55.0
266.24,46.0
266.3,62.0
266.36,44.0
266.43,58.0
266.49,41.0
266.55,40.0
266.62,48.0
266.68,44.0
266.74,48.0
266.8,48.0
266.87,70.0
266.93,56.0
266.99,48.0
267.06,65.0
267.12,59.0
267.18,63.0
267.25,66.0
267.31,35.0
267.37,40.0
267.43,45.0
267.5,51.0
267.56,43.0
267.62,31.0
267.69,35.0
267.75,50.0
267.81,48.0
267.88,40.0
267.94,41.0
268.0,41.0
268.06,48.0
268.13,46.0
268.19,36.0
268.25,29.0
268.32,30.0
268.38,53.0
268.44,42.0
268.51,50.0
268.57,56.0
268.63,75.0
268.69,74.0
268.76,69.0
268.82,94.0
268.88,105.0
268.95,91.0
269.01,72.0
269.07,69.0
269.14,75.0
269.2,82.0
269.26,74.0
269.32,84.0
269.39,83.0
269.45,51.0
269.51,59.0
269.58,65.0
269.64,59.0
269.7,83.0
269.77,80.0
269.83,88.0
269.89,61.0
269.95,57.0
270.02,71.0
270.08,83.0
270.14,96.0
270.21,95.0
270.27,98.0
270.33,93.0
270.4,98.0
270.46,113.0
270.52,134.0
270.58,123.0
270.65,133.0
270.71,143.0
270.77,157.0
270.84,169.0
270.9,169.0
270.96,186.0
271.03,202.0
271.09,175.0
271.15,161.0
271.21,163.0
271.28,177.0
271.34,191.0
271.4,193.0
271.47,165.0
271.53,187.0
271.59,204.0
271.66,211.0
271.72,193.0
271.78,210.0
271.84,205.0
271.91,197.0
271.97,206.0
272.03,208.0
272.1,207.0
272.16,202.0
272.22,223.0
272.29,226.0
272.35,201.0
272.41,209.0
272.47,198.0
272.54,210.0
272.6,216.0
272.66,205.0
272.73,213.0
272.79,231.0
272.85,221.0
272.92,231.0
272.98,221.0
273.04,212.0
273.1,220.0
273.17,231.0
273.23,216.0
273.29,209.0
273.36,212.0
273.42,208.0
273.48,211.0
273.55,212.0
273.61,236.0
273.67,233.0
273.73,231.0
273.8,243.0
273.86,231.0
273.92,242.0
273.99,227.0
274.05,226.0
274.11,244.0
274.18,233.0
274.24,245.0
274.3,220.0
274.36,226.0
274.43,222.0
274.49,228.0
274.55,216.0
274.62,221.0
274.68,244.0
274.74,256.0
274.81,245.0
274.87,253.0
274.93,246.0
274.99,224.0
275.06,209.0
275.12,208.0
275.18,207.0
275.25,208.0
275.31,201.0
275.37,183.0
275.44,198.0
275.5,182.0
275.56,182.0
275.62,190.0
275.69,199.0
275.75,201.0
275.81,193.0
275.88,184.0
275.94,187.0
276.0,168.0
276.07,180.0
276.13,198.0
276.19,196.0
276.25,177.0
276.32,180.0
276.38,173.0
276.44,190.0
276.51,179.0
276.57,173.0
276.63,177.0
276.7,185.0
276.76,161.0
276.82,154.0
276.88,172.0
276.95,187.0
277.01,180.0
277.07,168.0
277.14,144.0
277.2,141.0
277.26,158.0
277.33,167.0
277.39,163.0
277.45,140.0
277.51,135.0
277.58,125.0
277.64,117.0
277.7,126.0
277.77,112.0
277.83,114.0
277.89,104.0
277.96,96.0
278.02,118.0
278.08,118.0
278.14,106.0
278.21,94.0
278.27,90.0
278.33,113.0
278.4,103.0
278.46,91.0
278.52,102.0
278.59,83.0
278.65,80.0
278.71,74.0
278.77,63.0
278.84,63.0
278.9,63.0
278.96,75.0
279.03,63.0
279.09,52.0
279.15,77.0
279.22,83.0
279.28,81.0
279.34,75.0
279.4,85.0
279.47,83.0
279.53,75.0
279.59,81.0
279.66,69.0
279.72,72.0
279.78,89.0
279.85,75.0
279.91,73.0
279.97,79.0
280.03,52.0
280.1,78.0
280.16,73.0
280.22,47.0
280.29,35.0
280.35,36.0
280.41,51.0
280.48,53.0
280.54,44.0
280.6,50.0
280.66,39.0
280.73,50.0
280.79,43.0
280.85,31.0
280.92,22.0
280.98,31.0
281.04,39.0
281.11,42.0
281.17,30.0
281.23,42.0
281.29,42.0
281.36,45.0
281.42,28.0
281.48,41.0
281.55,48.0
281.61,37.0
281.67,36.0
281.74,44.0
281.8,37.0
281.86,28.0
281.92,19.0
281.99,18.0
282.05,43.0
282.11,40.0
282.18,33.0
282.24,22.0
282.3,34.0
282.37,7.0
282.43,9.0
282.49,11.0
282.55,7.0
282.62,14.0
282.68,15.0
282.74,11.0
282.81,10.0
282.87,3.0
282.93,-2.0
283.0,4.0
283.06,9.0
283.12,-11.0
283.18,-3.0
283.25,9.0
283.31,-9.0
283.37,17.0
283.44,-6.0
283.5,-16.0
283.56,-3.0
283.63,3.0
283.69,2.0
283.75,-3.0
283.81,2.0
283.88,-7.0
283.94,-24.0
284.0,-11.0
284.07,-3.0
284.13,-12.0
284.19,-20.0
284.26,-17.0
284.32,-21.0
284.38,-17.0
284.44,10.0
284.51,-26.0
284.57,-12.0
284.63,0.0
284.7,-9.0
284.76,-22.0
284.82,-25.0
284.89,-19.0
284.95,-10.0
285.01,-27.0
285.07,-34.0
285.14,-40.0
285.2,-25.0
285.26,-32.0
285.33,-20.0
285.39,-14.0
285.45,-34.0
285.52,-28.0
285.58,-29.0
285.64,-20.0
285.7,-19.0
285.77,-11.0
285.83,-20.0
285.89,-9.0
285.96,-15.0
286.02,-22.0
286.08,0.0
286.15,-28.0
286.21,-11.0
286.27,-3.0
286.33,-14.0
286.4,-5.0
286.46,6.0
286.52,23.0
286.59,27.0
286.65,29.0
286.71,28.0
286.78,28.0
286.84,30.0
286.9,33.0
286.96,50.0
287.03,51.0
287.09,39.0
287.15,56.0
287.22,54.0
287.28,45.0
287.34,62.0
287.41,52.0
287.47,61.0
287.53,69.0
287.59,54.0
287.66,64.0
287.72,65.0
287.78,91.0
287.85,100.0
287.91,103.0
287.97,87.0
288.04,97.0
288.1,108.0
288.16,108.0
288.22,117.0
288.29,98.0
288.35,94.0
288.41,114.0
288.48,134.0
288.54,137.0
288.6,122.0
288.67,111.0
288.73,130.0
288.79,133.0
288.85,137.0
288.92,161.0
288.98,155.0
289.04,158.0
289.11,149.0
289.17,147.0
289.23,138.0
289.3,165.0
289.36,153.0
289.42,150.0
289.48,159.0
289.55,158.0
289.61,174.0
289.67,176.0
289.74,169.0
289.8,174.0
289.86,179.0
289.93,176.0
289.99,188.0
290.05,182.0
290.11,166.0
290.18,178.0
290.24,180.0
290.3,182.0
290.37,188.0
290.43,193.0
290.49,190.0
290.56,170.0
290.62,197.0
290.68,201.0
290.74,207.0
290.81,198.0
290.87,188.0
290.93,226.0
291.0,245.0
291.06,212.0
291.12,226.0
291.19,241.0
291.25,222.0
291.31,230.0
291.37,239.0
291.44,217.0
291.5,212.0
291.56,224.0
291.63,252.0
291.69,254.0
291.75,226.0
291.82,216.0
291.88,203.0
291.94,213.0
292.0,215.0
292.07,222.0
292.13,214.0
292.19,199.0
292.26,204.0
292.32,193.0
292.38,198.0
292.45,188.0
292.51,185.0
292.57,207.0
292.63,216.0
292.7,244.0
292.76,208.0
292.82,221.0
292.89,221.0
292.95,214.0
293.01,223.0
293.08,223.0
293.14,222.0
293.2,235.0
293.26,221.0
293.33,230.0
293.39,227.0
293.45,196.0
293.52,219.0
293.58,221.0
293.64,218.0
293.71,222.0
293.77,199.0
293.83,201.0
293.89,204.0
293.96,202.0
294.02,191.0
294.08,211.0
294.15,184.0
294.21,196.0
294.27,190.0
294.34,175.0
294.4,178.0
294.46,160.0
294.52,168.0
294.59,179.0
294.65,157.0
294.71,155.0
294.78,163.0
294.84,166.0
294.9,168.0
294.97,172.0
295.03,182.0
295.09,171.0
295.15,166.0
295.22,150.0
295.28,173.0
295.34,133.0
295.41,152.0
295.47,174.0
295.53,147.0
295.6,167.0
295.66,164.0
295.72,160.0
295.78,153.0
295.85,174.0
295.91,196.0
295.97,172.0
296.04,177.0
296.1,196.0
296.16,179.0
296.23,166.0
296.29,156.0
296.35,175.0
296.41,196.0
296.48,201.0
296.54,184.0
296.6,141.0
296.67,163.0
296.73,164.0
296.79,169.0
296.86,163.0
296.92,167.0
296.98,161.0
297.04,162.0
297.11,164.0
297.17,150.0
297.23,160.0
297.3,160.0
297.36,177.0
297.42,173.0
297.49,171.0
297.55,186.0
297.61,167.0
297.67,158.0
297.74,193.0
297.8,191.0
297.86,169.0
297.93,164.0
297.99,172.0
298.05,171.0
298.12,166.0
298.18,175.0
298.24,167.0
298.3,158.0
298.37,143.0
298.43,138.0
298.49,147.0
298.56,160.0
298.62,136.0
298.68,149.0
298.75,140.0
298.81,138.0
298.87,143.0
298.93,114.0
299.0,112.0
299.06,105.0
299.12,97.0
299.19,96.0
299.25,96.0
299.31,103.0
299.38,115.0
299.44,117.0
299.5,122.0
299.56,121.0
299.63,112.0
299.69,102.0
299.75,123.0
299.82,129.0
299.88,133.0
299.94,99.0
300.01,105.0
300.07,120.0
300.13,124.0
300.19,112.0
300.26,107.0
300.32,116.0
300.38,105.0
300.45,97.0
300.51,89.0
300.57,89.0
300.64,76.0
300.7,65.0
300.76,47.0
300.82,51.0
300.89,58.0
300.95,38.0
301.01,48.0
301.08,51.0
301.14,48.0
301.2,43.0
301.27,37.0
301.33,59.0
301.39,58.0
301.45,23.0
301.52,43.0
301.58,52.0
301.64,37.0
301.71,44.0
301.77,50.0
301.83,47.0
301.9,55.0
301.96,55.0
302.02,31.0
302.08,20.0
302.15,35.0
302.21,31.0
302.27,17.0
302.34,16.0
302.4,6.0
302.46,-2.0
302.53,1.0
302.59,-7.0
302.65,7.0
302.71,0.0
302.78,-10.0
302.84,-6.0
302.9,2.0
302.97,-3.0
303.03,0.0
303.09,-7.0
303.16,0.0
303.22,-2.0
303.28,-9.0
303.34,8.0
303.41,26.0
303.47,8.0
303.53,3.0
303.6,15.0
303.66,29.0
303.72,22.0
303.79,22.0
303.85,36.0
303.91,22.0
303.97,44.0
304.04,55.0
304.1,51.0
304.16,54.0
304.23,35.0
304.29,45.0
304.35,57.0
304.42,78.0
304.48,59.0
304.54,49.0
304.6,48.0
304.67,62.0
304.73,49.0
304.79,63.0
304.86,87.0
304.92,70.0
304.98,58.0
305.05,57.0
305.11,76.0
305.17,64.0
305.23,70.0
305.3,56.0
305.36,89.0
305.42,83.0
305.49,71.0
305.55,81.0
305.61,100.0
305.68,105.0
305.74,96.0
305.8,87.0
305.86,81.0
305.93,78.0
305.99,109.0
306.05,100.0
306.12,97.0
306.18,94.0
306.24,121.0
306.31,113.0
306.37,102.0
306.43,117.0
306.49,88.0
306.56,91.0
306.62,105.0
306.68,82.0
306.75,107.0
306.81,114.0
306.87,99.0
306.94,100.0
307.0,98.0
307.06,102.0
307.12,122.0
307.19,80.0
307.25,101.0
307.31,96.0
307.38,119.0
307.44,117.0
307.5,111.0
307.57,114.0
307.63,119.0
307.69,132.0
307.75,105.0
307.82,102.0
307.88,116.0
307.94,126.0
308.01,129.0
308.07,121.0
308.13,145.0
308.2,129.0
308.26,115.0
308.32,138.0
308.38,138.0
308.45,131.0
308.51,142.0
308.57,151.0
308.64,139.0
308.7,151.0
308.76,120.0
308.83,133.0
308.89,159.0
308.95,163.0
309.01,157.0
309.08,159.0
309.14,157.0
309.2,137.0
309.27,152.0
309.33,145.0
309.39,144.0
309.46,130.0
309.52,131.0
309.58,142.0
309.64,170.0
309.71,151.0
309.77,143.0
309.83,149.0
309.9,132.0
309.96,153.0
310.02,158.0
310.09,135.0
310.15,128.0
310.21,133.0
310.27,148.0
310.34,136.0
310.4,125.0
310.46,116.0
310.53,115.0
310.59,148.0
310.65,136.0
310.72,111.0
310.78,108.0
310.84,127.0
310.9,133.0
310.97,135.0
311.03,114.0
311.09,129.0
311.16,146.0
311.22,158.0
311.28,147.0
311.35,130.0
311.41,152.0
311.47,144.0
311.53,125.0
311.6,133.0
311.66,135.0
311.72,146.0
311.79,126.0
311.85,130.0
311.91,134.0
311.98,128.0
312.04,126.0
312.1,117.0
312.16,128.0
312.23,131.0
312.29,130.0
312.35,137.0
312.42,137.0
312.48,119.0
312.54,141.0
312.61,148.0
312.67,141.0
312.73,127.0
312.79,124.0
312.86,133.0
312.92,138.0
312.98,123.0
313.05,120.0
313.11,121.0
313.17,131.0
313.24,126.0
313.3,147.0
313.36,158.0
313.42,133.0
313.49,144.0
313.55,145.0
313.61,136.0
313.68,160.0
313.74,143.0
313.8,147.0
313.87,139.0
313.93,121.0
313.99,146.0
314.05,140.0
314.12,154.0
314.18,137.0
314.24,138.0
314.31,137.0
314.37,131.0
314.43,141.0
314.5,133.0
314.56,127.0
314.62,131.0
314.68,126.0
314.75,116.0
314.81,145.0
314.87,143.0
314.94,131.0
315.0,144.0
315.06,130.0
315.13,121.0
315.19,123.0
315.25,130.0
315.31,144.0
315.38,133.0
315.44,146.0
315.5,147.0
315.57,121.0
315.63,129.0
315.69,126.0
315.76,116.0
315.82,118.0
315.88,125.0
315.94,129.0
316.01,108.0
316.07,106.0
316.13,122.0
316.2,125.0
316.26,143.0
316.32,118.0
316.39,105.0
316.45,107.0
316.51,100.0
316.57,93.0
316.64,105.0
316.7,112.0
316.76,98.0
316.83,111.0
316.89,108.0
316.95,78.0
317.02,70.0
317.08,59.0
317.14,67.0
317.2,52.0
317.27,60.0
317.33,74.0
317.39,64.0
317.46,85.0
317.52,89.0
317.58,76.0
317.65,74.0
317.71,67.0
317.77,65.0
317.83,50.0
317.9,74.0
317.96,59.0
318.02,63.0
318.09,60.0
318.15,25.0
318.21,22.0
318.28,25.0
318.34,15.0
318.4,7.0
318.46,14.0
318.53,9.0
318.59,30.0
318.65,-3.0
318.72,3.0
318.78,-7.0
318.84,-25.0
318.91,-15.0
318.97,-20.0
319.03,-4.0
319.09,-18.0
319.16,-18.0
319.22,-8.0
319.28,15.0
319.35,6.0
319.41,3.0
319.47,3.0
319.54,-13.0
319.6,-15.0
319.66,-39.0
319.72,-20.0
319.79,-33.0
319.85,-21.0
319.91,2.0
319.98,7.0
320.04,-6.0
320.1,-17.0
320.17,-4.0
320.23,6.0
320.29,-19.0
320.35,-3.0
320.42,11.0
320.48,18.0
320.54,22.0
320.61,24.0
320.67,46.0
320.73,24.0
320.8,35.0
320.86,46.0
320.92,40.0
320.98,39.0
321.05,48.0
321.11,42.0
321.17,22.0
321.24,33.0
321.3,39.0
321.36,48.0
321.43,35.0
321.49,47.0
321.55,57.0
321.61,55.0
321.68,56.0
321.74,45.0
321.8,44.0
321.87,50.0
321.93,41.0
321.99,52.0
322.06,50.0
322.12,69.0
322.18,65.0
322.24,57.0
322.31,88.0
322.37,68.0
322.43,64.0
322.5,65.0
322.56,65.0
322.62,55.0
322.69,77.0
322.75,80.0
322.81,72.0
322.87,91.0
322.94,89.0
323.0,80.0
323.06,88.0
323.13,90.0
323.19,88.0
323.25,83.0
323.32,77.0
323.38,63.0
323.44,58.0
323.5,61.0
323.57,54.0
323.63,90.0
323.69,86.0
323.76,84.0
323.82,81.0
323.88,78.0
323.95,77.0
324.01,58.0
324.07,78.0
324.13,82.0
324.2,90.0
324.26,90.0
324.32,91.0
324.39,77.0
324.45,77.0
324.51,111.0
324.58,89.0
324.64,88.0
324.7,97.0
324.76,90.0
324.83,87.0
324.89,98.0
324.95,100.0
325.02,105.0
325.08,110.0
325.14,105.0
325.21,111.0
325.27,120.0
325.33,115.0
325.39,113.0
325.46,115.0
325.52,121.0
325.58,121.0
325.65,130.0
325.71,135.0
325.77,119.0
325.84,129.0
325.9,147.0
325.96,127.0
326.02,130.0
326.09,143.0
326.15,130.0
326.21,132.0
326.28,157.0
326.34,158.0
326.4,162.0
326.47,149.0
326.53,141.0
326.59,160.0
326.65,159.0
326.72,145.0
326.78,146.0
326.84,145.0
326.91,152.0
326.97,140.0
327.03,135.0
327.1,138.0
327.16,134.0
327.22,116.0
327.28,127.0
327.35,132.0
327.41,143.0
327.47,118.0
327.54,123.0
327.6,120.0
327.66,133.0
327.73,110.0
327.79,103.0
327.85,109.0
327.91,116.0
327.98,112.0
328.04,99.0
328.1,108.0
328.17,113.0
328.23,119.0
328.29,105.0
328.36,93.0
328.42,99.0
328.48,93.0
328.54,102.0
328.61,119.0
328.67,115.0
328.73,94.0
328.8,116.0
328.86,111.0
328.92,128.0
328.99,132.0
329.05,124.0
329.11,134.0
329.17,127.0
329.24,146.0
329.3,152.0
329.36,156.0
329.43,162.0
329.49,163.0
329.55,171.0
329.62,189.0
329.68,187.0
329.74,185.0
329.8,176.0
329.87,184.0
329.93,185.0
329.99,178.0
330.06,188.0
330.12,179.0
330.18,171.0
330.25,163.0
330.31,167.0
330.37,154.0
330.43,164.0
330.5,160.0
330.56,167.0
330.62,164.0
330.69,163.0
330.75,175.0
330.81,176.0
330.88,164.0
330.94,177.0
331.0,193.0
331.06,170.0
331.13,156.0
331.19,167.0
331.25,143.0
331.32,158.0
331.38,189.0
331.44,182.0
331.51,165.0
331.57,154.0
331.63,166.0
331.69,154.0
331.76,154.0
331.82,148.0
331.88,148.0
331.95,167.0
332.01,162.0
332.07,148.0
332.14,158.0
332.2,145.0
332.26,156.0
332.32,142.0
332.39,142.0
332.45,138.0
332.51,129.0
332.58,160.0
332.64,143.0
332.7,148.0
332.77,146.0
332.83,137.0
332.89,126.0
332.95,138.0
333.02,131.0
333.08,140.0
333.14,142.0
333.21,149.0
333.27,130.0
333.33,136.0
333.4,121.0
333.46,134.0
333.52,142.0
333.58,141.0
333.65,129.0
333.71,107.0
333.77,109.0
333.84,101.0
333.9,105.0
333.96,106.0
334.03,107.0
334.09,106.0
334.15,103.0
334.21,117.0
334.28,81.0
334.34,85.0
334.4,101.0
334.47,108.0
334.53,75.0
334.59,84.0
334.66,91.0
334.72,96.0
334.78,75.0
334.84,86.0
334.91,102.0
334.97,71.0
335.03,83.0
335.1,98.0
335.16,97.0
335.22,82.0
335.29,63.0
335.35,61.0
335.41,71.0
335.47,68.0
335.54,89.0
335.6,85.0
335.66,82.0
335.73,80.0
335.79,68.0
335.85,66.0
335.92,59.0
335.98,55.0
336.04,65.0
336.1,75.0
336.17,76.0
336.23,61.0
336.29,72.0
336.36,68.0
336.42,48.0
336.48,49.0
336.55,43.0
336.61,54.0
336.67,42.0
336.73,72.0
336.8,68.0
336.86,77.0
336.92,80.0
336.99,71.0
337.05,84.0
337.11,68.0
337.18,73.0
337.24,101.0
337.3,84.0
337.36,74.0
337.43,105.0
337.49,117.0
337.55,111.0
337.62,97.0
337.68,96.0
337.74,104.0
337.81,102.0
337.87,100.0
337.93,87.0
337.99,102.0
338.06,106.0
338.12,103.0
338.18,111.0
338.25,94.0
338.31,105.0
338.37,90.0
338.44,86.0
338.5,76.0
338.56,81.0
338.62,78.0
338.69,91.0
338.75,96.0
338.81,74.0
338.88,82.0
338.94,79.0
339.0,72.0
339.07,86.0
339.13,87.0
339.19,101.0
339.25,115.0
339.32,94.0
339.38,113.0
339.44,113.0
339.51,96.0
339.57,118.0
339.63,107.0
339.7,90.0
339.76,105.0
339.82,87.0
339.88,86.0
339.95,86.0
340.01,86.0
340.07,85.0
340.14,85.0
340.2,69.0
340.26,88.0
340.33,67.0
340.39,63.0
340.45,72.0
340.51,57.0
340.58,79.0
340.64,61.0
340.7,58.0
340.77,62.0
340.83,64.0
340.89,63.0
340.96,50.0
341.02,46.0
341.08,62.0
341.14,62.0
341.21,60.0
341.27,72.0
341.33,78.0
341.4,91.0
341.46,85.0
341.52,76.0
341.59,83.0
341.65,86.0
341.71,95.0
341.77,101.0
341.84,117.0
341.9,105.0
341.96,113.0
342.03,98.0
342.09,114.0
342.15,104.0
342.22,108.0
342.28,127.0
342.34,114.0
342.4,123.0
342.47,109.0
342.53,120.0
342.59,116.0
342.66,111.0
342.72,109.0
342.78,124.0
342.85,126.0
342.91,107.0
342.97,124.0
343.03,139.0
343.1,112.0
343.16,113.0
343.22,110.0
343.29,126.0
343.35,127.0
343.41,134.0
343.48,116.0
343.54,107.0
343.6,138.0
343.66,138.0
343.73,131.0
343.79,123.0
343.85,139.0
343.92,144.0
343.98,159.0
344.04,148.0
344.11,126.0
344.17,132.0
344.23,129.0
344.29,127.0
344.36,130.0
344.42,129.0
344.48,138.0
344.55,123.0
344.61,112.0
344.67,109.0
344.74,100.0
344.8,84.0
344.86,87.0
344.92,94.0
344.99,92.0
345.05,88.0
345.11,101.0
345.18,126.0
345.24,123.0
345.3,127.0
345.37,129.0
345.43,129.0
345.49,142.0
345.55,139.0
345.62,151.0
345.68,143.0
345.74,130.0
345.81,124.0
345.87,153.0
345.93,155.0
346.0,157.0
346.06,154.0
346.12,172.0
346.18,153.0
346.25,145.0
346.31,156.0
346.37,138.0
346.44,160.0
346.5,160.0
346.56,156.0
346.63,133.0
346.69,141.0
346.75,137.0
346.81,141.0
346.88,158.0
346.94,168.0
347.0,164.0
347.07,152.0
347.13,136.0
347.19,131.0
347.26,147.0
347.32,166.0
347.38,155.0
347.44,170.0
347.51,182.0
347.57,172.0
347.63,173.0
347.7,178.0
347.76,171.0
347.82,158.0
347.89,172.0
347.95,181.0
348.01,175.0
348.07,190.0
348.14,185.0
348.2,192.0
348.26,185.0
348.33,182.0
348.39,178.0
348.45,178.0
348.52,184.0
348.58,198.0
348.64,200.0
348.7,234.0
348.77,237.0
348.83,226.0
348.89,214.0
348.96,208.0
349.02,187.0
349.08,206.0
349.15,215.0
349.21,233.0
349.27,228.0
349.33,206.0
349.4,218.0
349.46,202.0
349.52,211.0
349.59,195.0
349.65,186.0
349.71,178.0
349.78,192.0
349.84,181.0
349.9,175.0
349.96,177.0
350.03,167.0
350.09,155.0
350.15,152.0
350.22,166.0
350.28,159.0
350.34,151.0
350.41,148.0
350.47,168.0
350.53,176.0
350.59,170.0
350.66,179.0
350.72,167.0
350.78,177.0
350.85,182.0
350.91,165.0
350.97,185.0
351.04,168.0
351.1,175.0
351.16,184.0
351.22,162.0
351.29,164.0
351.35,151.0
351.41,170.0
351.48,151.0
351.54,156.0
351.6,171.0
351.67,156.0
351.73,146.0
351.79,161.0
351.85,161.0
351.92,171.0
351.98,170.0
352.04,158.0
352.11,172.0
352.17,163.0
352.23,161.0
352.3,159.0
352.36,134.0
352.42,143.0
352.48,143.0
352.55,130.0
352.61,120.0
352.67,113.0
352.74,122.0
352.8,132.0
352.86,126.0
352.93,112.0
352.99,109.0
353.05,118.0
353.11,112.0
353.18,108.0
353.24,116.0
353.3,123.0
353.37,91.0
353.43,95.0
353.49,105.0
353.56,98.0
353.62,113.0
353.68,81.0
353.74,98.0
353.81,96.0
353.87,102.0
353.93,110.0
354.0,111.0
354.06,123.0
354.12,120.0
354.19,98.0
354.25,114.0
354.31,130.0
354.37,125.0
354.44,106.0
354.5,104.0
354.56,121.0
354.63,123.0
354.69,120.0
354.75,103.0
354.82,128.0
354.88,130.0
354.94,123.0
355.0,90.0
355.07,97.0
355.13,104.0
355.19,101.0
355.26,83.0
355.32,85.0
355.38,103.0
355.45,112.0
355.51,116.0
355.57,104.0
355.63,115.0
355.7,117.0
355.76,130.0
355.82,109.0
355.89,118.0
355.95,118.0
356.01,119.0
356.08,123.0
356.14,149.0
356.2,121.0
356.26,122.0
356.33,131.0
356.39,118.0
356.45,125.0
356.52,119.0
356.58,129.0
356.64,119.0
356.71,139.0
356.77,146.0
356.83,133.0
356.89,146.0
356.96,142.0
357.02,136.0
357.08,136.0
357.15,119.0
357.21,106.0
357.27,91.0
357.34,124.0
357.4,127.0
357.46,114.0
357.52,149.0
357.59,153.0
357.65,144.0
357.71,127.0
357.78,105.0
357.84,124.0
357.9,112.0
357.97,132.0
358.03,126.0
358.09,101.0
358.15,122.0
358.22,112.0
358.28,110.0
358.34,105.0
358.41,108.0
358.47,121.0
358.53,90.0
358.6,101.0
358.66,95.0
358.72,107.0
358.78,110.0
358.85,101.0
358.91,86.0
358.97,83.0
359.04,96.0
359.1,101.0
359.16,86.0
359.23,100.0
359.29,116.0
359.35,104.0
359.41,90.0
359.48,94.0
359.54,93.0
359.6,88.0
359.67,74.0
359.73,83.0
359.79,69.0
359.86,76.0
359.92,83.0
359.98,76.0
360.04,63.0
360.11,68.0
360.17,91.0
360.23,87.0
360.3,90.0
360.36,109.0
360.42,88.0
360.49,94.0
360.55,107.0
360.61,124.0
360.67,107.0
360.74,106.0
360.8,109.0
360.86,110.0
360.93,109.0
360.99,98.0
361.05,90.0
361.12,91.0
361.18,77.0
361.24,59.0
361.3,56.0
361.37,70.0
361.43,72.0
361.49,95.0
361.56,84.0
361.62,78.0
361.68,90.0
361.75,64.0
361.81,78.0
361.87,71.0
361.93,72.0
362.0,78.0
362.06,58.0
362.12,86.0
362.19,90.0
362.25,79.0
362.31,71.0
362.38,61.0
362.44,71.0
362.5,77.0
362.56,80.0
362.63,66.0
362.69,65.0
362.75,68.0
362.82,69.0
362.88,74.0
362.94,80.0
363.01,81.0
363.07,84.0
363.13,88.0
363.19,76.0
363.26,78.0
363.32,88.0
363.38,95.0
363.45,83.0
363.51,84.0
363.57,79.0
363.64,82.0
363.7,88.0
363.76,78.0
363.82,97.0
363.89,103.0
363.95,93.0
364.01,79.0
364.08,88.0
364.14,98.0
364.2,107.0
364.27,82.0
364.33,83.0
364.39,83.0
364.45,82.0
364.52,73.0
364.58,98.0
364.64,110.0
364.71,109.0
364.77,107.0
364.83,110.0
364.9,104.0
364.96,96.0
365.02,92.0
365.08,106.0
365.15,113.0
365.21,97.0
365.27,101.0
365.34,107.0
365.4,104.0
365.46,111.0
365.53,118.0
365.59,102.0
365.65,104.0
365.71,107.0
365.78,114.0
365.84,112.0
365.9,110.0
365.97,110.0
366.03,102.0
366.09,105.0
366.16,107.0
366.22,107.0
366.28,101.0
366.34,126.0
366.41,131.0
366.47,123.0
366.53,95.0
366.6,108.0
366.66,107.0
366.72,118.0
366.79,98.0
366.85,97.0
366.91,91.0
366.97,70.0
367.04,87.0
367.1,78.0
367.16,80.0
367.23,87.0
367.29,94.0
367.35,92.0
367.42,98.0
367.48,95.0
367.54,86.0
367.6,93.0
367.67,104.0
367.73,90.0
367.79,96.0
367.86,112.0
367.92,101.0
367.98,91.0
368.05,70.0
368.11,62.0
368.17,61.0
368.23,56.0
368.3,58.0
368.36,78.0
368.42,74.0
368.49,75.0
368.55,68.0
368.61,55.0
368.68,70.0
368.74,50.0
368.8,44.0
368.86,31.0
368.93,38.0
368.99,35.0
369.05,36.0
369.12,46.0
369.18,37.0
369.24,26.0
369.31,37.0
369.37,62.0
369.43,53.0
369.49,34.0
369.56,46.0
369.62,32.0
369.68,34.0
369.75,25.0
369.81,13.0
369.87,12.0
369.94,13.0
370.0,16.0
370.06,17.0
370.12,10.0
370.19,-5.0
370.25,7.0
370.31,15.0
370.38,18.0
370.44,2.0
370.5,17.0
370.57,14.0
370.63,18.0
370.69,32.0
370.75,26.0
370.82,23.0
370.88,44.0
370.94,35.0
371.01,38.0
371.07,42.0
371.13,47.0
371.2,57.0
371.26,60.0
371.32,64.0
371.38,68.0
371.45,78.0
371.51,77.0
371.57,84.0
371.64,74.0
371.7,86.0
371.76,83.0
371.83,69.0
371.89,73.0
371.95,76.0
372.01,82.0
372.08,86.0
372.14,104.0
372.2,106.0
372.27,99.0
372.33,108.0
372.39,110.0
372.46,101.0
372.52,115.0
372.58,107.0
372.64,102.0
372.71,98.0
372.77,110.0
372.83,117.0
372.9,95.0
372.96,98.0
373.02,105.0
373.09,112.0
373.15,121.0
373.21,121.0
373.27,101.0
373.34,95.0
373.4,91.0
373.46,90.0
373.53,80.0
373.59,96.0
373.65,94.0
373.72,93.0
373.78,101.0
373.84,105.0
373.9,95.0
373.97,104.0
374.03,101.0
374.09,111.0
374.16,105.0
374.22,105.0
374.28,131.0
374.35,108.0
374.41,105.0
374.47,102.0
374.53,101.0
374.6,111.0
374.66,101.0
374.72,89.0
374.79,124.0
374.85,122.0
374.91,98.0
374.98,91.0
375.04,87.0
375.1,105.0
375.16,108.0
375.23,102.0
375.29,110.0
375.35,115.0
375.42,111.0
375.48,107.0
375.54,108.0
375.61,82.0
375.67,115.0
375.73,112.0
375.79,119.0
375.86,119.0
375.92,105.0
375.98,108.0
376.05,112.0
376.11,131.0
376.17,123.0
376.24,101.0
376.3,111.0
376.36,105.0
376.42,102.0
376.49,112.0
376.55,94.0
376.61,97.0
376.68,116.0
376.74,119.0
376.8,108.0
376.87,107.0
376.93,100.0
376.99,107.0
377.05,118.0
377.12,110.0
377.18,115.0
377.24,126.0
377.31,132.0
377.37,126.0
377.43,133.0
377.5,111.0
377.56,131.0
377.62,113.0
377.68,115.0
377.75,113.0
377.81,125.0
377.87,122.0
377.94,120.0
378.0,119.0
378.06,119.0
378.13,130.0
378.19,122.0
378.25,106.0
378.31,103.0
378.38,118.0
378.44,104.0
378.5,108.0
378.57,130.0
378.63,123.0
378.69,126.0
378.76,134.0
378.82,128.0
378.88,99.0
378.94,124.0
379.01,127.0
379.07,125.0
379.13,121.0
379.2,121.0
379.26,139.0
379.32,129.0
379.39,137.0
379.45,144.0
379.51,141.0
379.57,146.0
379.64,157.0
379.7,155.0
379.76,135.0
379.83,153.0
379.89,144.0
379.95,154.0
380.02,132.0
380.08,149.0
380.14,146.0
380.2,141.0
380.27,124.0
380.33,127.0
380.39,141.0
380.46,148.0
380.52,144.0
380.58,138.0
380.65,124.0
380.71,145.0
380.77,145.0
380.83,151.0
380.9,135.0
380.96,156.0
381.02,160.0
381.09,145.0
381.15,151.0
381.21,157.0
381.28,174.0
381.34,177.0
381.4,171.0
381.46,166.0
381.53,178.0
381.59,184.0
381.65,194.0
381.72,181.0
381.78,185.0
381.84,171.0
381.91,167.0
381.97,186.0
382.03,179.0
382.09,183.0
382.16,175.0
382.22,176.0
382.28,181.0
382.35,171.0
382.41,193.0
382.47,182.0
382.54,172.0
382.6,198.0
382.66,189.0
382.72,182.0
382.79,176.0
382.85,174.0
382.91,174.0
382.98,182.0
383.04,188.0
383.1,191.0
383.17,196.0
383.23,185.0
383.29,177.0
383.35,174.0
383.42,179.0
383.48,173.0
383.54,187.0
383.61,189.0
383.67,173.0
383.73,170.0
383.8,172.0
383.86,159.0
383.92,178.0
383.98,161.0
384.05,136.0
384.11,169.0
384.17,167.0
384.24,168.0
384.3,151.0
384.36,152.0
384.43,159.0
384.49,139.0
384.55,141.0
384.61,155.0
384.68,132.0
384.74,156.0
384.8,142.0
384.87,127.0
384.93,122.0
384.99,125.0
385.06,119.0
385.12,124.0
385.18,119.0
385.24,121.0
385.31,109.0
385.37,108.0
385.43,90.0
385.5,97.0
385.56,116.0
385.62,91.0
385.69,97.0
385.75,106.0
385.81,108.0
385.87,99.0
385.94,92.0
386.0,76.0
386.06,85.0
386.13,93.0
386.19,81.0
386.25,90.0
386.32,86.0
386.38,85.0
386.44,97.0
386.5,102.0
386.57,107.0
386.63,102.0
386.69,118.0
386.76,125.0
386.82,134.0
386.88,126.0
386.95,128.0
387.01,122.0
387.07,108.0
387.13,102.0
387.2,95.0
387.26,121.0
387.32,101.0
387.39,138.0
387.45,139.0
387.51,142.0
387.58,129.0
387.64,116.0
387.7,132.0
387.76,129.0
387.83,135.0
387.89,134.0
387.95,140.0
388.02,127.0
388.08,146.0
388.14,131.0
388.21,129.0
388.27,140.0
388.33,146.0
388.39,143.0
388.46,145.0
388.52,116.0
388.58,121.0
388.65,140.0
388.71,141.0
388.77,171.0
388.84,157.0
388.9,141.0
388.96,143.0
389.02,119.0
389.09,136.0
389.15,105.0
389.21,109.0
389.28,115.0
389.34,115.0
389.4,126.0
389.47,123.0
389.53,133.0
389.59,120.0
389.65,128.0
389.72,133.0
389.78,119.0
389.84,129.0
389.91,127.0
389.97,137.0
390.03,133.0
390.1,126.0
390.16,141.0
390.22,147.0
390.28,152.0
390.35,154.0
390.41,140.0
390.47,137.0
390.54,150.0
390.6,138.0
390.66,141.0
390.73,143.0
390.79,153.0
390.85,146.0
390.91,131.0
390.98,124.0
391.04,138.0
391.1,146.0
391.17,136.0
391.23,136.0
391.29,144.0
391.36,139.0
391.42,144.0
391.48,139.0
391.54,143.0
391.61,131.0
391.67,122.0
391.73,138.0
391.8,137.0
391.86,120.0
391.92,122.0
391.99,141.0
392.05,140.0
392.11,140.0
392.17,124.0
392.24,139.0
392.3,159.0
392.36,149.0
392.43,136.0
392.49,141.0
392.55,145.0
392.62,137.0
392.68,118.0
392.74,101.0
392.8,95.0
392.87,108.0
392.93,131.0
392.99,113.0
393.06,137.0
393.12,133.0
393.18,122.0
393.25,104.0
393.31,140.0
393.37,123.0
393.43,107.0
393.5,120.0
393.56,108.0
393.62,104.0
393.69,77.0
393.75,90.0
393.81,98.0
393.88,90.0
393.94,92.0
394.0,84.0
394.06,87.0
394.13,79.0
394.19,80.0
394.25,92.0
394.32,100.0
394.38,83.0
394.44,68.0
394.51,68.0
394.57,67.0
394.63,65.0
394.69,49.0
394.76,69.0
394.82,71.0
394.88,46.0
394.95,46.0
395.01,52.0
395.07,52.0
395.14,60.0
395.2,35.0
395.26,18.0
395.32,32.0
395.39,29.0
395.45,42.0
395.51,49.0
395.58,39.0
395.64,35.0
395.7,28.0
395.77,42.0
395.83,56.0
395.89,50.0
395.95,33.0
396.02,49.0
396.08,44.0
396.14,68.0
396.21,53.0
396.27,46.0
396.33,58.0
396.4,65.0
396.46,71.0
396.52,55.0
396.58,48.0
396.65,66.0
396.71,57.0
396.77,46.0
396.84,61.0
396.9,66.0
396.96,76.0
397.03,79.0
397.09,68.0
397.15,87.0
397.21,90.0
397.28,63.0
397.34,54.0
397.4,60.0
397.47,58.0
397.53,71.0
397.59,65.0
397.66,59.0
397.72,63.0
397.78,71.0
397.84,83.0
397.91,64.0
397.97,48.0
398.03,67.0
398.1,58.0
398.16,68.0
398.22,66.0
398.29,82.0
398.35,83.0
398.41,82.0
398.47,82.0
398.54,68.0
398.6,73.0
398.66,71.0
398.73,71.0
398.79,92.0
398.85,97.0
398.92,75.0
398.98,85.0
399.04,85.0
399.1,98.0
399.17,107.0
399.23,96.0
399.29,121.0
399.36,119.0
399.42,99.0
399.48,121.0
399.55,110.0
399.61,104.0
399.67,138.0
399.73,145.0
399.8,149.0
399.86,128.0
399.92,124.0
399.99,108.0
400.05,88.0
400.11,98.0
400.18,121.0
400.24,114.0
400.3,122.0
400.36,111.0
400.43,112.0
400.49,97.0
400.55,93.0
400.62,93.0
400.68,100.0
400.74,114.0
400.81,87.0
400.87,98.0
400.93,108.0
400.99,115.0
401.06,108.0
401.12,101.0
401.18,96.0
401.25,96.0
401.31,128.0
401.37,135.0
401.44,126.0
401.5,127.0
401.56,112.0
401.62,116.0
401.69,115.0
401.75,131.0
401.81,145.0
401.88,135.0
401.94,137.0
402.0,148.0
402.07,158.0
402.13,140.0
402.19,134.0
402.25,149.0
402.32,136.0
402.38,128.0
402.44,138.0
402.51,138.0
402.57,139.0
402.63,140.0
402.7,139.0
402.76,144.0
402.82,158.0
402.88,160.0
402.95,151.0
403.01,155.0
403.07,138.0
403.14,153.0
403.2,152.0
403.26,162.0
403.33,150.0
403.39,162.0
403.45,159.0
403.51,168.0
403.58,177.0
403.64,162.0
403.7,176.0
403.77,163.0
403.83,167.0
403.89,158.0
403.96,177.0
404.02,163.0
404.08,176.0
404.14,165.0
404.21,179.0
404.27,171.0
404.33,166.0
404.4,186.0
404.46,175.0
404.52,179.0
404.59,174.0
404.65,182.0
404.71,174.0
404.77,174.0
404.84,182.0
404.9,177.0
404.96,170.0
405.03,168.0
405.09,156.0
405.15,155.0
405.22,176.0
405.28,182.0
405.34,176.0
405.4,184.0
405.47,176.0
405.53,181.0
405.59,179.0
405.66,201.0
405.72,195.0
405.78,179.0
405.85,200.0
405.91,198.0
405.97,209.0
406.03,197.0
406.1,189.0
406.16,199.0
406.22,218.0
406.29,214.0
406.35,210.0
406.41,217.0
406.48,224.0
406.54,215.0
406.6,225.0
406.66,221.0
406.73,236.0
406.79,226.0
406.85,225.0
406.92,239.0
406.98,244.0
407.04,225.0
407.11,242.0
407.17,242.0
407.23,230.0
407.29,231.0
407.36,240.0
407.42,237.0
407.48,236.0
407.55,251.0
407.61,251.0
407.67,245.0
407.74,243.0
407.8,245.0
407.86,231.0
407.92,246.0
407.99,253.0
408.05,251.0
408.11,254.0
408.18,239.0
408.24,232.0
408.3,243.0
408.37,238.0
408.43,221.0
408.49,215.0
408.55,222.0
408.62,243.0
408.68,237.0
408.74,252.0
408.81,233.0
408.87,239.0
408.93,226.0
409.0,232.0
409.06,257.0
409.12,247.0
409.18,250.0
409.25,242.0
409.31,209.0
409.37,225.0
409.44,238.0
409.5,237.0
409.56,229.0
409.63,233.0
409.69,231.0
409.75,245.0
409.81,248.0
409.88,234.0
409.94,234.0
410.0,223.0
410.07,238.0
410.13,228.0
410.19,240.0
410.26,237.0
410.32,220.0
410.38,202.0
410.44,213.0
410.51,192.0
410.57,199.0
410.63,201.0
410.7,184.0
410.76,198.0
410.82,194.0
410.89,178.0
410.95,168.0
411.01,162.0
411.07,148.0
411.14,152.0
411.2,163.0
411.26,161.0
411.33,149.0
411.39,152.0
411.45,137.0
411.52,141.0
411.58,151.0
411.64,134.0
411.7,131.0
411.77,132.0
411.83,140.0
411.89,135.0
411.96,134.0
412.02,100.0
412.08,121.0
412.15,113.0
412.21,91.0
412.27,119.0
412.33,104.0
412.4,114.0
412.46,104.0
412.52,97.0
412.59,91.0
412.65,97.0
412.71,89.0
412.78,85.0
412.84,109.0
412.9,99.0
412.96,89.0
413.03,88.0
413.09,103.0
413.15,98.0
413.22,99.0
413.28,108.0
413.34,110.0
413.41,111.0
413.47,102.0
413.53,112.0
413.59,96.0
413.66,84.0
413.72,104.0
413.78,97.0
413.85,96.0
413.91,86.0
413.97,102.0
414.04,101.0
414.1,85.0
414.16,108.0
414.22,97.0
414.29,115.0
414.35,91.0
414.41,79.0
414.48,93.0
414.54,89.0
414.6,77.0
414.67,78.0
414.73,66.0
414.79,70.0
414.85,97.0
414.92,107.0
414.98,103.0
415.04,93.0
415.11,88.0
415.17,78.0
415.23,84.0
415.3,112.0
415.36,110.0
415.42,97.0
415.48,93.0
415.55,85.0
415.61,71.0
415.67,73.0
415.74,51.0
415.8,52.0
415.86,45.0
415.93,55.0
415.99,63.0
416.05,63.0
416.11,64.0
416.18,35.0
416.24,34.0
416.3,48.0
416.37,50.0
416.43,36.0
416.49,42.0
416.56,45.0
416.62,42.0
416.68,66.0
416.74,25.0
416.81,24.0
416.87,32.0
416.93,30.0
417.0,49.0
417.06,38.0
417.12,38.0
417.19,40.0
417.25,30.0
417.31,44.0
417.37,42.0
417.44,58.0
417.5,53.0
417.56,50.0
417.63,38.0
417.69,29.0
417.75,23.0
417.82,38.0
417.88,40.0
417.94,39.0
418.0,52.0
418.07,71.0
418.13,67.0
418.19,50.0
418.26,61.0
418.32,76.0
418.38,59.0
418.45,58.0
418.51,70.0
418.57,58.0
418.63,72.0
418.7,65.0
418.76,46.0
418.82,23.0
418.89,37.0
418.95,45.0
419.01,30.0
419.08,28.0
419.14,20.0
419.2,33.0
419.26,52.0
419.33,32.0
419.39,38.0
419.45,25.0
419.52,17.0
419.58,19.0
419.64,16.0
419.71,31.0
419.77,19.0
419.83,5.0
419.89,20.0
419.96,20.0
420.02,14.0
420.08,22.0
420.15,38.0
420.21,23.0
420.27,16.0
420.34,25.0
420.4,27.0
420.46,18.0
420.52,8.0
420.59,19.0
420.65,5.0
420.71,17.0
420.78,7.0
420.84,9.0
420.9,22.0
420.97,11.0
421.03,13.0
421.09,21.0
421.15,16.0
421.22,22.0
421.28,1.0
421.34,10.0
421.41,23.0
421.47,13.0
421.53,9.0
421.6,15.0
421.66,20.0
421.72,14.0
421.78,9.0
421.85,18.0
421.91,46.0
421.97,41.0
422.04,33.0
422.1,43.0
422.16,38.0
422.23,49.0
422.29,46.0
422.35,65.0
422.41,74.0
422.48,86.0
422.54,89.0
422.6,93.0
422.67,74.0
422.73,72.0
422.79,82.0
422.86,83.0
422.92,94.0
422.98,71.0
423.04,104.0
423.11,84.0
423.17,91.0
423.23,91.0
423.3,111.0
423.36,95.0
423.42,86.0
423.49,94.0
423.55,101.0
423.61,124.0
423.67,114.0
423.74,129.0
423.8,149.0
423.86,134.0
423.93,139.0
423.99,118.0
424.05,131.0
424.12,151.0
424.18,139.0
424.24,139.0
424.3,144.0
424.37,157.0
424.43,159.0
424.49,153.0
424.56,156.0
424.62,152.0
424.68,134.0
424.75,126.0
424.81,141.0
424.87,145.0
424.93,146.0
425.0,138.0
425.06,130.0
425.12,134.0
425.19,127.0
425.25,151.0
425.31,140.0
425.38,159.0
425.44,167.0
425.5,165.0
425.56,164.0
425.63,158.0
425.69,161.0
425.75,171.0
425.82,170.0
425.88,179.0
425.94,183.0
426.01,171.0
426.07,177.0
426.13,178.0
426.19,185.0
426.26,192.0
426.32,172.0
426.38,177.0
426.45,198.0
426.51,199.0
426.57,179.0
426.64,180.0
426.7,197.0
426.76,198.0
426.82,192.0
426.89,187.0
426.95,199.0
427.01,207.0
427.08,187.0
427.14,199.0
427.2,204.0
427.27,202.0
427.33,186.0
427.39,209.0
427.45,207.0
427.52,195.0
427.58,178.0
427.64,184.0
427.71,199.0
427.77,161.0
427.83,173.0
427.9,169.0
427.96,153.0
428.02,167.0
428.08,163.0
428.15,170.0
428.21,167.0
428.27,177.0
428.34,170.0
428.4,165.0
428.46,176.0
428.53,188.0
428.59,192.0
428.65,171.0
428.71,154.0
428.78,166.0
428.84,170.0
428.9,159.0
428.97,157.0
429.03,176.0
429.09,164.0
429.16,174.0
429.22,178.0
429.28,174.0
429.34,185.0
429.41,170.0
429.47,173.0
429.53,185.0
429.6,170.0
429.66,160.0
429.72,152.0
429.79,159.0
429.85,174.0
429.91,156.0
429.97,144.0
430.04,149.0
430.1,160.0
430.16,167.0
430.23,166.0
430.29,171.0
430.35,181.0
430.42,160.0
430.48,148.0
430.54,148.0
430.6,166.0
430.67,159.0
430.73,162.0
430.79,149.0
430.86,134.0
430.92,160.0
430.98,148.0
431.05,146.0
431.11,147.0
431.17,134.0
431.23,133.0
431.3,157.0
431.36,182.0
431.42,168.0
431.49,152.0
431.55,155.0
431.61,146.0
431.68,144.0
431.74,152.0
431.8,153.0
431.86,146.0
431.93,165.0
431.99,165.0
432.05,161.0
432.12,141.0
432.18,157.0
432.24,145.0
432.31,159.0
432.37,137.0
432.43,134.0
432.49,160.0
432.56,143.0
432.62,132.0
432.68,134.0
432.75,124.0
432.81,132.0
432.87,140.0
432.94,138.0
433.0,148.0
433.06,168.0
433.12,159.0
433.19,141.0
433.25,149.0
433.31,127.0
433.38,135.0
433.44,125.0
433.5,125.0
433.57,128.0
433.63,131.0
433.69,121.0
433.75,116.0
433.82,113.0
433.88,119.0
433.94,111.0
434.01,93.0
434.07,111.0
434.13,118.0
434.2,115.0
434.26,119.0
434.32,119.0
434.38,123.0
434.45,131.0
434.51,131.0
434.57,120.0
434.64,106.0
434.7,119.0
434.76,113.0
434.83,94.0
434.89,87.0
434.95,101.0
435.01,105.0
435.08,107.0
435.14,102.0
435.2,93.0
435.27,86.0
435.33,86.0
435.39,93.0
435.46,108.0
435.52,119.0
435.58,119.0
435.64,118.0
435.71,112.0
435.77,116.0
435.83,113.0
435.9,97.0
435.96,106.0
436.02,95.0
436.09,100.0
436.15,64.0
436.21,71.0
436.27,89.0
436.34,65.0
436.4,57.0
436.46,50.0
436.53,67.0
436.59,71.0
436.65,42.0
436.72,45.0
436.78,48.0
436.84,50.0
436.9,41.0
436.97,41.0
437.03,38.0
437.09,47.0
437.16,49.0
437.22,42.0
437.28,36.0
437.35,54.0
437.41,69.0
437.47,60.0
437.53,54.0
437.6,54.0
437.66,53.0
437.72,46.0
437.79,61.0
437.85,52.0
437.91,67.0
437.98,64.0
438.04,48.0
438.1,60.0
438.16,68.0
438.23,61.0
438.29,50.0
438.35,81.0
438.42,71.0
438.48,60.0
438.54,60.0
438.61,73.0
438.67,68.0
438.73,68.0
438.79,93.0
438.86,64.0
438.92,82.0
438.98,60.0
439.05,57.0
439.11,77.0
439.17,78.0
439.24,62.0
439.3,49.0
439.36,59.0
439.42,56.0
439.49,76.0
439.55,76.0
439.61,75.0
439.68,77.0
439.74,75.0
439.8,83.0
439.87,95.0
439.93,91.0
439.99,77.0
440.05,83.0
440.12,88.0
440.18,91.0
440.24,107.0
440.31,101.0
440.37,102.0
440.43,93.0
440.5,97.0
440.56,91.0
440.62,102.0
440.68,71.0
440.75,82.0
440.81,97.0
440.87,94.0
440.94,113.0
441.0,88.0
441.06,105.0
441.13,111.0
441.19,121.0
441.25,138.0
441.31,121.0
441.38,107.0
441.44,135.0
441.5,125.0
441.57,112.0
441.63,121.0
441.69,121.0
441.76,129.0
441.82,141.0
441.88,127.0
441.94,126.0
442.01,126.0
442.07,122.0
442.13,131.0
442.2,134.0
442.26,118.0
442.32,127.0
442.39,136.0
442.45,146.0
442.51,143.0
442.57,143.0
442.64,129.0
442.7,142.0
442.76,138.0
442.83,129.0
442.89,151.0
442.95,151.0
443.02,153.0
443.08,127.0
443.14,140.0
443.2,149.0
443.27,156.0
443.33,155.0
443.39,171.0
443.46,173.0
443.52,167.0
443.58,152.0
443.65,168.0
443.71,160.0
443.77,150.0
443.83,144.0
443.9,153.0
443.96,158.0
444.02,164.0
444.09,172.0
444.15,163.0
444.21,157.0
444.28,155.0
444.34,165.0
444.4,163.0
444.46,157.0
444.53,137.0
444.59,163.0
444.65,145.0
444.72,138.0
444.78,148.0
444.84,153.0
444.91,170.0
444.97,134.0
445.03,143.0
445.09,161.0
445.16,149.0
445.22,159.0
445.28,148.0
445.35,146.0
445.41,152.0
445.47,151.0
445.54,130.0
445.6,125.0
445.66,123.0
445.72,150.0
445.79,135.0
445.85,124.0
445.91,123.0
445.98,115.0
446.04,113.0
446.1,118.0
446.17,98.0
446.23,108.0
446.29,119.0
446.35,113.0
446.42,133.0
446.48,125.0
446.54,138.0
446.61,119.0
446.67,117.0
446.73,136.0
446.8,112.0
446.86,106.0
446.92,124.0
446.98,115.0
447.05,116.0
447.11,93.0
447.17,97.0
447.24,109.0
447.3,97.0
447.36,109.0
447.43,115.0
447.49,121.0
447.55,105.0
447.61,100.0
447.68,96.0
447.74,106.0
447.8,101.0
447.87,108.0
447.93,95.0
447.99,99.0
448.06,98.0
448.12,107.0
448.18,110.0
448.24,75.0
448.31,102.0
448.37,87.0
448.43,86.0
448.5,104.0
448.56,83.0
448.62,82.0
448.69,81.0
448.75,85.0
448.81,86.0
448.87,83.0
448.94,114.0
449.0,107.0
449.06,100.0
449.13,97.0
449.19,92.0
449.25,80.0
449.32,77.0
449.38,102.0
449.44,72.0
449.5,72.0
449.57,77.0
449.63,83.0
449.69,80.0
449.76,75.0
449.82,70.0
449.88,64.0
449.95,59.0
450.01,30.0
450.07,44.0
450.13,43.0
450.2,38.0
450.26,45.0
450.32,37.0
450.39,44.0
450.45,60.0
450.51,51.0
450.58,61.0
450.64,45.0
450.7,36.0
450.76,58.0
450.83,52.0
450.89,52.0
450.95,58.0
451.02,51.0
451.08,44.0
451.14,57.0
451.21,58.0
451.27,58.0
451.33,49.0
451.39,79.0
451.46,81.0
451.52,63.0
451.58,60.0
451.65,71.0
451.71,68.0
451.77,58.0
451.84,30.0
451.9,42.0
451.96,27.0
452.02,21.0
452.09,36.0
452.15,42.0
452.21,39.0
452.28,26.0
452.34,31.0
452.4,56.0
452.47,54.0
452.53,29.0
452.59,23.0
452.65,33.0
452.72,17.0
452.78,18.0
452.84,35.0
452.91,16.0
452.97,25.0
453.03,27.0
453.1,9.0
453.16,-8.0
453.22,14.0
453.28,-14.0
453.35,-19.0
453.41,-25.0
453.47,-29.0
453.54,12.0
453.6,-3.0
453.66,-9.0
453.73,-21.0
453.79,-14.0
453.85,-8.0
453.91,-14.0
453.98,16.0
454.04,18.0
454.1,-13.0
454.17,-12.0
454.23,7.0
454.29,1.0
454.36,17.0
454.42,27.0
454.48,3.0
454.54,18.0
454.61,4.0
454.67,1.0
454.73,15.0
454.8,19.0
454.86,35.0
454.92,25.0
454.99,19.0
455.05,38.0
455.11,59.0
455.17,56.0
455.24,42.0
455.3,52.0
455.36,56.0
455.43,55.0
455.49,53.0
455.55,22.0
455.62,23.0
455.68,35.0
455.74,63.0
455.8,50.0
455.87,33.0
455.93,41.0
455.99,59.0
456.06,62.0
456.12,56.0
456.18,53.0
456.25,59.0
456.31,77.0
456.37,73.0
456.43,73.0
456.5,92.0
456.56,73.0
456.62,99.0
456.69,108.0
456.75,110.0
456.81,99.0
456.88,83.0
456.94,103.0
457.0,84.0
457.06,101.0
457.13,91.0
457.19,94.0
457.25,110.0
457.32,96.0
457.38,118.0
457.44,108.0
457.51,100.0
457.57,135.0
457.63,119.0
457.69,130.0
457.76,125.0
457.82,121.0
457.88,119.0
457.95,123.0
458.01,125.0
458.07,143.0
458.14,133.0
458.2,138.0
458.26,151.0
458.32,168.0
458.39,152.0
458.45,158.0
458.51,172.0
458.58,168.0
458.64,188.0
458.7,168.0
458.77,174.0
458.83,162.0
458.89,174.0
458.95,180.0
459.02,179.0
459.08,179.0
459.14,180.0
459.21,216.0
459.27,209.0
459.33,198.0
459.4,202.0
459.46,210.0
459.52,220.0
459.58,188.0
459.65,188.0
459.71,213.0
459.77,207.0
459.84,218.0
459.9,223.0
459.96,198.0
460.03,204.0
460.09,202.0
460.15,217.0
460.21,215.0
460.28,211.0
460.34,183.0
460.4,193.0
460.47,210.0
460.53,216.0
460.59,220.0
460.66,236.0
460.72,245.0
460.78,230.0
460.84,232.0
460.91,227.0
460.97,225.0
461.03,240.0
461.1,231.0
461.16,228.0
461.22,238.0
461.29,245.0
461.35,240.0
461.41,223.0
461.47,214.0
461.54,213.0
461.6,238.0
461.66,238.0
461.73,234.0
461.79,231.0
461.85,228.0
461.92,208.0
461.98,204.0
462.04,210.0
462.1,217.0
462.17,227.0
462.23,228.0
462.29,226.0
462.36,227.0
462.42,199.0
462.48,199.0
462.55,188.0
462.61,182.0
462.67,194.0
462.73,168.0
462.8,182.0
462.86,186.0
462.92,180.0
462.99,191.0
463.05,176.0
463.11,169.0
463.18,183.0
463.24,190.0
463.3,182.0
463.36,179.0
463.43,188.0
463.49,202.0
463.55,176.0
463.62,186.0
463.68,173.0
463.74,190.0
463.81,191.0
463.87,179.0
463.93,183.0
463.99,208.0
464.06,211.0
464.12,196.0
464.18,190.0
464.25,201.0
464.31,189.0
464.37,166.0
464.44,180.0
464.5,188.0
464.56,193.0
464.62,176.0
464.69,177.0
464.75,169.0
464.81,193.0
464.88,226.0
464.94,215.0
465.0,217.0
465.07,216.0
465.13,203.0
465.19,191.0
465.25,184.0
465.32,202.0
465.38,187.0
465.44,185.0
465.51,203.0
465.57,191.0
465.63,201.0
465.7,199.0
465.76,206.0
465.82,195.0
465.88,192.0
465.95,204.0
466.01,202.0
466.07,188.0
466.14,191.0
466.2,180.0
466.26,179.0
466.33,190.0
466.39,182.0
466.45,154.0
466.51,152.0
466.58,147.0
466.64,140.0
466.7,128.0
466.77,141.0
466.83,159.0
466.89,134.0
466.96,150.0
467.02,138.0
467.08,136.0
467.14,142.0
467.21,132.0
467.27,136.0
467.33,117.0
467.4,131.0
467.46,109.0
467.52,102.0
467.59,107.0
467.65,100.0
467.71,80.0
467.77,86.0
467.84,105.0
467.9,74.0
467.96,84.0
468.03,89.0
468.09,106.0
468.15,106.0
468.22,93.0
468.28,95.0
468.34,90.0
468.4,111.0
468.47,121.0
468.53,89.0
468.59,97.0
468.66,97.0
468.72,95.0
468.78,80.0
468.85,63.0
468.91,44.0
468.97,45.0
469.03,42.0
469.1,41.0
469.16,31.0
469.22,35.0
469.29,40.0
469.35,44.0
469.41,22.0
469.48,20.0
469.54,12.0
469.6,12.0
469.66,32.0
469.73,26.0
469.79,15.0
469.85,25.0
469.92,19.0
469.98,10.0
470.04,26.0
470.11,10.0
470.17,1.0
470.23,15.0
470.29,18.0
470.36,26.0
470.42,21.0
470.48,1.0
470.55,-2.0
470.61,11.0
470.67,14.0
470.74,-5.0
470.8,24.0
470.86,13.0
470.92,12.0
470.99,17.0
471.05,28.0
471.11,19.0
471.18,22.0
471.24,29.0
471.3,21.0
471.37,10.0
471.43,-1.0
471.49,-9.0
471.55,-20.0
471.62,-9.0
471.68,-4.0
471.74,-1.0
471.81,1.0
471.87,11.0
471.93,11.0
472.0,21.0
472.06,20.0
472.12,7.0
472.18,8.0
472.25,13.0
472.31,17.0
472.37,-25.0
472.44,-6.0
472.5,2.0
472.56,-10.0
472.63,-7.0
472.69,-24.0
472.75,-20.0
472.81,-15.0
472.88,-12.0
472.94,-13.0
473.0,-20.0
473.07,-40.0
473.13,-38.0
473.19,-49.0
473.26,-17.0
473.32,4.0
473.38,3.0
473.44,-7.0
473.51,-16.0
473.57,-12.0
473.63,-17.0
473.7,-4.0
473.76,10.0
473.82,2.0
473.89,6.0
473.95,15.0
474.01,12.0
474.07,-4.0
474.14,18.0
474.2,23.0
474.26,37.0
474.33,29.0
474.39,32.0
474.45,26.0
474.52,10.0
474.58,11.0
474.64,23.0
474.7,7.0
474.77,26.0
474.83,41.0
474.89,40.0
474.96,42.0
475.02,44.0
475.08,52.0
475.15,58.0
475.21,51.0
475.27,47.0
475.33,37.0
475.4,53.0
475.46,75.0
475.52,80.0
475.59,51.0
475.65,66.0
475.71,63.0
475.78,63.0
475.84,90.0
475.9,66.0
475.96,95.0
476.03,99.0
476.09,79.0
476.15,101.0
476.22,89.0
476.28,76.0
476.34,96.0
476.41,97.0
476.47,104.0
476.53,104.0
476.59,133.0
476.66,126.0
476.72,131.0
476.78,133.0
476.85,122.0
476.91,145.0
476.97,124.0
477.04,155.0
477.1,143.0
477.16,132.0
477.22,142.0
477.29,157.0
477.35,153.0
477.41,154.0
477.48,151.0
477.54,134.0
477.6,150.0
477.67,143.0
477.73,131.0
477.79,140.0
477.85,154.0
477.92,135.0
477.98,123.0
478.04,128.0
478.11,134.0
478.17,136.0
478.23,152.0
478.3,131.0
478.36,152.0
478.42,172.0
478.48,157.0
478.55,161.0
478.61,162.0
478.67,161.0
478.74,148.0
478.8,153.0
478.86,168.0
478.93,141.0
478.99,146.0
479.05,144.0
479.11,146.0
479.18,144.0
479.24,170.0
479.3,151.0
479.37,186.0
479.43,179.0
479.49,190.0
479.56,198.0
479.62,213.0
479.68,201.0
479.74,194.0
479.81,194.0
479.87,203.0
479.93,203.0
480.0,192.0
480.06,197.0
480.12,209.0
480.19,188.0
480.25,222.0
480.31,224.0
480.37,212.0
480.44,211.0
480.5,183.0
480.56,185.0
480.63,197.0
480.69,195.0
480.75,187.0
480.82,187.0
480.88,187.0
480.94,203.0
481.0,220.0
481.07,210.0
481.13,204.0
481.19,203.0
481.26,218.0
481.32,213.0
481.38,204.0
481.45,196.0
481.51,209.0
481.57,200.0
481.63,208.0
481.7,202.0
481.76,205.0
481.82,224.0
481.89,220.0
481.95,216.0
482.01,229.0
482.08,231.0
482.14,228.0
482.2,222.0
482.26,241.0
482.33,233.0
482.39,225.0
482.45,234.0
482.52,215.0
482.58,220.0
482.64,227.0
482.71,223.0
482.77,219.0
482.83,216.0
482.89,245.0
482.96,245.0
483.02,223.0
483.08,228.0
483.15,230.0
483.21,226.0
483.27,227.0
483.34,234.0
483.4,223.0
483.46,210.0
483.52,237.0
483.59,213.0
483.65,224.0
483.71,214.0
483.78,208.0
483.84,198.0
483.9,183.0
483.97,203.0
484.03,190.0
484.09,186.0
484.15,189.0
484.22,199.0
484.28,183.0
484.34,176.0
484.41,202.0
484.47,179.0
484.53,180.0
484.6,208.0
484.66,200.0
484.72,194.0
484.78,195.0
484.85,197.0
484.91,209.0
484.97,200.0
485.04,202.0
485.1,178.0
485.16,162.0
485.23,167.0
485.29,175.0
485.35,172.0
485.41,181.0
485.48,175.0
485.54,167.0
485.6,164.0
485.67,169.0
485.73,158.0
485.79,158.0
485.86,157.0
485.92,170.0
485.98,165.0
486.04,146.0
486.11,150.0
486.17,134.0
486.23,153.0
486.3,169.0
486.36,139.0
486.42,139.0
486.49,138.0
486.55,138.0
486.61,138.0
486.67,146.0
486.74,141.0
486.8,125.0
486.86,124.0
486.93,125.0
486.99,118.0
487.05,132.0
487.12,131.0
487.18,125.0
487.24,120.0
487.3,130.0
487.37,145.0
487.43,145.0
487.49,132.0
487.56,123.0
487.62,133.0
487.68,125.0
487.75,121.0
487.81,115.0
487.87,121.0
487.93,101.0
488.0,101.0
488.06,99.0
488.12,106.0
488.19,102.0
488.25,115.0
488.31,116.0
488.38,88.0
488.44,97.0
488.5,82.0
488.56,96.0
488.63,76.0
488.69,104.0
488.75,121.0
488.82,102.0
488.88,102.0
488.94,93.0
489.01,99.0
489.07,103.0
489.13,87.0
489.19,95.0
489.26,99.0
489.32,91.0
489.38,98.0
489.45,112.0
489.51,103.0
489.57,90.0
489.64,85.0
489.7,80.0
489.76,115.0
489.82,103.0
489.89,98.0
489.95,77.0
490.01,85.0
490.08,96.0
490.14,112.0
490.2,103.0
490.27,99.0
490.33,106.0
490.39,93.0
490.45,95.0
490.52,97.0
490.58,116.0
490.64,120.0
490.71,108.0
490.77,88.0
490.83,111.0
490.9,108.0
490.96,91.0
491.02,101.0
491.08,62.0
491.15,91.0
491.21,107.0
491.27,86.0
491.34,118.0
491.4,107.0
491.46,98.0
491.53,96.0
491.59,88.0
491.65,91.0
491.71,96.0
491.78,113.0
491.84,100.0
491.9,114.0
491.97,106.0
492.03,90.0
492.09,101.0
492.16,94.0
492.22,116.0
492.28,108.0
492.34,99.0
492.41,93.0
492.47,104.0
492.53,112.0
492.6,128.0
492.66,106.0
492.72,98.0
492.79,90.0
492.85,84.0
492.91,100.0
492.97,80.0
493.04,98.0
493.1,107.0
493.16,76.0
493.23,96.0
493.29,77.0
493.35,71.0
493.42,74.0
493.48,87.0
493.54,76.0
493.6,96.0
493.67,97.0
493.73,116.0
493.79,132.0
493.86,101.0
493.92,104.0
493.98,119.0
494.05,124.0
494.11,132.0
494.17,135.0
494.23,155.0
494.3,125.0
494.36,117.0
494.42,103.0
494.49,104.0
494.55,91.0
494.61,87.0
494.68,99.0
494.74,102.0
494.8,88.0
494.86,84.0
494.93,75.0
494.99,88.0
495.05,63.0
495.12,83.0
495.18,82.0
495.24,75.0
495.31,60.0
495.37,59.0
495.43,81.0
495.49,71.0
495.56,73.0
495.62,66.0
495.68,83.0
495.75,91.0
495.81,101.0
495.87,84.0
495.94,80.0
496.0,77.0
496.06,74.0
496.12,77.0
496.19,92.0
496.25,80.0
496.31,99.0
496.38,99.0
496.44,82.0
496.5,80.0
496.57,64.0
496.63,82.0
496.69,85.0
496.75,87.0
496.82,113.0
496.88,113.0
496.94,118.0
497.01,118.0
497.07,123.0
497.13,129.0
497.2,126.0
497.26,119.0
497.32,126.0
497.38,124.0
497.45,131.0
497.51,140.0
497.57,136.0
497.64,127.0
497.7,135.0
497.76,120.0
497.83,121.0
497.89,101.0
497.95,126.0
498.01,120.0
498.08,99.0
498.14,107.0
498.2,126.0
498.27,150.0
498.33,117.0
498.39,121.0
498.46,123.0
498.52,143.0
498.58,138.0
498.64,140.0
498.71,154.0
498.77,139.0
498.83,134.0
498.9,165.0
498.96,172.0
499.02,140.0
499.09,165.0
499.15,140.0
499.21,141.0
499.27,132.0
499.34,133.0
499.4,151.0
499.46,135.0
499.53,146.0
499.59,148.0
499.65,170.0
499.72,135.0
499.78,134.0
499.84,148.0
499.9,140.0
499.97,145.0
500.03,169.0
500.09,147.0
500.16,149.0
500.22,152.0
500.28,140.0
500.35,126.0
500.41,128.0
500.47,140.0
500.53,127.0
500.6,125.0
500.66,132.0
500.72,130.0
500.79,111.0
500.85,131.0
500.91,117.0
500.98,151.0
501.04,142.0
501.1,118.0
501.16,125.0
501.23,131.0
501.29,153.0
501.35,154.0
501.42,145.0
501.48,123.0
501.54,128.0
501.61,129.0
501.67,144.0
501.73,169.0
501.79,146.0
501.86,126.0
501.92,130.0
501.98,134.0
502.05,107.0
502.11,135.0
502.17,112.0
502.24,106.0
502.3,124.0
502.36,125.0
502.42,106.0
502.49,117.0
502.55,104.0
502.61,102.0
502.68,118.0
502.74,113.0
502.8,140.0
502.87,165.0
502.93,147.0
502.99,128.0
503.05,131.0
503.12,132.0
503.18,95.0
503.24,86.0
503.31,109.0
503.37,103.0
503.43,121.0
503.5,115.0
503.56,95.0
503.62,94.0
503.68,84.0
503.75,93.0
503.81,71.0
503.87,66.0
503.94,48.0
504.0,84.0
504.06,65.0
504.13,51.0
504.19,74.0
504.25,80.0
504.31,57.0
504.38,69.0
504.44,82.0
504.5,69.0
504.57,77.0
504.63,80.0
504.69,91.0
504.76,87.0
504.82,81.0
504.88,60.0
504.94,70.0
505.01,82.0
505.07,74.0
505.13,59.0
505.2,80.0
505.26,62.0
505.32,53.0
505.39,76.0
505.45,76.0
505.51,80.0
505.57,67.0
505.64,61.0
505.7,57.0
505.76,94.0
505.83,67.0
505.89,76.0
505.95,87.0
506.02,107.0
506.08,84.0
506.14,109.0
506.2,103.0
506.27,98.0
506.33,106.0
506.39,77.0
506.46,87.0
506.52,80.0
506.58,117.0
506.65,88.0
506.71,82.0
506.77,90.0
506.83,81.0
506.9,88.0
506.96,88.0
507.02,99.0
507.09,80.0
507.15,74.0
507.21,72.0
507.28,82.0
507.34,84.0
507.4,91.0
507.46,110.0
507.53,102.0
507.59,97.0
507.65,90.0
507.72,97.0
507.78,96.0
507.84,95.0
507.91,94.0
507.97,93.0
508.03,95.0
508.09,86.0
508.16,90.0
508.22,93.0
508.28,73.0
508.35,103.0
508.41,103.0
508.47,98.0
508.54,112.0
508.6,118.0
508.66,99.0
508.72,113.0
508.79,129.0
508.85,120.0
508.91,111.0
508.98,123.0
509.04,119.0
509.1,116.0
509.17,129.0
509.23,120.0
509.29,150.0
509.35,143.0
509.42,136.0
509.48,150.0
509.54,131.0
509.61,148.0
509.67,133.0
509.73,129.0
509.8,151.0
509.86,164.0
509.92,153.0
509.98,146.0
510.05,153.0
510.11,145.0
510.17,128.0
510.24,139.0
510.3,120.0
510.36,137.0
510.43,157.0
510.49,149.0
510.55,153.0
510.61,163.0
510.68,154.0
510.74,155.0
510.8,159.0
510.87,171.0
510.93,163.0
510.99,149.0
511.06,169.0
511.12,169.0
511.18,168.0
511.24,161.0
511.31,183.0
511.37,168.0
511.43,167.0
511.5,192.0
511.56,190.0
511.62,186.0
511.69,186.0
511.75,160.0
511.81,163.0
511.87,178.0
511.94,146.0
512.0,150.0
512.06,146.0
512.13,146.0
512.19,167.0
512.25,151.0
512.32,126.0
512.38,143.0
512.44,161.0
512.5,157.0
512.57,165.0
512.63,163.0
512.69,161.0
512.76,173.0
512.82,159.0
512.88,168.0
512.95,170.0
513.01,170.0
513.07,201.0
513.13,173.0
513.2,183.0
513.26,194.0
513.32,195.0
513.39,201.0
513.45,194.0
513.51,169.0
513.58,161.0
513.64,185.0
513.7,172.0
513.76,178.0
513.83,188.0
513.89,208.0
513.95,183.0
514.02,182.0
514.08,186.0
514.14,179.0
514.21,169.0
514.27,177.0
514.33,192.0
514.39,173.0
514.46,162.0
514.52,181.0
514.58,191.0
514.65,209.0
514.71,213.0
514.77,187.0
514.84,204.0
514.9,212.0
514.96,220.0
515.02,220.0
515.09,224.0
515.15,230.0
515.21,205.0
515.28,203.0
515.34,221.0
515.4,205.0
515.47,216.0
515.53,210.0
515.59,223.0
515.65,220.0
515.72,202.0
515.78,200.0
515.84,205.0
515.91,220.0
515.97,217.0
516.03,195.0
516.1,222.0
516.16,219.0
516.22,228.0
516.28,227.0
516.35,226.0
516.41,242.0
516.47,228.0
516.54,234.0
516.6,233.0
516.66,226.0
516.73,229.0
516.79,206.0
516.85,223.0
516.91,235.0
516.98,214.0
517.04,230.0
517.1,220.0
517.17,240.0
517.23,214.0
517.29,213.0
517.36,210.0
517.42,212.0
517.48,215.0
517.54,225.0
517.61,222.0
517.67,198.0
517.73,194.0
517.8,199.0
517.86,199.0
517.92,209.0
517.99,203.0
518.05,190.0
518.11,207.0
518.17,210.0
518.24,192.0
518.3,190.0
518.36,186.0
518.43,180.0
518.49,189.0
518.55,175.0
518.62,167.0
518.68,180.0
518.74,206.0
518.8,198.0
518.87,175.0
518.93,161.0
518.99,151.0
519.06,178.0
519.12,180.0
519.18,153.0
519.25,171.0
519.31,150.0
519.37,145.0
519.43,131.0
519.5,114.0
519.56,123.0
519.62,132.0
519.69,143.0
519.75,117.0
519.81,117.0
519.88,121.0
519.94,126.0
520.0,126.0
520.06,114.0
520.13,125.0
520.19,122.0
520.25,107.0
520.32,106.0
520.38,106.0
520.44,132.0
520.51,115.0
520.57,121.0
520.63,117.0
520.69,102.0
520.76,87.0
520.82,86.0
520.88,84.0
520.95,73.0
521.01,55.0
521.07,76.0
521.14,62.0
521.2,60.0
521.26,77.0
521.32,58.0
521.39,41.0
521.45,49.0
521.51,52.0
521.58,57.0
521.64,65.0
521.7,80.0
521.77,84.0
521.83,74.0
521.89,66.0
521.95,69.0
522.02,70.0
522.08,90.0
522.14,88.0
522.21,76.0
522.27,90.0
522.33,67.0
522.4,77.0
522.46,69.0
522.52,71.0
522.58,66.0
522.65,58.0
522.71,49.0
522.77,59.0
522.84,51.0
522.9,47.0
522.96,71.0
523.03,94.0
523.09,80.0
523.15,72.0
523.21,58.0
523.28,59.0
523.34,51.0
523.4,70.0
523.47,73.0
523.53,70.0
523.59,73.0
523.66,72.0
523.72,71.0
523.78,68.0
523.84,56.0
523.91,59.0
523.97,54.0
524.03,79.0
524.1,78.0
524.16,80.0
524.22,72.0
524.29,62.0
524.35,63.0
524.41,65.0
524.47,64.0
524.54,63.0
524.6,63.0
524.66,69.0
524.73,74.0
524.79,55.0
524.85,59.0
524.92,71.0
524.98,45.0
525.04,30.0
525.1,36.0
525.17,53.0
525.23,53.0
525.29,54.0
525.36,61.0
525.42,69.0
525.48,66.0
525.55,56.0
525.61,77.0
525.67,90.0
525.73,79.0
525.8,80.0
525.86,85.0
525.92,63.0
525.99,95.0
526.05,79.0
526.11,84.0
526.18,73.0
526.24,70.0
526.3,74.0
526.36,67.0
526.43,76.0
526.49,64.0
526.55,75.0
526.62,78.0
526.68,84.0
526.74,66.0
526.81,80.0
526.87,90.0
526.93,86.0
526.99,81.0
527.06,101.0
527.12,99.0
527.18,102.0
527.25,103.0
527.31,95.0
527.37,100.0
527.44,112.0
527.5,103.0
527.56,109.0
527.62,102.0
527.69,91.0
527.75,106.0
527.81,103.0
527.88,102.0
527.94,84.0
528.0,76.0
528.07,61.0
528.13,64.0
528.19,77.0
528.25,81.0
528.32,69.0
528.38,62.0
528.44,74.0
528.51,74.0
528.57,72.0
528.63,71.0
528.7,54.0
528.76,63.0
528.82,66.0
528.88,53.0
528.95,71.0
529.01,74.0
529.07,61.0
529.14,42.0
529.2,57.0
529.26,72.0
529.33,65.0
529.39,43.0
529.45,40.0
529.51,18.0
529.58,31.0
529.64,55.0
529.7,34.0
529.77,60.0
529.83,43.0
529.89,50.0
529.96,49.0
530.02,32.0
530.08,55.0
530.14,30.0
530.21,55.0
530.27,60.0
530.33,62.0
530.4,64.0
530.46,58.0
530.52,57.0
530.59,56.0
530.65,84.0
530.71,99.0
530.77,107.0
530.84,106.0
530.9,91.0
530.96,125.0
531.03,125.0
531.09,135.0
531.15,120.0
531.22,127.0
531.28,133.0
531.34,118.0
531.4,134.0
531.47,148.0
531.53,136.0
531.59,143.0
531.66,140.0
531.72,150.0
531.78,143.0
531.85,112.0
531.91,143.0
531.97,131.0
532.03,135.0
532.1,121.0
532.16,103.0
532.22,125.0
532.29,128.0
532.35,130.0
532.41,114.0
532.48,129.0
532.54,147.0
532.6,147.0
532.66,153.0
532.73,161.0
532.79,172.0
532.85,173.0
532.92,165.0
532.98,165.0
533.04,171.0
533.11,187.0
533.17,181.0
533.23,163.0
533.29,163.0
533.36,171.0
533.42,164.0
533.48,165.0
533.55,186.0
533.61,159.0
533.67,181.0
533.74,167.0
533.8,145.0
533.86,163.0
533.92,164.0
533.99,159.0
534.05,158.0
534.11,170.0
534.18,178.0
534.24,176.0
534.3,174.0
534.37,161.0
534.43,172.0
534.49,177.0
534.55,173.0
534.62,178.0
534.68,198.0
534.74,191.0
534.81,176.0
534.87,199.0
534.93,213.0
535.0,192.0
535.06,176.0
535.12,179.0
535.18,189.0
535.25,194.0
535.31,194.0
535.37,180.0
535.44,199.0
535.5,212.0
535.56,196.0
535.63,201.0
535.69,203.0
535.75,197.0
535.81,188.0
535.88,191.0
535.94,181.0
536.0,184.0
536.07,172.0
536.13,178.0
536.19,155.0
536.26,187.0
536.32,193.0
536.38,176.0
536.44,188.0
536.51,191.0
536.57,184.0
536.63,186.0
536.7,183.0
536.76,182.0
536.82,203.0
536.89,174.0
536.95,176.0
537.01,194.0
537.07,177.0
537.14,189.0
537.2,177.0
537.26,169.0
537.33,184.0
537.39,173.0
537.45,167.0
537.52,175.0
537.58,176.0
537.64,187.0
537.7,181.0
537.77,168.0
537.83,189.0
537.89,182.0
537.96,167.0
538.02,170.0
538.08,170.0
538.15,180.0
538.21,193.0
538.27,179.0
538.33,176.0
538.4,167.0
538.46,176.0
538.52,161.0
538.59,170.0
538.65,186.0
538.71,188.0
538.78,189.0
538.84,193.0
538.9,189.0
538.96,193.0
539.03,182.0
539.09,183.0
539.15,186.0
539.22,176.0
539.28,192.0
539.34,183.0
539.41,185.0
539.47,181.0
539.53,167.0
539.59,153.0
539.66,151.0
539.72,169.0
539.78,164.0
539.85,157.0
539.91,167.0
539.97,184.0
540.04,181.0
540.1,171.0
540.16,174.0
540.22,179.0
540.29,176.0
540.35,188.0
540.41,177.0
540.48,200.0
540.54,199.0
540.6,188.0
540.67,176.0
540.73,192.0
540.79,195.0
540.85,202.0
540.92,187.0
540.98,178.0
541.04,179.0
541.11,191.0
541.17,204.0
541.23,185.0
541.3,214.0
541.36,197.0
541.42,202.0
541.48,211.0
541.55,200.0
541.61,210.0
541.67,201.0
541.74,209.0
541.8,206.0
541.86,221.0
541.93,219.0
541.99,224.0
542.05,229.0
542.11,210.0
542.18,194.0
542.24,220.0
542.3,222.0
542.37,213.0
542.43,225.0
542.49,226.0
542.56,243.0
542.62,229.0
542.68,223.0
542.74,224.0
542.81,230.0
542.87,235.0
542.93,241.0
543.0,224.0
543.06,220.0
543.12,217.0
543.19,218.0
543.25,213.0
543.31,203.0
543.37,201.0
543.44,211.0
543.5,205.0
543.56,201.0
543.63,176.0
543.69,190.0
543.75,195.0
543.82,172.0
543.88,192.0
543.94,197.0
544.0,189.0
544.07,188.0
544.13,188.0
544.19,176.0
544.26,163.0
544.32,142.0
544.38,152.0
544.45,154.0
544.51,163.0
544.57,156.0
544.63,156.0
544.7,136.0
544.76,154.0
544.82,164.0
544.89,155.0
544.95,156.0
545.01,138.0
545.08,136.0
545.14,132.0
545.2,125.0
545.26,113.0
545.33,119.0
545.39,112.0
545.45,106.0
545.52,108.0
545.58,102.0
545.64,68.0
545.71,74.0
545.77,103.0
545.83,80.0
545.89,92.0
545.96,88.0
546.02,76.0
546.08,99.0
546.15,116.0
546.21,95.0
546.27,81.0
546.34,73.0
546.4,68.0
546.46,73.0
546.52,76.0
546.59,101.0
546.65,109.0
546.71,116.0
546.78,96.0
546.84,100.0
546.9,91.0
546.97,95.0
547.03,90.0
547.09,95.0
547.15,92.0
547.22,82.0
547.28,90.0
547.34,94.0
547.41,102.0
547.47,93.0
547.53,99.0
547.6,112.0
547.66,112.0
547.72,106.0
547.78,110.0
547.85,108.0
547.91,106.0
547.97,96.0
548.04,118.0
548.1,110.0
548.16,104.0
548.23,116.0
548.29,112.0
548.35,110.0
548.41,101.0
548.48,106.0
548.54,85.0
548.6,102.0
548.67,104.0
548.73,107.0
548.79,112.0
548.86,91.0
548.92,117.0
548.98,94.0
549.04,88.0
549.11,97.0
549.17,95.0
549.23,122.0
549.3,128.0
549.36,95.0
549.42,114.0
549.49,108.0
549.55,106.0
549.61,107.0
549.67,90.0
549.74,113.0
549.8,97.0
549.86,74.0
549.93,74.0
549.99,84.0
550.05,95.0
550.12,91.0
550.18,79.0
550.24,83.0
550.3,85.0
550.37,58.0
550.43,77.0
550.49,68.0
550.56,55.0
550.62,62.0
550.68,73.0
550.75,52.0
550.81,66.0
550.87,43.0
550.93,48.0
551.0,66.0
551.06,58.0
551.12,46.0
551.19,40.0
551.25,33.0
551.31,40.0
551.38,43.0
551.44,36.0
551.5,47.0
551.56,59.0
551.63,50.0
551.69,68.0
551.75,66.0
551.82,35.0
551.88,33.0
551.94,45.0
552.01,38.0
552.07,65.0
552.13,69.0
552.19,65.0
552.26,88.0
552.32,98.0
552.38,77.0
552.45,84.0
552.51,90.0
552.57,63.0
552.64,73.0
552.7,81.0
552.76,74.0
552.82,68.0
552.89,77.0
552.95,75.0
553.01,51.0
553.08,61.0
553.14,61.0
553.2,50.0
553.27,56.0
553.33,63.0
553.39,31.0
553.45,51.0
553.52,63.0
553.58,48.0
553.64,58.0
553.71,59.0
553.77,55.0
553.83,84.0
553.9,82.0
553.96,58.0
554.02,74.0
554.08,48.0
554.15,55.0
554.21,76.0
554.27,74.0
554.34,80.0
554.4,69.0
554.46,69.0
554.53,59.0
554.59,56.0
554.65,66.0
554.71,69.0
554.78,89.0
554.84,90.0
554.9,61.0
554.97,55.0
555.03,68.0
555.09,64.0
555.16,62.0
555.22,51.0
555.28,48.0
555.34,47.0
555.41,30.0
555.47,65.0
555.53,73.0
555.6,74.0
555.66,52.0
555.72,40.0
555.79,40.0
555.85,8.0
555.91,30.0
555.97,55.0
556.04,40.0
556.1,47.0
556.16,30.0
556.23,48.0
556.29,60.0
556.35,64.0
556.42,68.0
556.48,66.0
556.54,73.0
556.6,80.0
556.67,75.0
556.73,73.0
556.79,76.0
556.86,61.0
556.92,62.0
556.98,77.0
557.05,57.0
557.11,70.0
557.17,75.0
557.23,72.0
557.3,81.0
557.36,86.0
557.42,91.0
557.49,92.0
557.55,89.0
557.61,82.0
557.68,80.0
557.74,80.0
557.8,70.0
557.86,84.0
557.93,90.0
557.99,81.0
558.05,87.0
558.12,73.0
558.18,93.0
558.24,91.0
558.31,61.0
558.37,83.0
558.43,63.0
558.49,105.0
558.56,100.0
558.62,117.0
558.68,105.0
558.75,120.0
558.81,130.0
558.87,106.0
558.94,94.0
559.0,107.0
559.06,107.0
559.12,107.0
559.19,117.0
559.25,132.0
559.31,127.0
559.38,115.0
559.44,112.0
559.5,84.0
559.57,114.0
559.63,112.0
559.69,102.0
559.75,105.0
559.82,134.0
559.88,121.0
559.94,103.0
560.01,122.0
560.07,107.0
560.13,130.0
560.2,106.0
560.26,96.0
560.32,121.0
560.38,104.0
560.45,123.0
560.51,112.0
560.57,135.0
560.64,145.0
560.7,140.0
560.76,121.0
560.83,136.0
560.89,133.0
560.95,122.0
561.01,130.0
561.08,132.0
561.14,127.0
561.2,137.0
561.27,144.0
561.33,167.0
561.39,147.0
561.46,147.0
561.52,151.0
561.58,161.0
561.64,157.0
561.71,111.0
561.77,118.0
561.83,130.0
561.9,135.0
561.96,148.0
562.02,134.0
562.09,131.0
562.15,119.0
562.21,133.0
562.27,141.0
562.34,114.0
562.4,134.0
562.46,154.0
562.53,157.0
562.59,143.0
562.65,148.0
562.72,143.0
562.78,162.0
562.84,150.0
562.9,144.0
562.97,163.0
563.03,153.0
563.09,163.0
563.16,157.0
563.22,166.0
563.28,172.0
563.35,177.0
563.41,154.0
563.47,151.0
563.53,140.0
563.6,144.0
563.66,176.0
563.72,164.0
563.79,159.0
563.85,170.0
563.91,178.0
563.98,155.0
564.04,161.0
564.1,154.0
564.16,155.0
564.23,169.0
564.29,152.0
564.35,179.0
564.42,173.0
564.48,181.0
564.54,194.0
564.61,184.0
564.67,174.0
564.73,194.0
564.79,184.0
564.86,195.0
564.92,182.0
564.98,182.0
565.05,189.0
565.11,173.0
565.17,184.0
565.24,214.0
565.3,187.0
565.36,200.0
565.42,194.0
565.49,192.0
565.55,186.0
565.61,161.0
565.68,181.0
565.74,187.0
565.8,172.0
565.87,178.0
565.93,183.0
565.99,181.0
566.05,197.0
566.12,209.0
566.18,193.0
566.24,194.0
566.31,190.0
566.37,197.0
566.43,172.0
566.5,185.0
566.56,202.0
566.62,194.0
566.68,202.0
566.75,188.0
566.81,192.0
566.87,195.0
566.94,201.0
567.0,204.0
567.06,186.0
567.13,167.0
567.19,176.0
567.25,181.0
567.31,195.0
567.38,186.0
567.44,190.0
567.5,190.0
567.57,184.0
567.63,198.0
567.69,197.0
567.76,180.0
567.82,191.0
567.88,191.0
567.94,195.0
568.01,192.0
568.07,197.0
568.13,183.0
568.2,183.0
568.26,185.0
568.32,173.0
568.39,200.0
568.45,191.0
568.51,194.0
568.57,193.0
568.64,187.0
568.7,184.0
568.76,185.0
568.83,196.0
568.89,173.0
568.95,166.0
569.02,154.0
569.08,172.0
569.14,201.0
569.2,192.0
569.27,189.0
569.33,187.0
569.39,178.0
569.46,187.0
569.52,195.0
569.58,176.0
569.65,193.0
569.71,203.0
569.77,202.0
569.83,175.0
569.9,175.0
569.96,162.0
570.02,181.0
570.09,140.0
570.15,132.0
570.21,141.0
570.28,139.0
570.34,123.0
570.4,136.0
570.46,139.0
570.53,128.0
570.59,128.0
570.65,116.0
570.72,113.0
570.78,121.0
570.84,127.0
570.91,135.0
570.97,125.0
571.03,127.0
571.09,128.0
571.16,132.0
571.22,165.0
571.28,153.0
571.35,123.0
571.41,145.0
571.47,154.0
571.54,154.0
571.6,151.0
571.66,139.0
571.72,145.0
571.79,140.0
571.85,137.0
571.91,132.0
571.98,121.0
572.04,124.0
572.1,154.0
572.17,129.0
572.23,131.0
572.29,143.0
572.35,129.0
572.42,136.0
572.48,150.0
572.54,154.0
572.61,152.0
572.67,125.0
572.73,122.0
572.8,117.0
572.86,130.0
572.92,124.0
572.98,128.0
573.05,132.0
573.11,124.0
573.17,132.0
573.24,145.0
573.3,150.0
573.36,132.0
573.43,145.0
573.49,146.0
573.55,141.0
573.61,137.0
573.68,136.0
573.74,136.0
573.8,131.0
573.87,139.0
573.93,138.0
573.99,143.0
574.06,137.0
574.12,161.0
574.18,148.0
574.24,154.0
574.31,149.0
574.37,152.0
574.43,145.0
574.5,145.0
574.56,125.0
574.62,150.0
574.69,143.0
574.75,146.0
574.81,137.0
574.87,145.0
574.94,141.0
575.0,150.0
575.06,154.0
575.13,161.0
575.19,166.0
575.25,139.0
575.32,154.0
575.38,157.0
575.44,150.0
575.5,152.0
575.57,155.0
575.63,148.0
575.69,142.0
575.76,132.0
575.82,139.0
575.88,139.0
575.95,121.0
576.01,131.0
576.07,143.0
576.13,129.0
576.2,120.0
576.26,120.0
576.32,123.0
576.39,123.0
576.45,116.0
576.51,106.0
576.58,103.0
576.64,104.0
576.7,120.0
576.76,142.0
576.83,117.0
576.89,111.0
576.95,110.0
577.02,124.0
577.08,141.0
577.14,143.0
577.21,131.0
577.27,112.0
577.33,129.0
577.39,139.0
577.46,129.0
577.52,146.0
577.58,139.0
577.65,128.0
577.71,121.0
577.77,121.0
577.84,128.0
577.9,113.0
577.96,130.0
578.02,120.0
578.09,110.0
578.15,106.0
578.21,87.0
578.28,101.0
578.34,84.0
578.4,70.0
578.47,94.0
578.53,86.0
578.59,93.0
578.65,96.0
578.72,95.0
578.78,90.0
578.84,102.0
578.91,106.0
578.97,93.0
579.03,87.0
579.1,102.0
579.16,93.0
579.22,97.0
579.28,84.0
579.35,93.0
579.41,68.0
579.47,57.0
579.54,82.0
579.6,58.0
579.66,64.0
579.73,69.0
579.79,73.0
579.85,89.0
579.91,74.0
579.98,76.0
580.04,85.0
580.1,73.0
580.17,62.0
580.23,76.0
580.29,78.0
580.36,77.0
580.42,92.0
580.48,79.0
580.54,74.0
580.61,59.0
580.67,69.0
580.73,64.0
580.8,79.0
580.86,75.0
580.92,56.0
580.99,41.0
581.05,41.0
581.11,51.0
581.17,53.0
581.24,62.0
581.3,70.0
581.36,65.0
581.43,52.0
581.49,57.0
581.55,68.0
581.62,51.0
581.68,57.0
581.74,59.0
581.8,63.0
581.87,42.0
581.93,51.0
581.99,45.0
582.06,38.0
582.12,37.0
582.18,46.0
582.25,55.0
582.31,65.0
582.37,55.0
582.43,66.0
582.5,68.0
582.56,48.0
582.62,70.0
582.69,76.0
582.75,67.0
582.81,85.0
582.88,95.0
582.94,88.0
583.0,72.0
583.06,77.0
583.13,84.0
583.19,70.0
583.25,78.0
583.32,81.0
583.38,81.0
583.44,71.0
583.51,80.0
583.57,101.0
583.63,103.0
583.69,96.0
583.76,81.0
583.82,72.0
583.88,84.0
583.95,90.0
584.01,93.0
584.07,79.0
584.14,76.0
584.2,85.0
584.26,76.0
584.32,70.0
584.39,77.0
584.45,88.0
584.51,76.0
584.58,66.0
584.64,75.0
584.7,62.0
584.77,38.0
584.83,58.0
584.89,54.0
584.95,46.0
585.02,44.0
585.08,42.0
585.14,14.0
585.21,28.0
585.27,33.0
585.33,36.0
585.4,44.0
585.46,47.0
585.52,40.0
585.58,33.0
585.65,40.0
585.71,42.0
585.77,24.0
585.84,38.0
585.9,36.0
585.96,30.0
586.03,28.0
586.09,37.0
586.15,28.0
586.21,42.0
586.28,48.0
586.34,47.0
586.4,66.0
586.47,63.0
586.53,58.0
586.59,76.0
586.66,82.0
586.72,55.0
586.78,66.0
586.84,57.0
586.91,81.0
586.97,87.0
587.03,93.0
587.1,84.0
587.16,69.0
587.22,81.0
587.29,75.0
587.35,65.0
587.41,75.0
587.47,69.0
587.54,85.0
587.6,80.0
587.66,69.0
587.73,79.0
587.79,57.0
587.85,42.0
587.92,39.0
587.98,43.0
588.04,68.0
588.1,66.0
588.17,90.0
588.23,60.0
588.29,82.0
588.36,84.0
588.42,89.0
588.48,106.0
588.55,98.0
588.61,110.0
588.67,88.0
588.73,108.0
588.8,109.0
588.86,107.0
588.92,84.0
588.99,103.0
589.05,112.0
589.11,101.0
589.18,112.0
589.24,113.0
589.3,124.0
589.36,123.0
589.43,107.0
589.49,131.0
589.55,118.0
589.62,113.0
589.68,134.0
589.74,127.0
589.81,109.0
589.87,117.0
589.93,114.0
589.99,121.0
590.06,139.0
590.12,145.0
590.18,137.0
590.25,102.0
590.31,117.0
590.37,139.0
590.44,126.0
590.5,114.0
590.56,129.0
590.62,107.0
590.69,105.0
590.75,102.0
590.81,91.0
590.88,112.0
590.94,125.0
591.0,145.0
591.07,146.0
591.13,139.0
591.19,123.0
591.25,121.0
591.32,110.0
591.38,121.0
591.44,140.0
591.51,128.0
591.57,143.0
591.63,137.0
591.7,128.0
591.76,138.0
591.82,143.0
591.88,153.0
591.95,152.0
592.01,172.0
592.07,159.0
592.14,158.0
592.2,173.0
592.26,186.0
592.33,168.0
592.39,156.0
592.45,145.0
592.51,139.0
592.58,159.0
592.64,179.0
592.7,171.0
592.77,176.0
592.83,173.0
592.89,183.0
592.96,180.0
593.02,175.0
593.08,191.0
593.14,172.0
593.21,172.0
593.27,203.0
593.33,205.0
593.4,191.0
593.46,191.0
593.52,190.0
593.59,182.0
593.65,195.0
593.71,202.0
593.77,227.0
593.84,220.0
593.9,225.0
593.96,228.0
594.03,220.0
594.09,224.0
594.15,212.0
594.22,222.0
594.28,228.0
594.34,222.0
594.4,218.0
594.47,223.0
594.53,248.0
594.59,230.0
594.66,222.0
594.72,228.0
594.78,219.0
594.85,219.0
594.91,220.0
594.97,227.0
595.03,229.0
595.1,228.0
595.16,240.0
595.22,240.0
595.29,223.0
595.35,217.0
595.41,236.0
595.48,242.0
595.54,243.0
595.6,233.0
595.66,211.0
595.73,222.0
595.79,228.0
595.85,203.0
595.92,213.0
595.98,212.0
596.04,205.0
596.11,183.0
596.17,172.0
596.23,190.0
596.29,202.0
596.36,187.0
596.42,198.0
596.48,195.0
596.55,176.0
596.61,183.0
596.67,184.0
596.74,168.0
596.8,182.0
596.86,187.0
596.92,192.0
596.99,203.0
597.05,205.0
597.11,194.0
597.18,199.0
597.24,187.0
597.3,167.0
597.37,179.0
597.43,189.0
597.49,213.0
597.55,218.0
597.62,201.0
597.68,208.0
597.74,190.0
597.81,198.0
597.87,205.0
597.93,214.0
598.0,209.0
598.06,198.0
598.12,197.0
598.18,194.0
598.25,199.0
598.31,192.0
598.37,194.0
598.44,204.0
598.5,210.0
598.56,208.0
598.63,198.0
598.69,203.0
598.75,183.0
598.81,186.0
598.88,192.0
598.94,181.0
599.0,202.0
599.07,222.0
599.13,203.0
599.19,178.0
599.26,191.0
599.32,195.0
599.38,169.0
599.44,158.0
599.51,163.0
599.57,151.0
599.63,160.0
599.7,157.0
599.76,134.0
599.82,153.0
599.89,157.0
599.95,137.0
600.01,157.0
600.07,149.0
600.14,147.0
600.2,140.0
600.26,134.0
600.33,160.0
600.39,141.0
600.45,128.0
600.52,142.0
600.58,139.0
600.64,171.0
600.7,132.0
600.77,144.0
600.83,157.0
600.89,148.0
600.96,146.0
601.02,147.0
601.08,143.0
601.15,134.0
601.21,130.0
601.27,132.0
601.33,122.0
601.4,130.0
601.46,132.0
601.52,124.0
601.59,129.0
601.65,139.0
601.71,115.0
601.78,104.0
601.84,118.0
601.9,96.0
601.96,106.0
602.03,107.0
602.09,102.0
602.15,102.0
602.22,116.0
602.28,124.0
602.34,117.0
602.41,110.0
602.47,110.0
602.53,83.0
602.59,103.0
602.66,125.0
602.72,102.0
602.78,90.0
602.85,92.0
602.91,81.0
602.97,88.0
603.04,90.0
603.1,66.0
603.16,69.0
603.22,66.0
603.29,75.0
603.35,64.0
603.41,64.0
603.48,66.0
603.54,46.0
603.6,59.0
603.67,50.0
603.73,57.0
603.79,63.0
603.85,48.0
603.92,33.0
603.98,24.0
604.04,39.0
604.11,41.0
604.17,47.0
604.23,37.0
604.3,40.0
604.36,49.0
604.42,36.0
604.48,33.0
604.55,11.0
604.61,25.0
604.67,51.0
604.74,44.0
604.8,16.0
604.86,31.0
604.93,38.0
604.99,33.0
605.05,35.0
605.11,42.0
605.18,55.0
605.24,42.0
605.3,36.0
605.37,23.0
605.43,35.0
605.49,41.0
605.56,18.0
605.62,12.0
605.68,22.0
605.74,9.0
605.81,4.0
605.87,6.0
605.93,-9.0
606.0,2.0
606.06,-4.0
606.12,-12.0
606.19,6.0
606.25,31.0
606.31,9.0
606.37,1.0
606.44,6.0
606.5,-8.0
606.56,6.0
606.63,-6.0
606.69,10.0
606.75,16.0
606.82,-7.0
606.88,23.0
606.94,14.0
607.0,7.0
607.07,-15.0
607.13,-27.0
607.19,5.0
607.26,5.0
607.32,9.0
607.38,-10.0
607.45,-2.0
607.51,-10.0
607.57,-8.0
607.63,-17.0
607.7,-16.0
607.76,20.0
607.82,16.0
607.89,20.0
607.95,46.0
608.01,30.0
608.08,22.0
608.14,43.0
608.2,16.0
608.26,21.0
608.33,41.0
608.39,39.0
608.45,15.0
608.52,31.0
608.58,42.0
608.64,23.0
608.71,15.0
608.77,14.0
608.83,10.0
608.89,27.0
608.96,31.0
609.02,29.0
609.08,47.0
609.15,41.0
609.21,36.0
609.27,39.0
609.34,47.0
609.4,57.0
609.46,67.0
609.52,56.0
609.59,61.0
609.65,83.0
609.71,67.0
609.78,77.0
609.84,94.0
609.9,72.0
609.97,75.0
610.03,81.0
610.09,75.0
610.15,96.0
610.22,89.0
610.28,101.0
610.34,110.0
610.41,100.0
610.47,112.0
610.53,130.0
610.6,119.0
610.66,107.0
610.72,116.0
610.78,126.0
610.85,130.0
610.91,129.0
610.97,104.0
611.04,118.0
611.1,139.0
611.16,135.0
611.23,138.0
611.29,130.0
611.35,112.0
611.41,136.0
611.48,116.0
611.54,97.0
611.6,115.0
611.67,113.0
611.73,108.0
611.79,93.0
611.86,123.0
611.92,128.0
611.98,134.0
612.04,133.0
612.11,124.0
612.17,123.0
612.23,116.0
612.3,111.0
612.36,121.0
612.42,129.0
612.49,139.0
612.55,141.0
612.61,138.0
612.67,123.0
612.74,121.0
612.8,107.0
612.86,131.0
612.93,125.0
612.99,132.0
613.05,137.0
613.12,126.0
613.18,119.0
613.24,132.0
613.3,129.0
613.37,95.0
613.43,120.0
613.49,119.0
613.56,138.0
613.62,141.0
613.68,141.0
613.75,150.0
613.81,162.0
613.87,173.0
613.93,168.0
614.0,173.0
614.06,156.0
614.12,161.0
614.19,160.0
614.25,183.0
614.31,175.0
614.38,189.0
614.44,174.0
614.5,194.0
614.56,195.0
614.63,190.0
614.69,192.0
614.75,185.0
614.82,193.0
614.88,181.0
614.94,187.0
615.01,176.0
615.07,182.0
615.13,166.0
615.19,173.0
615.26,174.0
615.32,156.0
615.38,185.0
615.45,189.0
615.51,187.0
615.57,172.0
615.64,189.0
615.7,192.0
615.76,179.0
615.82,182.0
615.89,189.0
615.95,199.0
616.01,194.0
616.08,213.0
616.14,199.0
616.2,237.0
616.27,229.0
616.33,206.0
616.39,218.0
616.45,207.0
616.52,226.0
616.58,228.0
616.64,213.0
616.71,209.0
616.77,232.0
616.83,213.0
616.9,211.0
616.96,220.0
617.02,206.0
617.08,208.0
617.15,209.0
617.21,207.0
617.27,216.0
617.34,184.0
617.4,183.0
617.46,191.0
617.53,174.0
617.59,182.0
617.65,172.0
617.71,185.0
617.78,199.0
617.84,174.0
617.9,176.0
617.97,200.0
618.03,203.0
618.09,174.0
618.16,175.0
618.22,201.0
618.28,215.0
618.34,211.0
618.41,201.0
618.47,200.0
618.53,206.0
618.6,199.0
618.66,185.0
618.72,193.0
618.79,214.0
618.85,199.0
618.91,208.0
618.97,225.0
619.04,190.0
619.1,185.0
619.16,185.0
619.23,174.0
619.29,185.0
619.35,187.0
619.42,165.0
619.48,175.0
619.54,163.0
619.6,169.0
619.67,172.0
619.73,193.0
619.79,189.0
619.86,179.0
619.92,168.0
619.98,184.0
620.05,177.0
620.11,190.0
620.17,172.0
620.23,170.0
620.3,170.0
620.36,162.0
620.42,170.0
620.49,182.0
620.55,178.0
620.61,176.0
620.68,175.0
620.74,171.0
620.8,179.0
620.86,183.0
620.93,168.0
620.99,207.0
621.05,176.0
621.12,164.0
621.18,172.0
621.24,154.0
621.31,137.0
621.37,135.0
621.43,161.0
621.49,171.0
621.56,163.0
621.62,141.0
621.68,142.0
621.75,143.0
621.81,135.0
621.87,137.0
621.94,122.0
622.0,129.0
622.06,137.0
622.12,168.0
622.19,161.0
622.25,136.0
622.31,135.0
622.38,139.0
622.44,115.0
622.5,125.0
622.57,115.0
622.63,119.0
622.69,116.0
622.75,114.0
622.82,145.0
622.88,118.0
622.94,133.0
623.01,141.0
623.07,123.0
623.13,130.0
623.2,119.0
623.26,123.0
623.32,122.0
623.38,128.0
623.45,135.0
623.51,125.0
623.57,127.0
623.64,116.0
623.7,122.0
623.76,109.0
623.83,123.0
623.89,123.0
623.95,127.0
624.01,126.0
624.08,122.0
624.14,136.0
624.2,121.0
624.27,121.0
624.33,134.0
624.39,124.0
624.46,128.0
624.52,135.0
624.58,116.0
624.64,128.0
624.71,130.0
624.77,142.0
624.83,144.0
624.9,144.0
624.96,133.0
625.02,149.0
625.09,148.0
625.15,147.0
625.21,149.0
625.27,134.0
625.34,137.0
625.4,130.0
625.46,138.0
625.53,148.0
625.59,157.0
625.65,157.0
625.72,155.0
625.78,161.0
625.84,162.0
625.9,144.0
625.97,129.0
626.03,133.0
626.09,149.0
626.16,133.0
626.22,154.0
626.28,151.0
626.35,146.0
626.41,163.0
626.47,134.0
626.53,154.0
626.6,154.0
626.66,155.0
626.72,164.0
626.79,152.0
626.85,160.0
626.91,153.0
626.98,145.0
627.04,157.0
627.1,137.0
627.16,163.0
627.23,159.0
627.29,147.0
627.35,160.0
627.42,143.0
627.48,160.0
627.54,152.0
627.61,149.0
627.67,162.0
627.73,159.0
627.79,138.0
627.86,137.0
627.92,143.0
627.98,144.0
628.05,130.0
628.11,139.0
628.17,151.0
628.24,155.0
628.3,161.0
628.36,141.0
628.42,150.0
628.49,141.0
628.55,137.0
628.61,141.0
628.68,136.0
628.74,134.0
628.8,133.0
628.87,137.0
628.93,144.0
628.99,140.0
629.05,134.0
629.12,125.0
629.18,121.0
629.24,130.0
629.31,124.0
629.37,136.0
629.43,141.0
629.5,146.0
629.56,143.0
629.62,141.0
629.68,130.0
629.75,141.0
629.81,141.0
629.87,130.0
629.94,119.0
630.0,112.0
630.06,127.0
630.13,137.0
630.19,117.0
630.25,115.0
630.31,124.0
630.38,136.0
630.44,122.0
630.5,115.0
630.57,124.0
630.63,112.0
630.69,104.0
630.76,125.0
630.82,138.0
630.88,149.0
630.94,140.0
631.01,161.0
631.07,163.0
631.13,158.0
631.2,159.0
631.26,155.0
631.32,165.0
631.39,171.0
631.45,161.0
631.51,165.0
631.57,179.0
631.64,154.0
631.7,152.0
631.76,153.0
631.83,152.0
631.89,163.0
631.95,156.0
632.02,175.0
632.08,163.0
632.14,155.0
632.2,163.0
632.27,163.0
632.33,158.0
632.39,175.0
632.46,163.0
632.52,159.0
632.58,149.0
632.65,155.0
632.71,162.0
632.77,166.0
632.83,157.0
632.9,153.0
632.96,170.0
633.02,142.0
633.09,124.0
633.15,133.0
633.21,144.0
633.28,144.0
633.34,146.0
633.4,143.0
633.46,152.0
633.53,148.0
633.59,171.0
633.65,171.0
633.72,159.0
633.78,150.0
633.84,148.0
633.91,156.0
633.97,153.0
634.03,157.0
634.09,146.0
634.16,146.0
634.22,130.0
634.28,144.0
634.35,137.0
634.41,123.0
634.47,127.0
634.54,129.0
634.6,161.0
634.66,158.0
634.72,149.0
634.79,152.0
634.85,140.0
634.91,160.0
634.98,144.0
635.04,159.0
635.1,146.0
635.17,139.0
635.23,132.0
635.29,119.0
635.35,116.0
635.42,120.0
635.48,137.0
635.54,119.0
635.61,116.0
635.67,132.0
635.73,127.0
635.8,126.0
635.86,97.0
635.92,90.0
635.98,104.0
636.05,114.0
636.11,117.0
636.17,114.0
636.24,121.0
636.3,117.0
636.36,119.0
636.43,105.0
636.49,98.0
636.55,80.0
636.61,78.0
636.68,90.0
636.74,76.0
636.8,106.0
636.87,97.0
636.93,88.0
636.99,75.0
637.06,96.0
637.12,84.0
637.18,67.0
637.24,75.0
637.31,87.0
637.37,77.0
637.43,79.0
637.5,70.0
637.56,86.0
637.62,94.0
637.69,74.0
637.75,74.0
637.81,67.0
637.87,70.0
637.94,63.0
638.0,53.0
638.06,46.0
638.13,40.0
638.19,63.0
638.25,51.0
638.32,57.0
638.38,61.0
638.44,42.0
638.5,68.0
638.57,67.0
638.63,52.0
638.69,38.0
638.76,40.0
638.82,61.0
638.88,47.0
638.95,54.0
639.01,44.0
639.07,50.0
639.13,51.0
639.2,71.0
639.26,75.0
639.32,64.0
639.39,82.0
639.45,74.0
639.51,71.0
639.58,61.0
639.64,82.0
639.7,60.0
639.76,56.0
639.83,59.0
639.89,63.0
639.95,77.0
640.02,64.0
640.08,63.0
640.14,80.0
640.21,99.0
640.27,81.0
640.33,68.0
640.39,78.0
640.46,73.0
640.52,82.0
640.58,89.0
640.65,99.0
640.71,84.0
640.77,79.0
640.84,79.0
640.9,68.0
640.96,82.0
641.02,89.0
641.09,80.0
641.15,83.0
641.21,82.0
641.28,90.0
641.34,77.0
641.4,69.0
641.47,89.0
641.53,82.0
641.59,97.0
641.65,75.0
641.72,60.0
641.78,79.0
641.84,82.0
641.91,78.0
641.97,96.0
642.03,88.0
642.1,94.0
642.16,97.0
642.22,108.0
642.28,94.0
642.35,116.0
642.41,130.0
642.47,103.0
642.54,107.0
642.6,130.0
642.66,148.0
642.73,137.0
642.79,105.0
642.85,132.0
642.91,151.0
642.98,136.0
643.04,119.0
643.1,133.0
643.17,131.0
643.23,151.0
643.29,139.0
643.36,129.0
643.42,128.0
643.48,137.0
643.54,139.0
643.61,148.0
643.67,161.0
643.73,164.0
643.8,159.0
643.86,154.0
643.92,148.0
643.99,134.0
644.05,154.0
644.11,142.0
644.17,163.0
644.24,167.0
644.3,156.0
644.36,172.0
644.43,162.0
644.49,165.0
644.55,159.0
644.62,148.0
644.68,166.0
644.74,138.0
644.8,154.0
644.87,158.0
644.93,147.0
644.99,143.0
645.06,141.0
645.12,146.0
645.18,135.0
645.25,125.0
645.31,133.0
645.37,136.0
645.43,148.0
645.5,156.0
645.56,148.0
645.62,156.0
645.69,149.0
645.75,163.0
645.81,158.0
645.88,144.0
645.94,167.0
646.0,163.0
646.06,168.0
646.13,151.0
646.19,133.0
646.25,159.0
646.32,173.0
646.38,141.0
646.44,144.0
646.51,144.0
646.57,164.0
646.63,168.0
646.69,151.0
646.76,156.0
646.82,160.0
646.88,157.0
646.95,171.0
647.01,165.0
647.07,178.0
647.14,174.0
647.2,180.0
647.26,179.0
647.32,200.0
647.39,180.0
647.45,187.0
647.51,200.0
647.58,189.0
647.64,186.0
647.7,193.0
647.77,182.0
647.83,212.0
647.89,222.0
647.95,204.0
648.02,203.0
648.08,194.0
648.14,217.0
648.21,198.0
648.27,190.0
648.33,206.0
648.4,195.0
648.46,181.0
648.52,195.0
648.58,223.0
648.65,211.0
648.71,215.0
648.77,231.0
648.84,229.0
648.9,240.0
648.96,231.0
649.03,239.0
649.09,251.0
649.15,243.0
649.21,249.0
649.28,272.0
649.34,268.0
649.4,278.0
649.47,273.0
649.53,267.0
649.59,273.0
649.66,262.0
649.72,262.0
649.78,278.0
649.84,277.0
649.91,278.0
649.97,275.0
650.03,267.0
650.1,269.0
650.16,278.0
650.22,281.0
650.29,284.0
650.35,261.0
650.41,251.0
650.47,281.0
650.54,286.0
650.6,267.0
650.66,261.0
650.73,262.0
650.79,254.0
650.85,254.0
650.92,277.0
650.98,278.0
651.04,273.0
651.1,262.0
651.17,245.0
651.23,270.0
651.29,264.0
651.36,258.0
651.42,255.0
651.48,254.0
651.55,253.0
651.61,247.0
651.67,243.0
651.73,242.0
651.8,247.0
651.86,253.0
651.92,240.0
651.99,244.0
652.05,248.0
652.11,259.0
652.18,237.0
652.24,242.0
652.3,225.0
652.36,228.0
652.43,221.0
652.49,198.0
652.55,188.0
652.62,187.0
652.68,202.0
652.74,181.0
652.81,186.0
652.87,186.0
652.93,193.0
652.99,199.0
653.06,157.0
653.12,161.0
653.18,159.0
653.25,165.0
653.31,164.0
653.37,144.0
653.44,167.0
653.5,192.0
653.56,181.0
653.62,166.0
653.69,161.0
653.75,184.0
653.81,207.0
653.88,176.0
653.94,163.0
654.0,152.0
654.07,166.0
654.13,148.0
654.19,148.0
654.25,154.0
654.32,156.0
654.38,154.0
654.44,136.0
654.51,151.0
654.57,143.0
654.63,129.0
654.7,132.0
654.76,136.0
654.82,148.0
654.88,122.0
654.95,133.0
655.01,131.0
655.07,133.0
655.14,143.0
655.2,145.0
655.26,110.0
655.33,99.0
655.39,98.0
655.45,105.0
655.51,99.0
655.58,82.0
655.64,91.0
655.7,104.0
655.77,103.0
655.83,71.0
655.89,78.0
655.96,105.0
656.02,91.0
656.08,82.0
656.14,83.0
656.21,89.0
656.27,104.0
656.33,92.0
656.4,71.0
656.46,61.0
656.52,63.0
656.59,64.0
656.65,45.0
656.71,35.0
656.77,41.0
656.84,40.0
656.9,20.0
656.96,41.0
657.03,30.0
657.09,30.0
657.15,53.0
657.22,46.0
657.28,48.0
657.34,46.0
657.4,55.0
657.47,49.0
657.53,45.0
657.59,67.0
657.66,60.0
657.72,51.0
657.78,41.0
657.85,49.0
657.91,62.0
657.97,52.0
658.03,49.0
658.1,64.0
658.16,60.0
658.22,75.0
658.29,71.0
658.35,66.0
658.41,78.0
658.48,63.0
658.54,56.0
658.6,52.0
658.66,46.0
658.73,32.0
658.79,39.0
658.85,50.0
658.92,38.0
658.98,30.0
659.04,36.0
659.11,21.0
659.17,25.0
659.23,42.0
659.29,31.0
659.36,38.0
659.42,24.0
659.48,16.0
659.55,18.0
659.61,10.0
659.67,33.0
659.74,42.0
659.8,28.0
659.86,26.0
659.92,16.0
659.99,14.0
660.05,22.0
660.11,24.0
660.18,52.0
660.24,47.0
660.3,19.0
660.37,56.0
660.43,34.0
660.49,39.0
660.55,41.0
660.62,58.0
660.68,45.0
660.74,55.0
660.81,58.0
660.87,53.0
660.93,58.0
661.0,57.0
661.06,64.0
661.12,50.0
661.18,53.0
661.25,34.0
661.31,42.0
661.37,63.0
661.44,56.0
661.5,58.0
661.56,69.0
661.63,53.0
661.69,33.0
661.75,35.0
661.81,42.0
661.88,41.0
661.94,42.0
662.0,42.0
662.07,46.0
662.13,34.0
662.19,37.0
662.26,51.0
662.32,42.0
662.38,52.0
662.44,30.0
662.51,15.0
662.57,28.0
662.63,20.0
662.7,9.0
662.76,10.0
662.82,20.0
662.89,15.0
662.95,0.0
663.01,20.0
663.07,-7.0
663.14,-14.0
663.2,25.0
663.26,-6.0
663.33,3.0
663.39,-20.0
663.45,-16.0
663.52,-8.0
663.58,10.0
663.64,13.0
663.7,3.0
663.77,13.0
663.83,34.0
663.89,29.0
663.96,21.0
664.02,21.0
664.08,43.0
664.15,38.0
664.21,30.0
664.27,42.0
664.33,58.0
664.4,57.0
664.46,48.0
664.52,72.0
664.59,57.0
664.65,48.0
664.71,82.0
664.78,72.0
664.84,81.0
664.9,84.0
664.96,79.0
665.03,77.0
665.09,88.0
665.15,98.0
665.22,109.0
665.28,123.0
665.34,126.0
665.41,137.0
665.47,141.0
665.53,143.0
665.59,137.0
665.66,142.0
665.72,139.0
665.78,138.0
665.85,153.0
665.91,166.0
665.97,156.0
666.04,164.0
666.1,172.0
666.16,151.0
666.22,170.0
666.29,165.0
666.35,152.0
666.41,174.0
666.48,164.0
666.54,160.0
666.6,169.0
666.67,181.0
666.73,187.0
666.79,181.0
666.85,172.0
666.92,170.0
666.98,186.0
667.04,183.0
667.11,165.0
667.17,170.0
667.23,170.0
667.3,172.0
667.36,158.0
667.42,195.0
667.48,185.0
667.55,194.0
667.61,192.0
667.67,188.0
667.74,196.0
667.8,194.0
667.86,221.0
667.93,210.0
667.99,176.0
668.05,201.0
668.11,185.0
668.18,189.0
668.24,179.0
668.3,157.0
668.37,167.0
668.43,172.0
668.49,192.0
668.56,186.0
668.62,180.0
668.68,166.0
668.74,175.0
668.81,203.0
668.87,176.0
668.93,188.0
669.0,185.0
669.06,174.0
669.12,185.0
669.19,180.0
669.25,186.0
669.31,183.0
669.37,211.0
669.44,211.0
669.5,187.0
669.56,188.0
669.63,188.0
669.69,174.0
669.75,180.0
669.82,175.0
669.88,180.0
669.94,178.0
670.0,162.0
670.07,169.0
670.13,149.0
670.19,161.0
670.26,167.0
670.32,147.0
670.38,165.0
670.45,154.0
670.51,166.0
670.57,167.0
670.63,183.0
670.7,164.0
670.76,155.0
670.82,144.0
670.89,182.0
670.95,155.0
671.01,137.0
671.08,144.0
671.14,133.0
671.2,147.0
671.26,153.0
671.33,175.0
671.39,141.0
671.45,135.0
671.52,145.0
671.58,138.0
671.64,149.0
671.71,140.0
671.77,137.0
671.83,126.0
671.89,130.0
671.96,141.0
672.02,124.0
672.08,103.0
672.15,114.0
672.21,127.0
672.27,121.0
672.34,101.0
672.4,104.0
672.46,117.0
672.52,123.0
672.59,120.0
672.65,113.0
672.71,88.0
672.78,90.0
672.84,102.0
672.9,95.0
672.97,116.0
673.03,99.0
673.09,97.0
673.15,101.0
673.22,111.0
673.28,108.0
673.34,126.0
673.41,114.0
673.47,82.0
673.53,93.0
673.6,101.0
673.66,94.0
673.72,93.0
673.78,108.0
673.85,107.0
673.91,115.0
673.97,111.0
674.04,118.0
674.1,125.0
674.16,105.0
674.23,86.0
674.29,83.0
674.35,86.0
674.41,95.0
674.48,110.0
674.54,100.0
674.6,107.0
674.67,118.0
674.73,115.0
674.79,106.0
674.86,125.0
674.92,121.0
674.98,126.0
675.04,122.0
675.11,127.0
675.17,115.0
675.23,93.0
675.3,110.0
675.36,128.0
675.42,132.0
675.49,126.0
675.55,126.0
675.61,139.0
675.67,124.0
675.74,117.0
675.8,112.0
675.86,117.0
675.93,142.0
675.99,126.0
676.05,122.0
676.12,136.0
676.18,127.0
676.24,134.0
676.3,118.0
676.37,133.0
676.43,126.0
676.49,126.0
676.56,140.0
676.62,165.0
676.68,148.0
676.75,153.0
676.81,145.0
676.87,157.0
676.93,155.0
677.0,137.0
677.06,152.0
677.12,179.0
677.19,188.0
677.25,188.0
677.31,211.0
677.38,189.0
677.44,174.0
677.5,172.0
677.56,174.0
677.63,173.0
677.69,151.0
677.75,148.0
677.82,159.0
677.88,156.0
677.94,151.0
678.01,154.0
678.07,156.0
678.13,159.0
678.19,157.0
678.26,155.0
678.32,158.0
678.38,155.0
678.45,164.0
678.51,164.0
678.57,144.0
678.64,139.0
678.7,138.0
678.76,155.0
678.82,140.0
678.89,131.0
678.95,115.0
679.01,120.0
679.08,150.0
679.14,143.0
679.2,171.0
679.27,147.0
679.33,143.0
679.39,142.0
679.45,131.0
679.52,123.0
679.58,144.0
679.64,138.0
679.71,144.0
679.77,123.0
679.83,117.0
679.9,123.0
679.96,120.0
680.02,117.0
680.08,114.0
680.15,118.0
680.21,98.0
680.27,100.0
680.34,104.0
680.4,100.0
680.46,95.0
680.53,98.0
680.59,104.0
680.65,91.0
680.71,99.0
680.78,89.0
680.84,94.0
680.9,79.0
680.97,93.0
681.03,93.0
681.09,93.0
681.16,109.0
681.22,73.0
681.28,104.0
681.34,116.0
681.41,89.0
681.47,106.0
681.53,114.0
681.6,117.0
681.66,95.0
681.72,88.0
681.79,99.0
681.85,81.0
681.91,83.0
681.97,96.0
682.04,122.0
682.1,107.0
682.16,96.0
682.23,100.0
682.29,108.0
682.35,106.0
682.42,111.0
682.48,103.0
682.54,119.0
682.6,124.0
682.67,119.0
682.73,108.0
682.79,120.0
682.86,126.0
682.92,122.0
682.98,134.0
683.05,150.0
683.11,157.0
683.17,166.0
683.23,157.0
683.3,155.0
683.36,144.0
683.42,122.0
683.49,128.0
683.55,137.0
683.61,145.0
683.68,154.0
683.74,147.0
683.8,159.0
683.86,179.0
683.93,170.0
683.99,165.0
684.05,177.0
684.12,173.0
684.18,166.0
684.24,166.0
684.31,163.0
684.37,168.0
684.43,171.0
684.49,179.0
684.56,166.0
684.62,163.0
684.68,159.0
684.75,130.0
684.81,145.0
684.87,160.0
684.94,141.0
685.0,147.0
685.06,160.0
685.12,151.0
685.19,160.0
685.25,145.0
685.31,144.0
685.38,136.0
685.44,141.0
685.5,135.0
685.57,140.0
685.63,148.0
685.69,129.0
685.75,130.0
685.82,129.0
685.88,123.0
685.94,121.0
686.01,134.0
686.07,140.0
686.13,127.0
686.2,138.0
686.26,141.0
686.32,136.0
686.38,152.0
686.45,139.0
686.51,126.0
686.57,131.0
686.64,142.0
686.7,139.0
686.76,143.0
686.83,147.0
686.89,128.0
686.95,144.0
687.01,139.0
687.08,125.0
687.14,131.0
687.2,141.0
687.27,120.0
687.33,145.0
687.39,148.0
687.46,159.0
687.52,147.0
687.58,150.0
687.64,145.0
687.71,137.0
687.77,140.0
687.83,126.0
687.9,123.0
687.96,122.0
688.02,109.0
688.09,107.0
688.15,107.0
688.21,96.0
688.27,86.0
688.34,91.0
688.4,93.0
688.46,87.0
688.53,93.0
688.59,82.0
688.65,74.0
688.72,74.0
688.78,65.0
688.84,82.0
688.9,58.0
688.97,55.0
689.03,62.0
689.09,65.0
689.16,67.0
689.22,86.0
689.28,45.0
689.35,61.0
689.41,46.0
689.47,45.0
689.53,59.0
689.6,71.0
689.66,61.0
689.72,89.0
689.79,76.0
689.85,57.0
689.91,59.0
689.98,43.0
690.04,49.0
690.1,69.0
690.16,67.0
690.23,66.0
690.29,59.0
690.35,53.0
690.42,45.0
690.48,64.0
690.54,49.0
690.61,42.0
690.67,62.0
690.73,64.0
690.79,49.0
690.86,53.0
690.92,57.0
690.98,56.0
691.05,78.0
691.11,41.0
691.17,31.0
691.24,38.0
691.3,43.0
691.36,45.0
691.42,49.0
691.49,53.0
691.55,51.0
691.61,48.0
691.68,42.0
691.74,34.0
691.8,40.0
691.87,67.0
691.93,45.0
691.99,52.0
692.05,69.0
692.12,65.0
692.18,51.0
692.24,60.0
692.31,74.0
692.37,95.0
692.43,77.0
692.5,74.0
692.56,93.0
692.62,90.0
692.68,82.0
692.75,87.0
692.81,90.0
692.87,70.0
692.94,86.0
693.0,78.0
693.06,76.0
693.13,68.0
693.19,55.0
693.25,57.0
693.31,76.0
693.38,64.0
693.44,48.0
693.5,74.0
693.57,79.0
693.63,90.0
693.69,94.0
693.76,78.0
693.82,75.0
693.88,91.0
693.94,92.0
694.01,82.0
694.07,93.0
694.13,98.0
694.2,112.0
694.26,95.0
694.32,90.0
694.39,101.0
694.45,97.0
694.51,104.0
694.57,122.0
694.64,115.0
694.7,115.0
694.76,106.0
694.83,88.0
694.89,102.0
694.95,89.0
695.02,93.0
695.08,128.0
695.14,119.0
695.2,136.0
695.27,111.0
695.33,123.0
695.39,142.0
695.46,120.0
695.52,93.0
695.58,101.0
695.65,121.0
695.71,118.0
695.77,113.0
695.83,128.0
695.9,139.0
695.96,132.0
696.02,144.0
696.09,130.0
696.15,137.0
696.21,119.0
696.28,108.0
696.34,129.0
696.4,122.0
696.46,117.0
696.53,105.0
696.59,118.0
696.65,113.0
696.72,109.0
696.78,107.0
696.84,114.0
696.91,103.0
696.97,101.0
697.03,95.0
697.09,90.0
697.16,101.0
697.22,109.0
697.28,109.0
697.35,105.0
697.41,93.0
697.47,115.0
697.54,130.0
697.6,120.0
697.66,142.0
697.72,144.0
697.79,127.0
697.85,147.0
697.91,156.0
697.98,147.0
698.04,152.0
698.1,146.0
698.17,147.0
698.23,152.0
698.29,137.0
698.35,152.0
698.42,156.0
698.48,152.0
698.54,142.0
698.61,131.0
698.67,137.0
698.73,141.0
698.8,148.0
698.86,137.0
698.92,138.0
698.98,150.0
699.05,151.0
699.11,169.0
699.17,166.0
699.24,179.0
699.3,163.0
699.36,190.0
699.43,183.0
699.49,170.0
699.55,174.0
699.61,179.0
699.68,187.0
699.74,177.0
699.8,205.0
699.87,202.0
699.93,207.0
699.99,194.0
700.06,201.0
700.12,210.0
700.18,199.0
700.24,206.0
700.31,197.0
700.37,205.0
700.43,206.0
700.5,208.0
700.56,210.0
700.62,202.0
700.69,208.0
700.75,195.0
700.81,208.0
700.87,226.0
700.94,221.0
701.0,201.0
701.06,175.0
701.13,189.0
701.19,205.0
701.25,224.0
701.32,225.0
701.38,218.0
701.44,216.0
701.5,225.0
701.57,239.0
701.63,238.0
701.69,247.0
701.76,250.0
701.82,250.0
701.88,247.0
701.95,229.0
702.01,236.0
702.07,250.0
702.13,254.0
702.2,255.0
702.26,262.0
702.32,285.0
702.39,269.0
702.45,250.0
702.51,261.0
702.58,254.0
702.64,259.0
702.7,268.0
702.76,262.0
702.83,252.0
702.89,256.0
702.95,235.0
703.02,254.0
703.08,258.0
703.14,245.0
703.21,268.0
703.27,273.0
703.33,272.0
703.39,248.0
703.46,251.0
703.52,239.0
703.58,244.0
703.65,218.0
703.71,239.0
703.77,257.0
703.84,262.0
703.9,257.0
703.96,245.0
704.02,255.0
704.09,243.0
704.15,237.0
704.21,232.0
704.28,210.0
704.34,211.0
704.4,210.0
704.47,218.0
704.53,243.0
704.59,240.0
704.65,248.0
704.72,229.0
704.78,224.0
704.84,221.0
704.91,210.0
704.97,201.0
705.03,223.0
705.1,204.0
705.16,207.0
705.22,198.0
705.28,198.0
705.35,182.0
705.41,193.0
705.47,211.0
705.54,202.0
705.6,208.0
705.66,202.0
705.73,180.0
705.79,166.0
705.85,188.0
705.91,185.0
705.98,199.0
706.04,187.0
706.1,174.0
706.17,181.0
706.23,164.0
706.29,178.0
706.36,170.0
706.42,158.0
706.48,158.0
706.54,159.0
706.61,146.0
706.67,154.0
706.73,155.0
706.8,149.0
706.86,150.0
706.92,145.0
706.99,121.0
707.05,118.0
707.11,155.0
707.17,136.0
707.24,150.0
707.3,138.0
707.36,135.0
707.43,142.0
707.49,118.0
707.55,122.0
707.62,111.0
707.68,93.0
707.74,100.0
707.8,106.0
707.87,95.0
707.93,101.0
707.99,101.0
708.06,115.0
708.12,111.0
708.18,122.0
708.25,115.0
708.31,107.0
708.37,129.0
708.43,109.0
708.5,137.0
708.56,139.0
708.62,131.0
708.69,141.0
708.75,134.0
708.81,154.0
708.88,134.0
708.94,140.0
709.0,139.0
709.06,135.0
709.13,126.0
709.19,117.0
709.25,136.0
709.32,115.0
709.38,111.0
709.44,127.0
709.51,114.0
709.57,120.0
709.63,121.0
709.69,124.0
709.76,112.0
709.82,121.0
709.88,104.0
709.95,111.0
710.01,119.0
710.07,106.0
710.14,100.0
710.2,114.0
710.26,103.0
710.32,101.0
710.39,123.0
710.45,108.0
710.51,121.0
710.58,121.0
710.64,95.0
710.7,88.0
710.77,88.0
710.83,86.0
710.89,64.0
710.95,86.0
711.02,83.0
711.08,91.0
711.14,60.0
711.21,81.0
711.27,100.0
711.33,92.0
711.4,92.0
711.46,86.0
711.52,77.0
711.58,75.0
711.65,89.0
711.71,92.0
711.77,79.0
711.84,82.0
711.9,75.0
711.96,78.0
712.03,72.0
712.09,72.0
712.15,60.0
712.21,68.0
712.28,62.0
712.34,64.0
712.4,79.0
712.47,72.0
712.53,45.0
712.59,47.0
712.66,37.0
712.72,42.0
712.78,29.0
712.84,30.0
712.91,44.0
712.97,-1.0
713.03,25.0
713.1,24.0
713.16,3.0
713.22,46.0
713.29,28.0
713.35,22.0
713.41,29.0
713.47,30.0
713.54,20.0
713.6,28.0
713.66,20.0
713.73,19.0
713.79,29.0
713.85,19.0
713.92,16.0
713.98,26.0
714.04,50.0
714.1,35.0
714.17,27.0
714.23,12.0
714.29,21.0
714.36,4.0
714.42,25.0
714.48,12.0
714.55,1.0
714.61,30.0
714.67,19.0
714.73,4.0
714.8,16.0
714.86,18.0
714.92,24.0
714.99,32.0
715.05,19.0
715.11,28.0
715.18,30.0
715.24,26.0
715.3,36.0
715.36,34.0
715.43,31.0
715.49,54.0
715.55,63.0
715.62,54.0
715.68,66.0
715.74,52.0
715.81,57.0
715.87,62.0
715.93,45.0
715.99,26.0
716.06,46.0
716.12,31.0
716.18,38.0
716.25,54.0
716.31,51.0
716.37,64.0
716.44,56.0
716.5,61.0
716.56,82.0
716.62,98.0
716.69,78.0
716.75,75.0
716.81,86.0
716.88,85.0
716.94,71.0
717.0,79.0
717.07,70.0
717.13,54.0
717.19,59.0
717.25,74.0
717.32,72.0
717.38,65.0
717.44,99.0
717.51,95.0
717.57,81.0
717.63,81.0
717.7,94.0
717.76,108.0
717.82,87.0
717.88,74.0
717.95,70.0
718.01,75.0
718.07,60.0
718.14,62.0
718.2,71.0
718.26,76.0
718.33,74.0
718.39,88.0
718.45,93.0
718.51,83.0
718.58,81.0
718.64,66.0
718.7,73.0
718.77,79.0
718.83,85.0
718.89,86.0
718.96,90.0
719.02,91.0
719.08,87.0
719.14,78.0
719.21,75.0
719.27,73.0
719.33,84.0
719.4,92.0
719.46,98.0
719.52,102.0
719.59,103.0
719.65,106.0
719.71,111.0
719.77,109.0
719.84,109.0
719.9,115.0
719.96,117.0
720.03,131.0
720.09,116.0
720.15,96.0
720.22,106.0
720.28,126.0
720.34,136.0
720.4,132.0
720.47,140.0
720.53,134.0
720.59,144.0
720.66,142.0
720.72,145.0
720.78,132.0
720.85,133.0
720.91,127.0
720.97,134.0
721.03,129.0
721.1,115.0
721.16,119.0
721.22,127.0
721.29,125.0
721.35,125.0
721.41,143.0
721.48,129.0
721.54,114.0
721.6,139.0
721.66,129.0
721.73,149.0
721.79,166.0
721.85,159.0
721.92,157.0
721.98,175.0
722.04,168.0
722.11,156.0
722.17,151.0
722.23,145.0
722.29,166.0
722.36,167.0
722.42,134.0
722.48,145.0
722.55,131.0
722.61,155.0
722.67,153.0
722.74,125.0
722.8,152.0
722.86,126.0
722.92,115.0
722.99,134.0
723.05,126.0
723.11,123.0
723.18,123.0
723.24,151.0
723.3,136.0
723.37,140.0
723.43,140.0
723.49,132.0
723.55,129.0
723.62,135.0
723.68,128.0
723.74,138.0
723.81,144.0
723.87,136.0
723.93,156.0
724.0,144.0
724.06,136.0
724.12,130.0
724.18,121.0
724.25,140.0
724.31,141.0
724.37,144.0
724.44,127.0
724.5,117.0
724.56,120.0
724.63,139.0
724.69,116.0
724.75,143.0
724.81,134.0
724.88,132.0
724.94,130.0
725.0,139.0
725.07,148.0
725.13,143.0
725.19,157.0
725.26,156.0
725.32,167.0
725.38,172.0
725.44,159.0
725.51,157.0
725.57,139.0
725.63,169.0
725.7,167.0
725.76,158.0
725.82,162.0
725.89,188.0
725.95,159.0
726.01,153.0
726.07,181.0
726.14,190.0
726.2,194.0
726.26,162.0
726.33,154.0
726.39,175.0
726.45,175.0
726.52,181.0
726.58,173.0
726.64,181.0
726.7,191.0
726.77,188.0
726.83,204.0
726.89,205.0
726.96,185.0
727.02,210.0
727.08,174.0
727.15,181.0
727.21,189.0
727.27,180.0
727.33,176.0
727.4,172.0
727.46,176.0
727.52,171.0
727.59,205.0
727.65,196.0
727.71,184.0
727.78,193.0
727.84,178.0
727.9,195.0
727.96,180.0
728.03,191.0
728.09,184.0
728.15,194.0
728.22,188.0
728.28,181.0
728.34,189.0
728.41,173.0
728.47,168.0
728.53,171.0
728.59,178.0
728.66,147.0
728.72,145.0
728.78,162.0
728.85,145.0
728.91,155.0
728.97,172.0
729.04,148.0
729.1,165.0
729.16,159.0
729.22,156.0
729.29,151.0
729.35,164.0
729.41,174.0
729.48,145.0
729.54,155.0
729.6,151.0
729.67,158.0
729.73,150.0
729.79,169.0
729.85,162.0
729.92,169.0
729.98,163.0
730.04,180.0
730.11,166.0
730.17,170.0
730.23,158.0
730.3,159.0
730.36,159.0
730.42,141.0
730.48,159.0
730.55,158.0
730.61,152.0
730.67,142.0
730.74,143.0
730.8,125.0
730.86,149.0
730.93,140.0
730.99,125.0
731.05,117.0
731.11,122.0
731.18,117.0
731.24,136.0
731.3,151.0
731.37,137.0
731.43,123.0
731.49,123.0
731.56,119.0
731.62,130.0
731.68,141.0
731.74,142.0
731.81,134.0
731.87,144.0
731.93,141.0
732.0,148.0
732.06,133.0
732.12,138.0
732.19,157.0
732.25,149.0
732.31,117.0
732.37,145.0
732.44,161.0
732.5,155.0
732.56,148.0
732.63,141.0
732.69,149.0
732.75,154.0
732.82,160.0
732.88,152.0
732.94,147.0
733.0,149.0
733.07,156.0
733.13,158.0
733.19,136.0
733.26,128.0
733.32,129.0
733.38,122.0
733.45,134.0
733.51,127.0
733.57,129.0
733.63,126.0
733.7,121.0
733.76,135.0
733.82,133.0
733.89,131.0
733.95,134.0
734.01,140.0
734.08,138.0
734.14,147.0
734.2,140.0
734.26,144.0
734.33,120.0
734.39,126.0
734.45,131.0
734.52,137.0
734.58,127.0
734.64,136.0
734.71,155.0
734.77,148.0
734.83,156.0
734.89,135.0
734.96,136.0
735.02,137.0
735.08,127.0
735.15,132.0
735.21,138.0
735.27,127.0
735.34,128.0
735.4,135.0
735.46,134.0
735.52,131.0
735.59,148.0
735.65,126.0
735.71,131.0
735.78,118.0
735.84,118.0
735.9,132.0
735.97,131.0
736.03,140.0
736.09,129.0
736.15,129.0
736.22,135.0
736.28,142.0
736.34,133.0
736.41,127.0
736.47,116.0
736.53,134.0
736.6,122.0
736.66,139.0
736.72,134.0
736.78,126.0
736.85,122.0
736.91,108.0
736.97,88.0
737.04,111.0
737.1,100.0
737.16,76.0
737.23,88.0
737.29,82.0
737.35,74.0
737.41,88.0
737.48,81.0
737.54,95.0
737.6,115.0
737.67,90.0
737.73,91.0
737.79,84.0
737.86,101.0
737.92,78.0
737.98,70.0
738.04,87.0
738.11,86.0
738.17,87.0
738.23,90.0
738.3,68.0
738.36,79.0
738.42,98.0
738.49,92.0
738.55,77.0
738.61,79.0
738.67,91.0
738.74,86.0
738.8,92.0
738.86,92.0
738.93,65.0
738.99,85.0
739.05,82.0
739.12,80.0
739.18,79.0
739.24,87.0
739.3,92.0
739.37,81.0
739.43,59.0
739.49,48.0
739.56,78.0
739.62,81.0
739.68,54.0
739.75,63.0
739.81,63.0
739.87,46.0
739.93,60.0
740.0,50.0
740.06,30.0
740.12,23.0
740.19,28.0
740.25,34.0
740.31,38.0
740.38,21.0
740.44,12.0
740.5,19.0
740.56,8.0
740.63,9.0
740.69,46.0
740.75,32.0
740.82,14.0
740.88,23.0
740.94,38.0
741.01,53.0
741.07,38.0
741.13,68.0
741.19,82.0
741.26,76.0
741.32,81.0
741.38,64.0
741.45,85.0
741.51,71.0
741.57,74.0
741.64,59.0
741.7,62.0
741.76,49.0
741.82,46.0
741.89,51.0
741.95,56.0
742.01,54.0
742.08,73.0
742.14,71.0
742.2,73.0
742.27,89.0
742.33,88.0
742.39,95.0
742.45,104.0
742.52,89.0
742.58,91.0
742.64,90.0
742.71,97.0
742.77,103.0
742.83,96.0
742.9,115.0
742.96,107.0
743.02,122.0
743.08,99.0
743.15,101.0
743.21,93.0
743.27,116.0
743.34,114.0
743.4,104.0
743.46,114.0
743.53,115.0
743.59,100.0
743.65,112.0
743.71,108.0
743.78,114.0
743.84,113.0
743.9,125.0
743.97,113.0
744.03,125.0
744.09,142.0
744.16,144.0
744.22,136.0
744.28,142.0
744.34,143.0
744.41,127.0
744.47,106.0
744.53,118.0
744.6,123.0
744.66,140.0
744.72,127.0
744.79,110.0
744.85,127.0
744.91,134.0
744.97,115.0
745.04,117.0
745.1,99.0
745.16,97.0
745.23,99.0
745.29,81.0
745.35,91.0
745.42,85.0
745.48,113.0
745.54,108.0
745.6,123.0
745.67,121.0
745.73,123.0
745.79,119.0
745.86,105.0
745.92,118.0
745.98,130.0
746.05,121.0
746.11,129.0
746.17,114.0
746.23,99.0
746.3,95.0
746.36,118.0
746.42,93.0
746.49,93.0
746.55,114.0
746.61,103.0
746.68,102.0
746.74,92.0
746.8,93.0
746.86,100.0
746.93,105.0
746.99,119.0
747.05,123.0
747.12,93.0
747.18,98.0
747.24,93.0
747.31,93.0
747.37,107.0
747.43,116.0
747.49,110.0
747.56,114.0
747.62,114.0
747.68,118.0
747.75,125.0
747.81,102.0
747.87,102.0
747.94,90.0
748.0,107.0
748.06,96.0
748.12,98.0
748.19,118.0
748.25,113.0
748.31,112.0
748.38,107.0
748.44,96.0
748.5,115.0
748.57,106.0
748.63,108.0
748.69,101.0
748.75,92.0
748.82,127.0
748.88,139.0
748.94,151.0
749.01,151.0
749.07,156.0
749.13,185.0
749.2,162.0
749.26,165.0
749.32,177.0
749.38,150.0
749.45,195.0
749.51,188.0
749.57,188.0
749.64,197.0
749.7,187.0
749.76,178.0
749.83,180.0
749.89,169.0
749.95,182.0
750.01,179.0
750.08,167.0
750.14,166.0
750.2,192.0
750.27,183.0
750.33,175.0
750.39,169.0
750.46,184.0
750.52,211.0
750.58,217.0
750.64,197.0
750.71,193.0
750.77,201.0
750.83,197.0
750.9,201.0
750.96,213.0
751.02,203.0
751.09,212.0
751.15,210.0
751.21,208.0
751.27,183.0
751.34,181.0
751.4,202.0
751.46,192.0
751.53,194.0
751.59,187.0
751.65,191.0
751.72,182.0
751.78,192.0
751.84,194.0
751.9,175.0
751.97,184.0
752.03,191.0
752.09,203.0
752.16,193.0
752.22,210.0
752.28,217.0
752.35,205.0
752.41,197.0
752.47,200.0
752.53,197.0
752.6,200.0
752.66,210.0
752.72,191.0
752.79,203.0
752.85,211.0
752.91,219.0
752.98,234.0
753.04,225.0
753.1,236.0
753.16,214.0
753.23,214.0
753.29,227.0
753.35,217.0
753.42,220.0
753.48,217.0
753.54,222.0
753.61,222.0
753.67,222.0
753.73,221.0
753.79,231.0
753.86,214.0
753.92,232.0
753.98,239.0
754.05,238.0
754.11,240.0
754.17,229.0
754.24,236.0
754.3,215.0
754.36,237.0
754.42,250.0
754.49,246.0
754.55,232.0
754.61,234.0
754.68,236.0
754.74,250.0
754.8,230.0
754.87,252.0
754.93,252.0
754.99,241.0
755.05,246.0
755.12,230.0
755.18,225.0
755.24,239.0
755.31,244.0
755.37,237.0
755.43,205.0
755.5,224.0
755.56,227.0
755.62,232.0
755.68,207.0
755.75,191.0
755.81,209.0
755.87,199.0
755.94,216.0
756.0,204.0
756.06,197.0
756.13,195.0
756.19,184.0
756.25,197.0
756.31,209.0
756.38,205.0
756.44,231.0
756.5,208.0
756.57,190.0
756.63,192.0
756.69,207.0
756.76,204.0
756.82,173.0
756.88,186.0
756.94,170.0
757.01,177.0
757.07,184.0
757.13,180.0
757.2,192.0
757.26,187.0
757.32,185.0
757.39,183.0
757.45,179.0
757.51,169.0
757.57,163.0
757.64,193.0
757.7,183.0
757.76,181.0
757.83,178.0
757.89,158.0
757.95,173.0
758.02,159.0
758.08,166.0
758.14,176.0
758.2,173.0
758.27,180.0
758.33,194.0
758.39,176.0
758.46,190.0
758.52,189.0
758.58,163.0
758.65,185.0
758.71,174.0
758.77,189.0
758.83,198.0
758.9,186.0
758.96,180.0
759.02,188.0
759.09,185.0
759.15,187.0
759.21,181.0
759.28,181.0
759.34,175.0
759.4,182.0
759.46,172.0
759.53,162.0
759.59,150.0
759.65,181.0
759.72,191.0
759.78,167.0
759.84,176.0
759.91,155.0
759.97,159.0
760.03,143.0
760.09,159.0
760.16,161.0
760.22,172.0
760.28,189.0
760.35,170.0
760.41,167.0
760.47,188.0
760.54,199.0
760.6,209.0
760.66,201.0
760.72,169.0
760.79,173.0
760.85,189.0
760.91,178.0
760.98,195.0
761.04,185.0
761.1,177.0
761.17,181.0
761.23,187.0
761.29,188.0
761.35,188.0
761.42,175.0
761.48,149.0
761.54,173.0
761.61,164.0
761.67,159.0
761.73,169.0
761.8,160.0
761.86,167.0
761.92,148.0
761.98,143.0
762.05,120.0
762.11,127.0
762.17,130.0
762.24,131.0
762.3,136.0
762.36,112.0
762.43,106.0
762.49,99.0
762.55,108.0
762.61,115.0
762.68,117.0
762.74,109.0
762.8,110.0
762.87,121.0
762.93,114.0
762.99,118.0
763.06,99.0
763.12,84.0
763.18,79.0
763.24,79.0
763.31,62.0
763.37,79.0
763.43,69.0
763.5,67.0
763.56,66.0
763.62,54.0
763.69,71.0
763.75,67.0
763.81,79.0
763.87,89.0
763.94,72.0
764.0,67.0
764.06,50.0
764.13,79.0
764.19,87.0
764.25,83.0
764.32,58.0
764.38,67.0
764.44,78.0
764.5,48.0
764.57,54.0
764.63,46.0
764.69,34.0
764.76,48.0
764.82,32.0
764.88,50.0
764.95,38.0
765.01,34.0
765.07,45.0
765.13,40.0
765.2,53.0
765.26,56.0
765.32,62.0
765.39,61.0
765.45,48.0
765.51,45.0
765.58,39.0
765.64,35.0
765.7,24.0
765.76,18.0
765.83,16.0
765.89,26.0
765.95,30.0
766.02,43.0
766.08,32.0
766.14,48.0
766.21,63.0
766.27,63.0
766.33,75.0
766.39,65.0
766.46,82.0
766.52,82.0
766.58,87.0
766.65,82.0
766.71,96.0
766.77,90.0
766.84,76.0
766.9,76.0
766.96,66.0
767.02,58.0
767.09,65.0
767.15,79.0
767.21,70.0
767.28,65.0
767.34,66.0
767.4,71.0
767.47,74.0
767.53,64.0
767.59,72.0
767.65,83.0
767.72,70.0
767.78,73.0
767.84,76.0
767.91,76.0
767.97,77.0
768.03,82.0
768.1,68.0
768.16,71.0
768.22,84.0
768.28,88.0
768.35,76.0
768.41,74.0
768.47,66.0
768.54,55.0
768.6,81.0
768.66,56.0
768.73,72.0
768.79,85.0
768.85,103.0
768.91,112.0
768.98,102.0
769.04,108.0
769.1,102.0
769.17,88.0
769.23,101.0
769.29,117.0
769.36,120.0
769.42,107.0
769.48,118.0
769.54,133.0
769.61,114.0
769.67,116.0
769.73,107.0
769.8,99.0
769.86,114.0
769.92,108.0
769.99,117.0
770.05,88.0
770.11,108.0
770.17,127.0
770.24,98.0
770.3,108.0
770.36,114.0
770.43,103.0
770.49,97.0
770.55,96.0
770.62,93.0
770.68,110.0
770.74,98.0
770.8,103.0
770.87,104.0
770.93,109.0
770.99,93.0
771.06,98.0
771.12,108.0
771.18,79.0
771.25,98.0
771.31,71.0
771.37,81.0
771.43,84.0
771.5,92.0
771.56,76.0
771.62,63.0
771.69,57.0
771.75,74.0
771.81,64.0
771.88,61.0
771.94,75.0
772.0,77.0
772.06,81.0
772.13,73.0
772.19,74.0
772.25,69.0
772.32,84.0
772.38,81.0
772.44,73.0
772.51,77.0
772.57,56.0
772.63,60.0
772.69,77.0
772.76,65.0
772.82,61.0
772.88,75.0
772.95,57.0
773.01,49.0
773.07,54.0
773.14,51.0
773.2,51.0
773.26,63.0
773.32,43.0
773.39,61.0
773.45,77.0
773.51,81.0
773.58,85.0
773.64,82.0
773.7,70.0
773.77,63.0
773.83,60.0
773.89,69.0
773.95,59.0
774.02,46.0
774.08,59.0
774.14,75.0
774.21,63.0
774.27,60.0
774.33,56.0
774.4,48.0
774.46,70.0
774.52,44.0
774.58,46.0
774.65,71.0
774.71,61.0
774.77,63.0
774.84,57.0
774.9,56.0
774.96,57.0
775.03,45.0
775.09,49.0
775.15,47.0
775.21,56.0
775.28,55.0
775.34,70.0
775.4,66.0
775.47,63.0
775.53,89.0
775.59,71.0
775.66,80.0
775.72,95.0
775.78,72.0
775.84,84.0
775.91,94.0
775.97,79.0
776.03,91.0
776.1,104.0
776.16,108.0
776.22,96.0
776.29,96.0
776.35,122.0
776.41,121.0
776.47,114.0
776.54,115.0
776.6,125.0
776.66,132.0
776.73,132.0
776.79,147.0
776.85,136.0
776.92,140.0
776.98,147.0
777.04,133.0
777.1,140.0
777.17,143.0
777.23,151.0
777.29,151.0
777.36,155.0
777.42,156.0
777.48,162.0
777.55,155.0
777.61,159.0
777.67,153.0
777.73,162.0
777.8,159.0
777.86,176.0
777.92,194.0
777.99,169.0
778.05,192.0
778.11,188.0
778.18,200.0
778.24,189.0
778.3,192.0
778.36,182.0
778.43,169.0
778.49,155.0
778.55,147.0
778.62,160.0
778.68,175.0
778.74,154.0
778.81,151.0
778.87,151.0
778.93,167.0
778.99,165.0
779.06,160.0
779.12,162.0
779.18,158.0
779.25,161.0
779.31,164.0
779.37,176.0
779.44,173.0
779.5,165.0
779.56,174.0
779.62,161.0
779.69,173.0
779.75,177.0
779.81,167.0
779.88,154.0
779.94,154.0
780.0,148.0
780.07,161.0
780.13,161.0
780.19,158.0
780.25,186.0
780.32,178.0
780.38,161.0
780.44,161.0
780.51,150.0
780.57,154.0
780.63,179.0
780.7,175.0
780.76,172.0
780.82,161.0
780.88,177.0
780.95,149.0
781.01,150.0
781.07,146.0
781.14,136.0
781.2,149.0
781.26,142.0
781.33,143.0
781.39,135.0
781.45,149.0
781.51,140.0
781.58,133.0
781.64,140.0
781.7,151.0
781.77,126.0
781.83,135.0
781.89,137.0
781.96,138.0
782.02,136.0
782.08,140.0
782.14,167.0
782.21,164.0
782.27,169.0
782.33,161.0
782.4,160.0
782.46,155.0
782.52,144.0
782.59,167.0
782.65,169.0
782.71,186.0
782.77,184.0
782.84,167.0
782.9,192.0
782.96,198.0
783.03,214.0
783.09,194.0
783.15,191.0
783.22,217.0
783.28,204.0
783.34,221.0
783.4,204.0
783.47,210.0
783.53,200.0
783.59,197.0
783.66,208.0
783.72,224.0
783.78,235.0
783.85,208.0
783.91,219.0
783.97,211.0
784.03,212.0
784.1,219.0
784.16,237.0
784.22,227.0
784.29,236.0
784.35,230.0
784.41,219.0
784.48,210.0
784.54,220.0
784.6,217.0
784.66,200.0
784.73,223.0
784.79,201.0
784.85,223.0
784.92,218.0
784.98,202.0
785.04,202.0
785.11,182.0
785.17,178.0
785.23,179.0
785.29,206.0
785.36,202.0
785.42,183.0
785.48,173.0
785.55,198.0
785.61,205.0
785.67,217.0
785.74,215.0
785.8,216.0
785.86,197.0
785.92,186.0
785.99,202.0
786.05,206.0
786.11,207.0
786.18,223.0
786.24,213.0
786.3,224.0
786.37,222.0
786.43,213.0
786.49,215.0
786.55,203.0
786.62,216.0
786.68,198.0
786.74,198.0
786.81,193.0
786.87,194.0
786.93,194.0
787.0,193.0
787.06,178.0
787.12,195.0
787.18,210.0
787.25,203.0
787.31,202.0
787.37,197.0
787.44,195.0
787.5,209.0
787.56,212.0
787.63,200.0
787.69,209.0
787.75,223.0
787.81,203.0
787.88,193.0
787.94,168.0
788.0,167.0
788.07,168.0
788.13,179.0
788.19,171.0
788.26,162.0
788.32,151.0
788.38,168.0
788.44,167.0
788.51,153.0
788.57,164.0
788.63,155.0
788.7,152.0
788.76,147.0
788.82,162.0
788.89,162.0
788.95,152.0
789.01,159.0
789.07,142.0
789.14,164.0
789.2,153.0
789.26,158.0
789.33,147.0
789.39,143.0
789.45,151.0
789.52,151.0
789.58,138.0
789.64,136.0
789.7,135.0
789.77,130.0
789.83,104.0
789.89,112.0
789.96,139.0
790.02,108.0
790.08,107.0
790.15,99.0
790.21,115.0
790.27,120.0
790.33,103.0
790.4,112.0
790.46,74.0
790.52,96.0
790.59,97.0
790.65,73.0
790.71,95.0
790.78,105.0
790.84,109.0
790.9,106.0
790.96,112.0
791.03,104.0
791.09,123.0
791.15,96.0
791.22,81.0
791.28,79.0
791.34,74.0
791.41,90.0
791.47,96.0
791.53,87.0
791.59,101.0
791.66,110.0
791.72,106.0
791.78,106.0
791.85,118.0
791.91,115.0
791.97,88.0
792.04,99.0
792.1,101.0
792.16,95.0
792.22,95.0
792.29,92.0
792.35,98.0
792.41,78.0
792.48,80.0
792.54,76.0
792.6,88.0
792.67,105.0
792.73,81.0
792.79,79.0
792.85,77.0
792.92,92.0
792.98,107.0
793.04,92.0
793.11,103.0
793.17,93.0
793.23,112.0
793.3,106.0
793.36,95.0
793.42,99.0
793.48,110.0
793.55,112.0
793.61,101.0
793.67,113.0
793.74,129.0
793.8,106.0
793.86,110.0
793.93,97.0
793.99,118.0
794.05,131.0
794.11,120.0
794.18,120.0
794.24,120.0
794.3,120.0
794.37,126.0
794.43,124.0
794.49,123.0
794.56,127.0
794.62,147.0
794.68,140.0
794.74,141.0
794.81,148.0
794.87,141.0
794.93,118.0
795.0,133.0
795.06,145.0
795.12,128.0
795.19,136.0
795.25,124.0
795.31,127.0
795.37,135.0
795.44,157.0
795.5,136.0
795.56,135.0
795.63,128.0
795.69,120.0
795.75,134.0
795.82,122.0
795.88,125.0
795.94,111.0
796.0,124.0
796.07,100.0
796.13,108.0
796.19,125.0
796.26,102.0
796.32,114.0
796.38,82.0
796.45,85.0
796.51,94.0
796.57,57.0
796.63,81.0
796.7,85.0
796.76,76.0
796.82,71.0
796.89,82.0
796.95,101.0
797.01,86.0
797.08,96.0
797.14,90.0
797.2,69.0
797.26,71.0
797.33,72.0
797.39,84.0
797.45,60.0
797.52,92.0
797.58,87.0
797.64,92.0
797.71,62.0
797.77,51.0
797.83,67.0
797.89,68.0
797.96,84.0
798.02,73.0
798.08,59.0
798.15,85.0
798.21,63.0
798.27,52.0
798.34,64.0
798.4,78.0
798.46,67.0
798.52,72.0
798.59,74.0
798.65,78.0
798.71,75.0
798.78,89.0
798.84,95.0
798.9,92.0
798.97,86.0
799.03,103.0
799.09,119.0
799.15,116.0
799.22,121.0
799.28,125.0
799.34,115.0
799.41,121.0
799.47,120.0
799.53,107.0
799.6,110.0
799.66,121.0
799.72,139.0
799.78,143.0
799.85,147.0
799.91,118.0
799.97,137.0
800.04,142.0
800.1,144.0
800.16,161.0
800.23,148.0
800.29,169.0
800.35,169.0
800.41,170.0
800.48,170.0
800.54,171.0
800.6,172.0
800.67,163.0
800.73,177.0
800.79,172.0
800.86,168.0
800.92,158.0
800.98,157.0
801.04,162.0
801.11,178.0
801.17,164.0
801.23,158.0
801.3,169.0
801.36,170.0
801.42,152.0
801.49,143.0
801.55,153.0
801.61,157.0
801.67,167.0
801.74,153.0
801.8,163.0
801.86,158.0
801.93,162.0
801.99,164.0
802.05,153.0
802.12,161.0
802.18,180.0
802.24,189.0
802.3,174.0
802.37,160.0
802.43,150.0
802.49,159.0
802.56,154.0
802.62,156.0
802.68,159.0
802.75,155.0
802.81,151.0
802.87,141.0
802.93,155.0
803.0,166.0
803.06,182.0
803.12,172.0
803.19,170.0
803.25,159.0
803.31,171.0
803.38,159.0
803.44,194.0
803.5,205.0
803.56,181.0
803.63,192.0
803.69,195.0
803.75,192.0
803.82,213.0
803.88,202.0
803.94,177.0
804.01,183.0
804.07,176.0
804.13,190.0
804.19,191.0
804.26,203.0
804.32,205.0
804.38,194.0
804.45,203.0
804.51,209.0
804.57,192.0
804.64,200.0
804.7,192.0
804.76,204.0
804.82,208.0
804.89,215.0
804.95,224.0
805.01,221.0
805.08,220.0
805.14,207.0
805.2,210.0
805.27,202.0
805.33,208.0
805.39,188.0
805.45,176.0
805.52,176.0
805.58,180.0
805.64,199.0
805.71,187.0
805.77,181.0
805.83,174.0
805.9,171.0
805.96,175.0
806.02,158.0
806.08,170.0
806.15,182.0
806.21,159.0
806.27,156.0
806.34,146.0
806.4,147.0
806.46,144.0
806.53,145.0
806.59,145.0
806.65,129.0
806.71,128.0
806.78,141.0
806.84,124.0
806.9,112.0
806.97,124.0
807.03,101.0
807.09,101.0
807.16,122.0
807.22,109.0
807.28,116.0
807.34,114.0
807.41,127.0
807.47,108.0
807.53,112.0
807.6,106.0
807.66,112.0
807.72,112.0
807.79,89.0
807.85,114.0
807.91,122.0
807.97,112.0
808.04,126.0
808.1,118.0
808.16,108.0
808.23,131.0
808.29,146.0
808.35,140.0
808.42,136.0
808.48,140.0
808.54,134.0
808.6,114.0
808.67,114.0
808.73,114.0
808.79,123.0
808.86,135.0
808.92,144.0
808.98,131.0
809.05,141.0
809.11,148.0
809.17,158.0
809.23,157.0
809.3,179.0
809.36,167.0
809.42,148.0
809.49,170.0
809.55,194.0
809.61,166.0
809.68,149.0
809.74,156.0
809.8,175.0
809.86,170.0
809.93,159.0
809.99,167.0
810.05,166.0
810.12,181.0
810.18,185.0
810.24,171.0
810.31,177.0
810.37,178.0
810.43,177.0
810.49,172.0
810.56,173.0
810.62,164.0
810.68,184.0
810.75,181.0
810.81,188.0
810.87,197.0
810.94,194.0
811.0,186.0
811.06,195.0
811.12,194.0
811.19,174.0
811.25,187.0
811.31,184.0
811.38,176.0
811.44,177.0
811.5,180.0
811.57,189.0
811.63,172.0
811.69,178.0
811.75,188.0
811.82,186.0
811.88,180.0
811.94,191.0
812.01,188.0
812.07,169.0
812.13,191.0
812.2,170.0
812.26,180.0
812.32,170.0
812.38,167.0
812.45,167.0
812.51,168.0
812.57,147.0
812.64,146.0
812.7,143.0
812.76,155.0
812.83,140.0
812.89,128.0
812.95,121.0
813.01,140.0
813.08,125.0
813.14,116.0
813.2,120.0
813.27,125.0
813.33,140.0
813.39,154.0
813.46,132.0
813.52,119.0
813.58,95.0
813.64,101.0
813.71,92.0
813.77,100.0
813.83,103.0
813.9,92.0
813.96,79.0
814.02,77.0
814.09,89.0
814.15,96.0
814.21,85.0
814.27,86.0
814.34,76.0
814.4,79.0
814.46,91.0
814.53,68.0
814.59,74.0
814.65,79.0
814.72,87.0
814.78,98.0
814.84,78.0
814.9,78.0
814.97,65.0
815.03,48.0
815.09,59.0
815.16,59.0
815.22,50.0
815.28,63.0
815.35,79.0
815.41,68.0
815.47,70.0
815.53,65.0
815.6,70.0
815.66,89.0
815.72,87.0
815.79,76.0
815.85,86.0
815.91,77.0
815.98,92.0
816.04,107.0
816.1,108.0
816.16,119.0
816.23,107.0
816.29,112.0
816.35,109.0
816.42,102.0
816.48,118.0
816.54,106.0
816.61,114.0
816.67,113.0
816.73,117.0
816.79,104.0
816.86,110.0
816.92,107.0
816.98,108.0
817.05,103.0
817.11,102.0
817.17,123.0
817.24,104.0
817.3,109.0
817.36,112.0
817.42,103.0
817.49,88.0
817.55,116.0
817.61,115.0
817.68,115.0
817.74,118.0
817.8,121.0
817.87,114.0
817.93,134.0
817.99,125.0
818.05,109.0
818.12,116.0
818.18,115.0
818.24,119.0
818.31,112.0
818.37,109.0
818.43,131.0
818.5,144.0
818.56,123.0
818.62,124.0
818.68,118.0
818.75,129.0
818.81,126.0
818.87,112.0
818.94,115.0
819.0,110.0
819.06,98.0
819.13,89.0
819.19,93.0
819.25,125.0
819.31,99.0
819.38,101.0
819.44,110.0
819.5,131.0
819.57,125.0
819.63,133.0
819.69,136.0
819.76,135.0
819.82,127.0
819.88,150.0
819.94,137.0
820.01,122.0
820.07,136.0
820.13,134.0
820.2,140.0
820.26,138.0
820.32,124.0
820.39,120.0
820.45,123.0
820.51,131.0
820.57,122.0
820.64,121.0
820.7,145.0
820.76,134.0
820.83,108.0
820.89,122.0
820.95,114.0
821.02,130.0
821.08,122.0
821.14,121.0
821.2,136.0
821.27,132.0
821.33,129.0
821.39,125.0
821.46,121.0
821.52,115.0
821.58,125.0
821.65,114.0
821.71,98.0
821.77,94.0
821.83,112.0
821.9,115.0
821.96,96.0
822.02,91.0
822.09,98.0
822.15,93.0
822.21,92.0
822.28,92.0
822.34,83.0
822.4,57.0
822.46,73.0
822.53,81.0
822.59,70.0
822.65,56.0
822.72,80.0
822.78,74.0
822.84,56.0
822.91,65.0
822.97,63.0
823.03,68.0
823.09,51.0
823.16,51.0
823.22,56.0
823.28,36.0
823.35,44.0
823.41,38.0
823.47,54.0
823.54,66.0
823.6,69.0
823.66,55.0
823.72,36.0
823.79,38.0
823.85,32.0
823.91,18.0
823.98,19.0
824.04,23.0
824.1,35.0
824.17,31.0
824.23,26.0
824.29,13.0
824.35,9.0
824.42,3.0
824.48,16.0
824.54,16.0
824.61,21.0
824.67,31.0
824.73,24.0
824.8,39.0
824.86,38.0
824.92,39.0
824.98,43.0
825.05,38.0
825.11,59.0
825.17,60.0
825.24,74.0
825.3,71.0
825.36,81.0
825.43,87.0
825.49,67.0
825.55,68.0
825.61,71.0
825.68,62.0
825.74,66.0
825.8,53.0
825.87,54.0
825.93,55.0
825.99,62.0
826.06,64.0
826.12,51.0
826.18,49.0
826.24,78.0
826.31,78.0
826.37,71.0
826.43,66.0
826.5,79.0
826.56,55.0
826.62,66.0
826.69,80.0
826.75,77.0
826.81,81.0
826.87,53.0
826.94,82.0
827.0,86.0
827.06,58.0
827.13,63.0
827.19,85.0
827.25,59.0
827.32,63.0
827.38,86.0
827.44,65.0
827.5,99.0
827.57,85.0
827.63,82.0
827.69,100.0
827.76,81.0
827.82,87.0
827.88,90.0
827.95,104.0
828.01,97.0
828.07,112.0
828.13,111.0
828.2,102.0
828.26,106.0
828.32,88.0
828.39,107.0
828.45,95.0
828.51,101.0
828.58,104.0
828.64,98.0
828.7,93.0
828.76,92.0
828.83,107.0
828.89,95.0
828.95,122.0
829.02,126.0
829.08,112.0
829.14,109.0
829.21,89.0
829.27,95.0
829.33,98.0
829.39,96.0
829.46,84.0
829.52,85.0
829.58,103.0
829.65,95.0
829.71,64.0
829.77,76.0
829.84,89.0
829.9,74.0
829.96,70.0
830.02,78.0
830.09,101.0
830.15,81.0
830.21,68.0
830.28,88.0
830.34,87.0
830.4,88.0
830.47,102.0
830.53,106.0
830.59,99.0
830.65,86.0
830.72,102.0
830.78,109.0
830.84,114.0
830.91,114.0
830.97,132.0
831.03,129.0
831.1,126.0
831.16,130.0
831.22,135.0
831.28,135.0
831.35,142.0
831.41,147.0
831.47,127.0
831.54,122.0
831.6,120.0
831.66,141.0
831.73,142.0
831.79,142.0
831.85,148.0
831.91,134.0
831.98,128.0
832.04,112.0
832.1,120.0
832.17,131.0
832.23,124.0
832.29,126.0
832.36,121.0
832.42,130.0
832.48,151.0
832.54,125.0
832.61,146.0
832.67,124.0
832.73,133.0
832.8,130.0
832.86,140.0
832.92,136.0
832.99,120.0
833.05,144.0
833.11,143.0
833.17,157.0
833.24,148.0
833.3,170.0
833.36,170.0
833.43,172.0
833.49,147.0
833.55,165.0
833.62,184.0
833.68,188.0
833.74,188.0
833.8,170.0
833.87,185.0
833.93,187.0
833.99,180.0
834.06,185.0
834.12,197.0
834.18,191.0
834.25,191.0
834.31,187.0
834.37,182.0
834.43,184.0
834.5,189.0
834.56,177.0
834.62,193.0
834.69,183.0
834.75,184.0
834.81,165.0
834.88,161.0
834.94,159.0
835.0,158.0
835.06,174.0
835.13,173.0
835.19,168.0
835.25,170.0
835.32,169.0
835.38,181.0
835.44,184.0
835.51,180.0
835.57,186.0
835.63,181.0
835.69,189.0
835.76,187.0
835.82,203.0
835.88,189.0
835.95,217.0
836.01,211.0
836.07,200.0
836.14,227.0
836.2,210.0
836.26,217.0
836.32,226.0
836.39,219.0
836.45,223.0
836.51,232.0
836.58,241.0
836.64,220.0
836.7,222.0
836.77,225.0
836.83,223.0
836.89,233.0
836.95,239.0
837.02,227.0
837.08,217.0
837.14,210.0
837.21,224.0
837.27,239.0
837.33,254.0
837.4,240.0
837.46,245.0
837.52,241.0
837.58,229.0
837.65,242.0
837.71,237.0
837.77,228.0
837.84,245.0
837.9,250.0
837.96,240.0
838.03,240.0
838.09,223.0
838.15,234.0
838.21,230.0
838.28,236.0
838.34,206.0
838.4,216.0
838.47,210.0
838.53,217.0
838.59,221.0
838.66,226.0
838.72,235.0
838.78,228.0
838.84,221.0
838.91,217.0
838.97,222.0
839.03,229.0
839.1,205.0
839.16,224.0
839.22,210.0
839.29,209.0
839.35,190.0
839.41,175.0
839.47,177.0
839.54,188.0
839.6,188.0
839.66,189.0
839.73,177.0
839.79,192.0
839.85,185.0
839.92,180.0
839.98,189.0
840.04,182.0
840.1,180.0
840.17,157.0
840.23,164.0
840.29,165.0
840.36,159.0
840.42,139.0
840.48,142.0
840.55,155.0
840.61,160.0
840.67,154.0
840.73,170.0
840.8,151.0
840.86,140.0
840.92,133.0
840.99,139.0
841.05,141.0
841.11,114.0
841.18,125.0
841.24,128.0
841.3,148.0
841.36,129.0
841.43,107.0
841.49,145.0
841.55,130.0
841.62,143.0
841.68,139.0
841.74,148.0
841.81,151.0
841.87,140.0
841.93,121.0
841.99,123.0
842.06,134.0
842.12,141.0
842.18,124.0
842.25,130.0
842.31,146.0
842.37,136.0
842.44,151.0
842.5,143.0
842.56,143.0
842.62,175.0
842.69,147.0
842.75,135.0
842.81,151.0
842.88,155.0
842.94,147.0
843.0,150.0
843.07,165.0
843.13,151.0
843.19,141.0
843.25,165.0
843.32,154.0
843.38,142.0
843.44,143.0
843.51,140.0
843.57,162.0
843.63,164.0
843.7,163.0
843.76,161.0
843.82,162.0
843.88,151.0
843.95,147.0
844.01,153.0
844.07,142.0
844.14,150.0
844.2,164.0
844.26,158.0
844.33,167.0
844.39,153.0
844.45,145.0
844.51,117.0
844.58,132.0
844.64,148.0
844.7,154.0
844.77,150.0
844.83,134.0
844.89,140.0
844.96,125.0
845.02,142.0
845.08,138.0
845.14,150.0
845.21,135.0
845.27,131.0
845.33,131.0
845.4,109.0
845.46,136.0
845.52,103.0
845.59,101.0
845.65,103.0
845.71,102.0
845.77,118.0
845.84,80.0
845.9,101.0
845.96,99.0
846.03,91.0
846.09,99.0
846.15,97.0
846.22,88.0
846.28,93.0
846.34,99.0
846.4,111.0
846.47,122.0
846.53,105.0
846.59,119.0
846.66,121.0
846.72,122.0
846.78,123.0
846.85,117.0
846.91,100.0
846.97,101.0
847.03,111.0
847.1,112.0
847.16,91.0
847.22,94.0
847.29,101.0
847.35,96.0
847.41,100.0
847.48,82.0
847.54,75.0
847.6,86.0
847.66,70.0
847.73,60.0
847.79,74.0
847.85,76.0
847.92,87.0
847.98,65.0
848.04,89.0
848.11,73.0
848.17,62.0
848.23,84.0
848.29,82.0
848.36,71.0
848.42,79.0
848.48,90.0
848.55,78.0
848.61,59.0
848.67,69.0
848.74,88.0
848.8,81.0
848.86,90.0
848.92,79.0
848.99,90.0
849.05,93.0
849.11,82.0
849.18,77.0
849.24,68.0
849.3,76.0
849.37,63.0
849.43,62.0
849.49,93.0
849.55,68.0
849.62,78.0
849.68,74.0
849.74,82.0
849.81,103.0
849.87,87.0
849.93,96.0
850.0,88.0
850.06,97.0
850.12,90.0
850.18,110.0
850.25,116.0
850.31,103.0
850.37,115.0
850.44,103.0
850.5,110.0
850.56,104.0
850.63,125.0
850.69,132.0
850.75,139.0
850.81,151.0
850.88,151.0
850.94,146.0
851.0,151.0
851.07,149.0
851.13,154.0
851.19,162.0
851.26,150.0
851.32,149.0
851.38,154.0
851.44,144.0
851.51,149.0
851.57,169.0
851.63,166.0
851.7,158.0
851.76,157.0
851.82,174.0
851.89,176.0
851.95,183.0
852.01,181.0
852.07,197.0
852.14,189.0
852.2,174.0
852.26,179.0
852.33,184.0
852.39,167.0
852.45,187.0
852.52,190.0
852.58,192.0
852.64,200.0
852.7,203.0
852.77,198.0
852.83,189.0
852.89,199.0
852.96,186.0
853.02,199.0
853.08,208.0
853.15,192.0
853.21,194.0
853.27,183.0
853.33,178.0
853.4,183.0
853.46,165.0
853.52,171.0
853.59,142.0
853.65,165.0
853.71,173.0
853.78,166.0
853.84,150.0
853.9,149.0
853.96,162.0
854.03,169.0
854.09,163.0
854.15,161.0
854.22,162.0
854.28,157.0
854.34,164.0
854.41,182.0
854.47,194.0
854.53,184.0
854.59,178.0
854.66,172.0
854.72,196.0
854.78,200.0
854.85,194.0
854.91,202.0
854.97,174.0
855.04,181.0
855.1,184.0
855.16,174.0
855.22,183.0
855.29,181.0
855.35,178.0
855.41,161.0
855.48,149.0
855.54,180.0
855.6,175.0
855.67,161.0
855.73,189.0
855.79,191.0
855.85,184.0
855.92,161.0
855.98,180.0
856.04,186.0
856.11,179.0
856.17,175.0
856.23,190.0
856.3,176.0
856.36,158.0
856.42,141.0
856.48,146.0
856.55,163.0
856.61,167.0
856.67,142.0
856.74,143.0
856.8,125.0
856.86,147.0
856.93,148.0
856.99,147.0
857.05,128.0
857.11,131.0
857.18,142.0
857.24,125.0
857.3,123.0
857.37,137.0
857.43,153.0
857.49,162.0
857.56,159.0
857.62,147.0
857.68,133.0
857.74,131.0
857.81,140.0
857.87,147.0
857.93,156.0
858.0,139.0
858.06,122.0
858.12,118.0
858.19,119.0
858.25,93.0
858.31,121.0
858.37,123.0
858.44,122.0
858.5,136.0
858.56,132.0
858.63,144.0
858.69,127.0
858.75,150.0
858.82,144.0
858.88,151.0
858.94,150.0
859.0,158.0
859.07,163.0
859.13,144.0
859.19,158.0
859.26,164.0
859.32,159.0
859.38,128.0
859.45,147.0
859.51,161.0
859.57,148.0
859.63,133.0
859.7,136.0
859.76,126.0
859.82,107.0
859.89,138.0
859.95,125.0
860.01,116.0
860.08,106.0
860.14,115.0
860.2,107.0
860.26,108.0
860.33,97.0
860.39,105.0
860.45,100.0
860.52,111.0
860.58,118.0
860.64,120.0
860.71,141.0
860.77,130.0
860.83,133.0
860.89,129.0
860.96,130.0
861.02,158.0
861.08,168.0
861.15,154.0
861.21,135.0
861.27,145.0
861.34,140.0
861.4,145.0
861.46,155.0
861.52,154.0
861.59,157.0
861.65,166.0
861.71,143.0
861.78,159.0
861.84,152.0
861.9,142.0
861.97,136.0
862.03,149.0
862.09,144.0
862.15,145.0
862.22,155.0
862.28,156.0
862.34,167.0
862.41,150.0
862.47,125.0
862.53,150.0
862.6,158.0
862.66,179.0
862.72,167.0
862.78,151.0
862.85,160.0
862.91,164.0
862.97,155.0
863.04,134.0
863.1,128.0
863.16,128.0
863.23,133.0
863.29,162.0
863.35,158.0
863.41,156.0
863.48,169.0
863.54,162.0
863.6,166.0
863.67,164.0
863.73,145.0
863.79,153.0
863.86,165.0
863.92,150.0
863.98,152.0
864.04,153.0
864.11,166.0
864.17,144.0
864.23,154.0
864.3,147.0
864.36,146.0
864.42,156.0
864.49,126.0
864.55,125.0
864.61,130.0
864.67,116.0
864.74,119.0
864.8,114.0
864.86,131.0
864.93,121.0
864.99,128.0
865.05,125.0
865.12,105.0
865.18,133.0
865.24,120.0
865.3,120.0
865.37,130.0
865.43,116.0
865.49,117.0
865.56,106.0
865.62,107.0
865.68,114.0
865.75,129.0
865.81,116.0
865.87,100.0
865.93,120.0
866.0,129.0
866.06,125.0
866.12,122.0
866.19,133.0
866.25,140.0
866.31,150.0
866.38,145.0
866.44,127.0
866.5,147.0
866.56,143.0
866.63,143.0
866.69,150.0
866.75,129.0
866.82,119.0
866.88,131.0
866.94,129.0
867.01,127.0
867.07,147.0
867.13,143.0
867.19,143.0
867.26,139.0
867.32,147.0
867.38,144.0
867.45,159.0
867.51,167.0
867.57,159.0
867.64,157.0
867.7,142.0
867.76,149.0
867.82,134.0
867.89,141.0
867.95,137.0
868.01,139.0
868.08,137.0
868.14,150.0
868.2,147.0
868.27,133.0
868.33,131.0
868.39,136.0
868.45,140.0
868.52,148.0
868.58,132.0
868.64,133.0
868.71,137.0
868.77,142.0
868.83,144.0
868.9,132.0
868.96,112.0
869.02,124.0
869.08,134.0
869.15,144.0
869.21,132.0
869.27,119.0
869.34,131.0
869.4,131.0
869.46,155.0
869.53,128.0
869.59,146.0
869.65,148.0
869.71,145.0
869.78,140.0
869.84,155.0
869.9,144.0
869.97,139.0
870.03,147.0
870.09,121.0
870.16,127.0
870.22,126.0
870.28,121.0
870.34,129.0
870.41,103.0
870.47,117.0
870.53,138.0
870.6,134.0
870.66,121.0
870.72,137.0
870.79,128.0
870.85,125.0
870.91,126.0
870.97,124.0
871.04,123.0
871.1,123.0
871.16,129.0
871.23,121.0
871.29,114.0
871.35,114.0
871.42,126.0
871.48,115.0
871.54,96.0
871.6,81.0
871.67,130.0
871.73,126.0
871.79,118.0
871.86,131.0
871.92,131.0
871.98,129.0
872.05,117.0
872.11,120.0
872.17,123.0
872.23,129.0
872.3,104.0
872.36,105.0
872.42,99.0
872.49,100.0
872.55,117.0
872.61,107.0
872.68,99.0
872.74,110.0
872.8,115.0
872.86,124.0
872.93,107.0
872.99,106.0
873.05,118.0
873.12,105.0
873.18,101.0
873.24,105.0
873.31,106.0
873.37,104.0
873.43,107.0
873.49,83.0
873.56,89.0
873.62,81.0
873.68,95.0
873.75,90.0
873.81,74.0
873.87,73.0
873.94,54.0
874.0,66.0
874.06,69.0
874.12,79.0
874.19,60.0
874.25,58.0
874.31,78.0
874.38,66.0
874.44,65.0
874.5,58.0
874.57,40.0
874.63,52.0
874.69,64.0
874.75,68.0
874.82,57.0
874.88,57.0
874.94,61.0
875.01,79.0
875.07,73.0
875.13,72.0
875.2,56.0
875.26,36.0
875.32,46.0
875.38,60.0
875.45,52.0
875.51,55.0
875.57,43.0
875.64,22.0
875.7,37.0
875.76,42.0
875.83,66.0
875.89,87.0
875.95,68.0
876.01,54.0
876.08,51.0
876.14,48.0
876.2,46.0
876.27,32.0
876.33,44.0
876.39,51.0
876.46,38.0
876.52,40.0
876.58,41.0
876.64,39.0
876.71,25.0
876.77,26.0
876.83,19.0
876.9,38.0
876.96,37.0
877.02,24.0
877.09,26.0
877.15,22.0
877.21,34.0
877.27,43.0
877.34,19.0
877.4,19.0
877.46,41.0
877.53,41.0
877.59,48.0
877.65,55.0
877.72,52.0
877.78,39.0
877.84,36.0
877.9,33.0
877.97,26.0
878.03,55.0
878.09,55.0
878.16,60.0
878.22,52.0
878.28,66.0
878.35,60.0
878.41,55.0
878.47,84.0
878.53,78.0
878.6,79.0
878.66,81.0
878.72,69.0
878.79,79.0
878.85,88.0
878.91,56.0
878.98,51.0
879.04,63.0
879.1,74.0
879.16,74.0
879.23,61.0
879.29,55.0
879.35,52.0
879.42,38.0
879.48,57.0
879.54,44.0
879.61,42.0
879.67,52.0
879.73,30.0
879.79,40.0
879.86,27.0
879.92,35.0
879.98,27.0
880.05,13.0
880.11,26.0
880.17,35.0
880.24,33.0
880.3,35.0
880.36,41.0
880.42,27.0
880.49,29.0
880.55,30.0
880.61,36.0
880.68,62.0
880.74,60.0
880.8,47.0
880.87,32.0
880.93,54.0
880.99,59.0
881.05,44.0
881.12,66.0
881.18,56.0
881.24,49.0
881.31,54.0
881.37,63.0
881.43,54.0
881.5,50.0
881.56,48.0
881.62,48.0
881.68,53.0
881.75,37.0
881.81,54.0
881.87,40.0
881.94,35.0
882.0,47.0
882.06,57.0
882.13,63.0
882.19,28.0
882.25,41.0
882.31,65.0
882.38,50.0
882.44,41.0
882.5,40.0
882.57,43.0
882.63,37.0
882.69,41.0
882.76,54.0
882.82,48.0
882.88,63.0
882.94,56.0
883.01,75.0
883.07,77.0
883.13,55.0
883.2,65.0
883.26,100.0
883.32,96.0
883.39,91.0
883.45,82.0
883.51,92.0
883.57,90.0
883.64,107.0
883.7,114.0
883.76,90.0
883.83,87.0
883.89,89.0
883.95,92.0
884.02,95.0
884.08,118.0
884.14,118.0
884.2,118.0
884.27,122.0
884.33,118.0
884.39,114.0
884.46,118.0
884.52,134.0
884.58,140.0
884.65,125.0
884.71,119.0
884.77,122.0
884.83,117.0
884.9,119.0
884.96,133.0
885.02,129.0
885.09,146.0
885.15,139.0
885.21,132.0
885.28,149.0
885.34,143.0
885.4,134.0
885.46,125.0
885.53,133.0
885.59,123.0
885.65,128.0
885.72,151.0
885.78,132.0
885.84,145.0
885.91,172.0
885.97,154.0
886.03,166.0
886.09,164.0
886.16,145.0
886.22,151.0
886.28,155.0
886.35,153.0
886.41,192.0
886.47,174.0
886.54,169.0
886.6,193.0
886.66,182.0
886.72,178.0
886.79,179.0
886.85,177.0
886.91,184.0
886.98,182.0
887.04,159.0
887.1,175.0
887.17,179.0
887.23,196.0
887.29,178.0
887.35,169.0
887.42,190.0
887.48,214.0
887.54,203.0
887.61,181.0
887.67,197.0
887.73,193.0
887.8,209.0
887.86,214.0
887.92,216.0
887.98,217.0
888.05,219.0
888.11,224.0
888.17,224.0
888.24,221.0
888.3,234.0
888.36,232.0
888.43,238.0
888.49,249.0
888.55,231.0
888.61,240.0
888.68,219.0
888.74,239.0
888.8,234.0
888.87,238.0
888.93,249.0
888.99,223.0
889.06,208.0
889.12,220.0
889.18,228.0
889.24,233.0
889.31,233.0
889.37,232.0
889.43,237.0
889.5,241.0
889.56,249.0
889.62,261.0
889.69,242.0
889.75,227.0
889.81,242.0
889.87,227.0
889.94,250.0
890.0,246.0
890.06,248.0
890.13,244.0
890.19,254.0
890.25,242.0
890.32,241.0
890.38,260.0
890.44,229.0
890.5,219.0
890.57,240.0
890.63,225.0
890.69,215.0
890.76,202.0
890.82,214.0
890.88,224.0
890.95,233.0
891.01,228.0
891.07,229.0
891.13,250.0
891.2,226.0
891.26,256.0
891.32,227.0
891.39,206.0
891.45,224.0
891.51,214.0
891.58,229.0
891.64,212.0
891.7,225.0
891.76,243.0
891.83,236.0
891.89,225.0
891.95,230.0
892.02,243.0
892.08,254.0
892.14,259.0
892.21,243.0
892.27,260.0
892.33,238.0
892.39,231.0
892.46,240.0
892.52,257.0
892.58,231.0
892.65,232.0
892.71,246.0
892.77,204.0
892.84,198.0
892.9,221.0
892.96,217.0
893.02,216.0
893.09,208.0
893.15,220.0
893.21,211.0
893.28,199.0
893.34,209.0
893.4,218.0
893.47,218.0
893.53,219.0
893.59,220.0
893.65,224.0
893.72,235.0
893.78,213.0
893.84,227.0
893.91,210.0
893.97,217.0
894.03,210.0
894.1,203.0
894.16,205.0
894.22,219.0
894.28,226.0
894.35,214.0
894.41,198.0
894.47,200.0
894.54,214.0
894.6,199.0
894.66,198.0
894.73,211.0
894.79,203.0
894.85,207.0
894.91,196.0
894.98,184.0
895.04,200.0
895.1,206.0
895.17,183.0
895.23,190.0
895.29,189.0
895.36,182.0
895.42,164.0
895.48,202.0
895.54,174.0
895.61,166.0
895.67,175.0
895.73,187.0
895.8,214.0
895.86,205.0
895.92,198.0
895.99,180.0
896.05,173.0
896.11,175.0
896.17,171.0
896.24,180.0
896.3,179.0
896.36,153.0
896.43,158.0
896.49,176.0
896.55,170.0
896.62,180.0
896.68,159.0
896.74,149.0
896.8,150.0
896.87,150.0
896.93,148.0
896.99,155.0
897.06,146.0
897.12,160.0
897.18,144.0
897.25,138.0
897.31,137.0
897.37,138.0
897.43,145.0
897.5,148.0
897.56,129.0
897.62,130.0
897.69,120.0
897.75,112.0
897.81,117.0
897.88,96.0
897.94,81.0
898.0,84.0
898.06,89.0
898.13,69.0
898.19,73.0
898.25,63.0
898.32,66.0
898.38,73.0
898.44,56.0
898.51,75.0
898.57,54.0
898.63,62.0
898.69,79.0
898.76,71.0
898.82,65.0
898.88,58.0
898.95,56.0
899.01,52.0
899.07,71.0
899.14,57.0
899.2,72.0
899.26,84.0
899.32,79.0
899.39,74.0
899.45,72.0
899.51,60.0
899.58,45.0
899.64,74.0
899.7,86.0
899.77,58.0
899.83,49.0
899.89,64.0
899.95,54.0
900.02,68.0
900.08,82.0
900.14,73.0
900.21,79.0
900.27,77.0
900.33,63.0
900.4,80.0
900.46,65.0
900.52,58.0
900.58,69.0
900.65,74.0
900.71,59.0
900.77,54.0
900.84,53.0
900.9,67.0
900.96,46.0
901.03,54.0
901.09,46.0
901.15,39.0
901.21,29.0
901.28,22.0
901.34,40.0
901.4,52.0
901.47,37.0
901.53,48.0
901.59,38.0
901.66,45.0
901.72,45.0
901.78,57.0
901.84,43.0
901.91,46.0
901.97,48.0
902.03,41.0
902.1,45.0
902.16,62.0
902.22,60.0
902.29,81.0
902.35,68.0
902.41,57.0
902.47,56.0
902.54,70.0
902.6,92.0
902.66,79.0
902.73,83.0
902.79,109.0
902.85,117.0
902.92,98.0
902.98,84.0
903.04,90.0
903.1,106.0
903.17,106.0
903.23,106.0
903.29,93.0
903.36,110.0
903.42,109.0
903.48,96.0
903.55,106.0
903.61,95.0
903.67,107.0
903.73,109.0
903.8,89.0
903.86,87.0
903.92,92.0
903.99,121.0
904.05,106.0
904.11,100.0
904.18,88.0
904.24,109.0
904.3,104.0
904.36,101.0
904.43,91.0
904.49,100.0
904.55,100.0
904.62,81.0
904.68,95.0
904.74,85.0
904.81,99.0
904.87,96.0
904.93,94.0
904.99,119.0
905.06,109.0
905.12,97.0
905.18,102.0
905.25,128.0
905.31,108.0
905.37,110.0
905.44,119.0
905.5,121.0
905.56,117.0
905.62,128.0
905.69,118.0
905.75,142.0
905.81,147.0
905.88,119.0
905.94,146.0
906.0,140.0
906.07,108.0
906.13,129.0
906.19,139.0
906.25,142.0
906.32,141.0
906.38,134.0
906.44,153.0
906.51,144.0
906.57,131.0
906.63,157.0
906.7,147.0
906.76,144.0
906.82,158.0
906.88,115.0
906.95,124.0
907.01,119.0
907.07,120.0
907.14,129.0
907.2,111.0
907.26,126.0
907.33,128.0
907.39,147.0
907.45,120.0
907.51,114.0
907.58,123.0
907.64,113.0
907.7,129.0
907.77,122.0
907.83,117.0
907.89,146.0
907.96,140.0
908.02,133.0
908.08,133.0
908.14,132.0
908.21,129.0
908.27,103.0
908.33,109.0
908.4,103.0
908.46,87.0
908.52,112.0
908.59,109.0
908.65,109.0
908.71,107.0
908.77,117.0
908.84,122.0
908.9,122.0
908.96,140.0
909.03,109.0
909.09,120.0
909.15,128.0
909.22,107.0
909.28,95.0
909.34,104.0
909.4,134.0
909.47,132.0
909.53,140.0
909.59,144.0
909.66,171.0
909.72,176.0
909.78,174.0
909.85,161.0
909.91,160.0
909.97,171.0
910.03,162.0
910.1,147.0
910.16,158.0
910.22,152.0
910.29,158.0
910.35,146.0
910.41,166.0
910.48,175.0
910.54,170.0
910.6,170.0
910.66,189.0
910.73,177.0
910.79,157.0
910.85,156.0
910.92,173.0
910.98,161.0
911.04,174.0
911.11,167.0
911.17,164.0
911.23,161.0
911.29,151.0
911.36,152.0
911.42,162.0
911.48,158.0
911.55,170.0
911.61,174.0
911.67,167.0
911.74,164.0
911.8,186.0
911.86,181.0
911.92,165.0
911.99,191.0
912.05,179.0
912.11,189.0
912.18,198.0
912.24,198.0
912.3,210.0
912.37,179.0
912.43,184.0
912.49,199.0
912.55,183.0
912.62,193.0
912.68,198.0
912.74,190.0
912.81,171.0
912.87,176.0
912.93,151.0
913.0,154.0
913.06,165.0
913.12,167.0
913.18,154.0
913.25,155.0
913.31,150.0
913.37,162.0
913.44,178.0
913.5,176.0
913.56,170.0
913.63,161.0
913.69,160.0
913.75,172.0
913.81,172.0
913.88,163.0
913.94,164.0
914.0,157.0
914.07,178.0
914.13,167.0
914.19,174.0
914.26,178.0
914.32,154.0
914.38,149.0
914.44,139.0
914.51,153.0
914.57,148.0
914.63,158.0
914.7,142.0
914.76,137.0
914.82,132.0
914.89,147.0
914.95,134.0
915.01,141.0
915.07,158.0
915.14,140.0
915.2,151.0
915.26,140.0
915.33,125.0
915.39,130.0
915.45,126.0
915.52,133.0
915.58,111.0
915.64,123.0
915.7,118.0
915.77,121.0
915.83,117.0
915.89,96.0
915.96,107.0
916.02,115.0
916.08,107.0
916.15,116.0
916.21,110.0
916.27,105.0
916.33,93.0
916.4,101.0
916.46,97.0
916.52,113.0
916.59,117.0
916.65,129.0
916.71,123.0
916.78,123.0
916.84,129.0
916.9,119.0
916.96,130.0
917.03,114.0
917.09,104.0
917.15,117.0
917.22,115.0
917.28,107.0
917.34,94.0
917.41,94.0
917.47,98.0
917.53,112.0
917.59,118.0
917.66,122.0
917.72,117.0
917.78,104.0
917.85,106.0
917.91,115.0
917.97,107.0
918.04,117.0
918.1,129.0
918.16,117.0
918.22,123.0
918.29,98.0
918.35,98.0
918.41,107.0
918.48,108.0
918.54,125.0
918.6,115.0
918.67,104.0
918.73,138.0
918.79,125.0
918.85,125.0
918.92,143.0
918.98,104.0
919.04,140.0
919.11,125.0
919.17,127.0
919.23,119.0
919.3,121.0
919.36,147.0
919.42,142.0
919.48,139.0
919.55,119.0
919.61,151.0
919.67,164.0
919.74,161.0
919.8,170.0
919.86,173.0
919.93,180.0
919.99,167.0
920.05,169.0
920.11,187.0
920.18,177.0
920.24,152.0
920.3,151.0
920.37,163.0
920.43,145.0
920.49,141.0
920.56,153.0
920.62,175.0
920.68,147.0
920.74,165.0
920.81,146.0
920.87,149.0
920.93,155.0
921.0,148.0
921.06,164.0
921.12,141.0
921.19,153.0
921.25,154.0
921.31,163.0
921.37,140.0
921.44,133.0
921.5,151.0
921.56,137.0
921.63,150.0
921.69,146.0
921.75,147.0
921.82,154.0
921.88,147.0
921.94,173.0
922.0,189.0
922.07,189.0
922.13,161.0
922.19,190.0
922.26,180.0
922.32,179.0
922.38,175.0
922.45,161.0
922.51,167.0
922.57,167.0
922.63,193.0
922.7,177.0
922.76,149.0
922.82,141.0
922.89,164.0
922.95,152.0
923.01,158.0
923.08,159.0
923.14,142.0
923.2,150.0
923.26,141.0
923.33,144.0
923.39,145.0
923.45,127.0
923.52,151.0
923.58,114.0
923.64,111.0
923.71,109.0
923.77,112.0
923.83,100.0
923.89,92.0
923.96,112.0
924.02,106.0
924.08,92.0
924.15,88.0
924.21,94.0
924.27,98.0
924.34,103.0
924.4,96.0
924.46,76.0
924.52,67.0
924.59,70.0
924.65,77.0
924.71,86.0
924.78,53.0
924.84,66.0
924.9,77.0
924.97,52.0
925.03,73.0
925.09,73.0
925.15,81.0
925.22,79.0
925.28,66.0
925.34,68.0
925.41,77.0
925.47,75.0
925.53,83.0
925.6,73.0
925.66,74.0
925.72,85.0
925.78,85.0
925.85,79.0
925.91,76.0
925.97,67.0
926.04,57.0
926.1,58.0
926.16,66.0
926.23,71.0
926.29,56.0
926.35,57.0
926.41,61.0
926.48,38.0
926.54,57.0
926.6,52.0
926.67,39.0
926.73,38.0
926.79,31.0
926.86,49.0
926.92,52.0
926.98,47.0
927.04,56.0
927.11,52.0
927.17,74.0
927.23,73.0
927.3,65.0
927.36,83.0
927.42,73.0
927.49,72.0
927.55,71.0
927.61,69.0
927.67,74.0
927.74,71.0
927.8,69.0
927.86,84.0
927.93,67.0
927.99,76.0
928.05,104.0
928.12,107.0
928.18,92.0
928.24,99.0
928.3,103.0
928.37,101.0
928.43,112.0
928.49,110.0
928.56,99.0
928.62,102.0
928.68,97.0
928.75,112.0
928.81,102.0
928.87,114.0
928.93,115.0
929.0,101.0
929.06,112.0
929.12,101.0
929.19,119.0
929.25,106.0
929.31,94.0
929.38,76.0
929.44,74.0
929.5,100.0
929.56,102.0
929.63,81.0
929.69,77.0
929.75,76.0
929.82,73.0
929.88,67.0
929.94,71.0
930.01,56.0
930.07,65.0
930.13,55.0
930.19,65.0
930.26,71.0
930.32,78.0
930.38,72.0
930.45,58.0
930.51,94.0
930.57,70.0
930.64,83.0
930.7,84.0
930.76,63.0
930.82,80.0
930.89,51.0
930.95,63.0
931.01,62.0
931.08,56.0
931.14,77.0
931.2,66.0
931.27,63.0
931.33,74.0
931.39,82.0
931.45,86.0
931.52,74.0
931.58,71.0
931.64,81.0
931.71,67.0
931.77,60.0
931.83,49.0
931.9,52.0
931.96,72.0
932.02,83.0
932.08,80.0
932.15,74.0
932.21,89.0
932.27,92.0
932.34,84.0
932.4,58.0
932.46,76.0
932.53,68.0
932.59,61.0
932.65,59.0
932.71,24.0
932.78,55.0
932.84,53.0
932.9,52.0
932.97,56.0
933.03,52.0
933.09,45.0
933.16,44.0
933.22,76.0
933.28,61.0
933.34,69.0
933.41,75.0
933.47,70.0
933.53,64.0
933.6,79.0
933.66,84.0
933.72,68.0
933.79,85.0
933.85,77.0
933.91,78.0
933.97,74.0
934.04,95.0
934.1,85.0
934.16,98.0
934.23,107.0
934.29,90.0
934.35,103.0
934.42,92.0
934.48,85.0
934.54,88.0
934.6,85.0
934.67,83.0
934.73,76.0
934.79,93.0
934.86,103.0
934.92,117.0
934.98,111.0
935.05,119.0
935.11,121.0
935.17,106.0
935.23,124.0
935.3,120.0
935.36,112.0
935.42,121.0
935.49,118.0
935.55,132.0
935.61,144.0
935.68,128.0
935.74,124.0
935.8,129.0
935.86,106.0
935.93,114.0
935.99,103.0
936.05,105.0
936.12,96.0
936.18,104.0
936.24,106.0
936.31,114.0
936.37,134.0
936.43,126.0
936.49,134.0
936.56,122.0
936.62,127.0
936.68,118.0
936.75,123.0
936.81,136.0
936.87,142.0
936.94,167.0
937.0,167.0
937.06,151.0
937.12,163.0
937.19,176.0
937.25,173.0
937.31,171.0
937.38,176.0
937.44,182.0
937.5,164.0
937.57,180.0
937.63,180.0
937.69,162.0
937.75,181.0
937.82,177.0
937.88,193.0
937.94,212.0
938.01,190.0
938.07,199.0
938.13,184.0
938.2,171.0
938.26,188.0
938.32,200.0
938.38,206.0
938.45,188.0
938.51,181.0
938.57,180.0
938.64,169.0
938.7,190.0
938.76,179.0
938.83,167.0
938.89,165.0
938.95,164.0
939.01,163.0
939.08,172.0
939.14,169.0
939.2,188.0
939.27,158.0
939.33,159.0
939.39,177.0
939.46,157.0
939.52,180.0
939.58,170.0
939.64,169.0
939.71,181.0
939.77,187.0
939.83,202.0
939.9,208.0
939.96,195.0
940.02,185.0
940.09,186.0
940.15,183.0
940.21,174.0
940.27,169.0
940.34,188.0
940.4,200.0
940.46,173.0
940.53,167.0
940.59,169.0
940.65,174.0
940.72,182.0
940.78,206.0
940.84,197.0
940.9,197.0
940.97,194.0
941.03,173.0
941.09,202.0
941.16,214.0
941.22,227.0
941.28,230.0
941.35,233.0
941.41,220.0
941.47,208.0
941.53,213.0
941.6,228.0
941.66,238.0
941.72,220.0
941.79,223.0
941.85,199.0
941.91,209.0
941.98,199.0
942.04,186.0
942.1,202.0
942.16,195.0
942.23,202.0
942.29,213.0
942.35,214.0
942.42,226.0
942.48,215.0
942.54,210.0
942.61,207.0
942.67,195.0
942.73,181.0
942.79,214.0
942.86,201.0
942.92,186.0
942.98,200.0
943.05,206.0
943.11,215.0
943.17,195.0
943.24,204.0
943.3,210.0
943.36,221.0
943.42,210.0
943.49,220.0
943.55,252.0
943.61,239.0
943.68,244.0
943.74,239.0
943.8,259.0
943.87,280.0
943.93,258.0
943.99,258.0
944.05,266.0
944.12,260.0
944.18,271.0
944.24,280.0
944.31,264.0
944.37,270.0
944.43,283.0
944.5,276.0
944.56,277.0
944.62,294.0
944.68,283.0
944.75,285.0
944.81,290.0
944.87,281.0
944.94,288.0
945.0,268.0
945.06,274.0
945.13,261.0
945.19,259.0
945.25,261.0
945.31,259.0
945.38,270.0
945.44,277.0
945.5,246.0
945.57,260.0
945.63,268.0
945.69,264.0
945.76,247.0
945.82,255.0
945.88,272.0
945.94,258.0
946.01,255.0
946.07,222.0
946.13,228.0
946.2,221.0
946.26,228.0
946.32,219.0
946.39,219.0
946.45,215.0
946.51,227.0
946.57,222.0
946.64,212.0
946.7,224.0
946.76,236.0
946.83,219.0
946.89,233.0
946.95,255.0
947.02,236.0
947.08,233.0
947.14,228.0
947.2,236.0
947.27,239.0
947.33,239.0
947.39,215.0
947.46,225.0
947.52,232.0
947.58,235.0
947.65,233.0
947.71,253.0
947.77,239.0
947.83,219.0
947.9,210.0
947.96,205.0
948.02,210.0
948.09,216.0
948.15,222.0
948.21,200.0
948.28,219.0
948.34,211.0
948.4,195.0
948.46,205.0
948.53,210.0
948.59,195.0
948.65,174.0
948.72,164.0
948.78,164.0
948.84,173.0
948.91,170.0
948.97,172.0
949.03,148.0
949.09,176.0
949.16,180.0
949.22,158.0
949.28,159.0
949.35,169.0
949.41,173.0
949.47,163.0
949.54,174.0
949.6,173.0
949.66,156.0
949.72,156.0
949.79,163.0
949.85,160.0
949.91,163.0
949.98,171.0
950.04,167.0
950.1,155.0
950.17,165.0
950.23,159.0
950.29,152.0
950.35,145.0
950.42,138.0
950.48,120.0
950.54,132.0
950.61,171.0
950.67,184.0
950.73,162.0
950.8,169.0
950.86,153.0
950.92,153.0
950.98,147.0
951.05,150.0
951.11,143.0
951.17,138.0
951.24,122.0
951.3,120.0
951.36,115.0
951.43,126.0
951.49,152.0
951.55,144.0
951.61,132.0
951.68,130.0
951.74,114.0
951.8,116.0
951.87,114.0
951.93,129.0
951.99,104.0
952.06,108.0
952.12,115.0
952.18,96.0
952.24,90.0
952.31,125.0
952.37,112.0
952.43,106.0
952.5,115.0
952.56,111.0
952.62,118.0
952.69,97.0
952.75,102.0
952.81,103.0
952.87,103.0
952.94,112.0
953.0,97.0
953.06,87.0
953.13,93.0
953.19,113.0
953.25,87.0
953.32,92.0
953.38,109.0
953.44,99.0
953.5,103.0
953.57,96.0
953.63,92.0
953.69,86.0
953.76,98.0
953.82,95.0
953.88,97.0
953.95,137.0
954.01,133.0
954.07,96.0
954.13,108.0
954.2,114.0
954.26,118.0
954.32,103.0
954.39,100.0
954.45,118.0
954.51,96.0
954.58,90.0
954.64,97.0
954.7,88.0
954.76,91.0
954.83,94.0
954.89,104.0
954.95,113.0
955.02,101.0
955.08,120.0
955.14,123.0
955.21,115.0
955.27,104.0
955.33,131.0
955.39,112.0
955.46,107.0
955.52,95.0
955.58,119.0
955.65,120.0
955.71,120.0
955.77,123.0
955.84,110.0
955.9,99.0
955.96,115.0
956.02,133.0
956.09,112.0
956.15,133.0
956.21,133.0
956.28,126.0
956.34,118.0
956.4,109.0
956.47,85.0
956.53,79.0
956.59,86.0
956.65,87.0
956.72,98.0
956.78,107.0
956.84,93.0
956.91,95.0
956.97,101.0
957.03,94.0
957.1,116.0
957.16,95.0
957.22,93.0
957.28,78.0
957.35,82.0
957.41,86.0
957.47,57.0
957.54,63.0
957.6,51.0
957.66,63.0
957.73,61.0
957.79,48.0
957.85,25.0
957.91,11.0
957.98,25.0
958.04,44.0
958.1,36.0
958.17,29.0
958.23,20.0
958.29,6.0
958.36,15.0
958.42,36.0
958.48,45.0
958.54,48.0
958.61,55.0
958.67,53.0
958.73,46.0
958.8,48.0
958.86,52.0
958.92,30.0
958.99,16.0
959.05,45.0
959.11,52.0
959.17,55.0
959.24,29.0
959.3,55.0
959.36,55.0
959.43,43.0
959.49,62.0
959.55,58.0
959.62,63.0
959.68,63.0
959.74,46.0
959.8,51.0
959.87,68.0
959.93,75.0
959.99,84.0
960.06,87.0
960.12,76.0
960.18,53.0
960.25,58.0
960.31,54.0
960.37,73.0
960.43,77.0
960.5,67.0
960.56,73.0
960.62,78.0
960.69,85.0
960.75,88.0
960.81,99.0
960.88,93.0
960.94,92.0
961.0,95.0
961.06,94.0
961.13,127.0
961.19,134.0
961.25,111.0
961.32,131.0
961.38,117.0
961.44,150.0
961.51,142.0
961.57,129.0
961.63,161.0
961.69,176.0
961.76,145.0
961.82,156.0
961.88,136.0
961.95,156.0
962.01,160.0
962.07,148.0
962.14,144.0
962.2,128.0
962.26,125.0
962.32,129.0
962.39,117.0
962.45,122.0
962.51,147.0
962.58,117.0
962.64,123.0
962.7,132.0
962.77,132.0
962.83,136.0
962.89,125.0
962.95,130.0
963.02,117.0
963.08,150.0
963.14,134.0
963.21,138.0
963.27,145.0
963.33,116.0
963.4,127.0
963.46,114.0
963.52,131.0
963.58,131.0
963.65,110.0
963.71,101.0
963.77,117.0
963.84,112.0
963.9,121.0
963.96,113.0
964.03,110.0
964.09,104.0
964.15,103.0
964.21,104.0
964.28,113.0
964.34,117.0
964.4,127.0
964.47,129.0
964.53,113.0
964.59,123.0
964.66,103.0
964.72,99.0
964.78,95.0
964.84,111.0
964.91,121.0
964.97,122.0
965.03,123.0
965.1,125.0
965.16,128.0
965.22,142.0
965.29,139.0
965.35,138.0
965.41,136.0
965.47,131.0
965.54,134.0
965.6,156.0
965.66,126.0
965.73,126.0
965.79,140.0
965.85,155.0
965.92,137.0
965.98,125.0
966.04,131.0
966.1,156.0
966.17,134.0
966.23,129.0
966.29,135.0
966.36,142.0
966.42,142.0
966.48,130.0
966.55,122.0
966.61,112.0
966.67,131.0
966.73,132.0
966.8,127.0
966.86,126.0
966.92,123.0
966.99,118.0
967.05,125.0
967.11,102.0
967.18,124.0
967.24,137.0
967.3,155.0
967.36,144.0
967.43,137.0
967.49,129.0
967.55,147.0
967.62,136.0
967.68,150.0
967.74,139.0
967.81,137.0
967.87,150.0
967.93,156.0
967.99,147.0
968.06,136.0
968.12,136.0
968.18,147.0
968.25,140.0
968.31,153.0
968.37,159.0
968.44,156.0
968.5,148.0
968.56,148.0
968.62,129.0
968.69,123.0
968.75,135.0
968.81,149.0
968.88,169.0
968.94,173.0
969.0,169.0
969.07,156.0
969.13,153.0
969.19,149.0
969.25,158.0
969.32,176.0
969.38,180.0
969.44,170.0
969.51,173.0
969.57,172.0
969.63,191.0
969.7,194.0
969.76,189.0
969.82,184.0
969.88,172.0
969.95,182.0
970.01,189.0
970.07,178.0
970.14,176.0
970.2,180.0
970.26,173.0
970.33,181.0
970.39,190.0
970.45,190.0
970.51,186.0
970.58,179.0
970.64,199.0
970.7,199.0
970.77,199.0
970.83,213.0
970.89,214.0
970.96,206.0
971.02,203.0
971.08,196.0
971.14,181.0
971.21,198.0
971.27,182.0
971.33,183.0
971.4,169.0
971.46,147.0
971.52,150.0
971.59,169.0
971.65,181.0
971.71,158.0
971.77,162.0
971.84,123.0
971.9,134.0
971.96,147.0
972.03,139.0
972.09,136.0
972.15,155.0
972.22,147.0
972.28,140.0
972.34,153.0
972.4,155.0
972.47,147.0
972.53,129.0
972.59,144.0
972.66,139.0
972.72,145.0
972.78,147.0
972.85,144.0
972.91,150.0
972.97,142.0
973.03,125.0
973.1,137.0
973.16,145.0
973.22,136.0
973.29,157.0
973.35,140.0
973.41,126.0
973.48,132.0
973.54,137.0
973.6,130.0
973.66,120.0
973.73,124.0
973.79,107.0
973.85,103.0
973.92,103.0
973.98,115.0
974.04,98.0
974.11,84.0
974.17,94.0
974.23,81.0
974.29,74.0
974.36,80.0
974.42,108.0
974.48,93.0
974.55,85.0
974.61,103.0
974.67,82.0
974.74,74.0
974.8,67.0
974.86,46.0
974.92,72.0
974.99,60.0
975.05,66.0
975.11,103.0
975.18,73.0
975.24,77.0
975.3,78.0
975.37,79.0
975.43,60.0
975.49,73.0
975.55,61.0
975.62,81.0
975.68,87.0
975.74,71.0
975.81,55.0
975.87,56.0
975.93,81.0
976.0,70.0
976.06,76.0
976.12,57.0
976.18,59.0
976.25,59.0
976.31,45.0
976.37,77.0
976.44,45.0
976.5,70.0
976.56,96.0
976.63,79.0
976.69,76.0
976.75,86.0
976.81,85.0
976.88,79.0
976.94,73.0
977.0,74.0
977.07,67.0
977.13,69.0
977.19,72.0
977.26,78.0
977.32,70.0
977.38,75.0
977.44,76.0
977.51,85.0
977.57,67.0
977.63,74.0
977.7,76.0
977.76,63.0
977.82,72.0
977.89,69.0
977.95,68.0
978.01,60.0
978.07,85.0
978.14,99.0
978.2,104.0
978.26,85.0
978.33,73.0
978.39,90.0
978.45,92.0
978.52,71.0
978.58,71.0
978.64,88.0
978.7,93.0
978.77,95.0
978.83,108.0
978.89,103.0
978.96,78.0
979.02,66.0
979.08,68.0
979.15,85.0
979.21,93.0
979.27,74.0
979.33,76.0
979.4,100.0
979.46,84.0
979.52,81.0
979.59,97.0
979.65,101.0
979.71,103.0
979.78,71.0
979.84,83.0
979.9,94.0
979.96,86.0
980.03,70.0
980.09,75.0
980.15,71.0
980.22,101.0
980.28,85.0
980.34,85.0
980.41,99.0
980.47,77.0
980.53,64.0
980.59,73.0
980.66,76.0
980.72,78.0
980.78,85.0
980.85,83.0
980.91,84.0
980.97,74.0
981.04,67.0
981.1,86.0
981.16,88.0
981.22,96.0
981.29,96.0
981.35,98.0
981.41,101.0
981.48,99.0
981.54,104.0
981.6,90.0
981.67,101.0
981.73,105.0
981.79,98.0
981.85,94.0
981.92,102.0
981.98,99.0
982.04,93.0
982.11,96.0
982.17,91.0
982.23,96.0
982.3,103.0
982.36,103.0
982.42,76.0
982.48,78.0
982.55,75.0
982.61,56.0
982.67,49.0
982.74,58.0
982.8,58.0
982.86,75.0
982.93,66.0
982.99,76.0
983.05,74.0
983.11,78.0
983.18,74.0
983.24,43.0
983.3,47.0
983.37,20.0
983.43,27.0
983.49,48.0
983.56,30.0
983.62,23.0
983.68,39.0
983.74,54.0
983.81,51.0
983.87,48.0
983.93,44.0
984.0,59.0
984.06,61.0
984.12,68.0
984.19,63.0
984.25,55.0
984.31,62.0
984.37,73.0
984.44,67.0
984.5,88.0
984.56,76.0
984.63,85.0
984.69,87.0
984.75,84.0
984.82,82.0
984.88,87.0
984.94,89.0
985.0,81.0
985.07,84.0
985.13,103.0
985.19,93.0
985.26,101.0
985.32,96.0
985.38,88.0
985.45,96.0
985.51,92.0
985.57,99.0
985.63,96.0
985.7,106.0
985.76,107.0
985.82,107.0
985.89,110.0
985.95,110.0
986.01,122.0
986.08,117.0
986.14,114.0
986.2,104.0
986.26,121.0
986.33,121.0
986.39,128.0
986.45,110.0
986.52,109.0
986.58,112.0
986.64,114.0
986.71,117.0
986.77,107.0
986.83,121.0
986.89,120.0
986.96,115.0
987.02,122.0
987.08,125.0
987.15,133.0
987.21,109.0
987.27,124.0
987.34,100.0
987.4,130.0
987.46,136.0
987.52,131.0
987.59,131.0
987.65,133.0
987.71,126.0
987.78,131.0
987.84,131.0
987.9,145.0
987.97,136.0
988.03,155.0
988.09,154.0
988.15,142.0
988.22,151.0
988.28,138.0
988.34,158.0
988.41,151.0
988.47,140.0
988.53,132.0
988.6,124.0
988.66,129.0
988.72,130.0
988.78,123.0
988.85,119.0
988.91,137.0
988.97,138.0
989.04,161.0
989.1,147.0
989.16,151.0
989.23,165.0
989.29,162.0
989.35,151.0
989.41,145.0
989.48,142.0
989.54,147.0
989.6,143.0
989.67,137.0
989.73,141.0
989.79,153.0
989.86,156.0
989.92,166.0
989.98,169.0
990.04,155.0
990.11,154.0
990.17,155.0
990.23,147.0
990.3,140.0
990.36,147.0
990.42,152.0
990.49,165.0
990.55,158.0
990.61,164.0
990.67,153.0
990.74,137.0
990.8,140.0
990.86,143.0
990.93,131.0
990.99,142.0
991.05,140.0
991.12,131.0
991.18,144.0
991.24,151.0
991.3,158.0
991.37,153.0
991.43,146.0
991.49,155.0
991.56,147.0
991.62,150.0
991.68,161.0
991.75,171.0
991.81,180.0
991.87,192.0
991.93,170.0
992.0,188.0
992.06,197.0
992.12,199.0
992.19,191.0
992.25,196.0
992.31,210.0
992.38,203.0
992.44,191.0
992.5,180.0
992.56,180.0
992.63,191.0
992.69,184.0
992.75,196.0
992.82,205.0
992.88,195.0
992.94,194.0
993.01,200.0
993.07,192.0
993.13,195.0
993.19,205.0
993.26,199.0
993.32,207.0
993.38,213.0
993.45,191.0
993.51,201.0
993.57,206.0
993.64,194.0
993.7,187.0
993.76,186.0
993.82,202.0
993.89,190.0
993.95,180.0
994.01,183.0
994.08,208.0
994.14,191.0
994.2,178.0
994.27,202.0
994.33,218.0
994.39,207.0
994.45,191.0
994.52,194.0
994.58,212.0
994.64,202.0
994.71,214.0
994.77,184.0
994.83,195.0
994.9,201.0
994.96,197.0
995.02,180.0
995.08,182.0
995.15,192.0
995.21,187.0
995.27,191.0
995.34,210.0
995.4,217.0
995.46,224.0
995.53,221.0
995.59,216.0
995.65,233.0
995.71,225.0
995.78,217.0
995.84,219.0
995.9,213.0
995.97,220.0
996.03,202.0
996.09,231.0
996.16,224.0
996.22,221.0
996.28,224.0
996.34,214.0
996.41,220.0
996.47,205.0
996.53,186.0
996.6,189.0
996.66,180.0
996.72,209.0
996.79,199.0
996.85,204.0
996.91,197.0
996.97,203.0
997.04,212.0
997.1,203.0
997.16,220.0
997.23,215.0
997.29,220.0
997.35,195.0
997.42,195.0
997.48,197.0
997.54,205.0
997.6,197.0
997.67,197.0
997.73,202.0
997.79,166.0
997.86,166.0
997.92,170.0
997.98,161.0
998.05,196.0
998.11,180.0
998.17,161.0
998.23,150.0
998.3,161.0
998.36,163.0
998.42,178.0
998.49,184.0
998.55,164.0
998.61,165.0
998.68,150.0
998.74,150.0
998.8,150.0
998.86,151.0
998.93,142.0
998.99,136.0
999.05,139.0
999.12,173.0
999.18,140.0
999.24,151.0
999.31,159.0
999.37,143.0
999.43,147.0
999.49,166.0
999.56,158.0
999.62,143.0
999.68,155.0
999.75,141.0
999.81,135.0
999.87,143.0
