timestamp,intensity
0,-343.0
0.06,-346.0
0.13,-330.0
0.19,-328.0
0.25,-341.0
0.32,-354.0
0.38,-362.0
0.44,-354.0
0.5,-361.0
0.57,-376.0
0.63,-345.0
0.69,-352.0
0.76,-356.0
0.82,-369.0
0.88,-356.0
0.94,-364.0
1.01,-351.0
1.07,-330.0
1.13,-337.0
1.2,-319.0
1.26,-339.0
1.32,-338.0
1.39,-303.0
1.45,-306.0
1.51,-289.0
1.57,-302.0
1.64,-290.0
1.7,-287.0
1.76,-284.0
1.83,-265.0
1.89,-262.0
1.95,-258.0
2.02,-267.0
2.08,-251.0
2.14,-256.0
2.2,-262.0
2.27,-266.0
2.33,-285.0
2.39,-297.0
2.46,-281.0
2.52,-279.0
2.58,-283.0
2.65,-277.0
2.71,-284.0
2.77,-269.0
2.84,-296.0
2.9,-329.0
2.96,-331.0
3.02,-326.0
3.09,-316.0
3.15,-341.0
3.21,-349.0
3.28,-327.0
3.34,-345.0
3.4,-346.0
3.47,-321.0
3.53,-298.0
3.59,-312.0
3.65,-286.0
3.72,-280.0
3.78,-260.0
3.84,-270.0
3.91,-294.0
3.97,-282.0
4.03,-272.0
4.1,-275.0
4.16,-265.0
4.22,-262.0
4.28,-264.0
4.35,-271.0
4.41,-272.0
4.47,-273.0
4.54,-288.0
4.6,-298.0
4.66,-284.0
4.73,-290.0
4.79,-283.0
4.85,-291.0
4.91,-300.0
4.98,-293.0
5.04,-300.0
5.1,-296.0
5.17,-278.0
5.23,-262.0
5.29,-283.0
5.35,-267.0
5.42,-248.0
5.48,-259.0
5.54,-253.0
5.61,-236.0
5.67,-233.0
5.73,-234.0
5.8,-242.0
5.86,-238.0
5.92,-250.0
5.98,-237.0
6.05,-232.0
6.11,-224.0
6.17,-206.0
6.24,-191.0
6.3,-205.0
6.36,-192.0
6.43,-202.0
6.49,-221.0
6.55,-200.0
6.61,-188.0
6.68,-222.0
6.74,-221.0
6.8,-203.0
6.87,-217.0
6.93,-211.0
6.99,-200.0
7.06,-189.0
7.12,-195.0
7.18,-184.0
7.24,-192.0
7.31,-187.0
7.37,-177.0
7.43,-180.0
7.5,-183.0
7.56,-201.0
7.62,-198.0
7.69,-193.0
7.75,-208.0
7.81,-223.0
7.87,-231.0
7.94,-246.0
8.0,-233.0
8.06,-219.0
8.13,-254.0
8.19,-230.0
8.25,-252.0
8.32,-247.0
8.38,-228.0
8.44,-220.0
8.5,-216.0
8.57,-240.0
8.63,-238.0
8.69,-262.0
8.76,-246.0
8.82,-255.0
8.88,-258.0
8.95,-267.0
9.01,-256.0
9.07,-262.0
9.13,-300.0
9.2,-285.0
9.26,-269.0
9.32,-283.0
9.39,-264.0
9.45,-249.0
9.51,-260.0
9.58,-264.0
9.64,-265.0
9.7,-267.0
9.77,-258.0
9.83,-252.0
9.89,-260.0
9.95,-243.0
10.02,-257.0
10.08,-244.0
10.14,-238.0
10.21,-240.0
10.27,-242.0
10.33,-250.0
10.4,-255.0
10.46,-239.0
10.52,-247.0
10.58,-236.0
10.65,-240.0
10.71,-255.0
10.77,-226.0
10.84,-240.0
10.9,-240.0
10.96,-242.0
11.03,-245.0
11.09,-232.0
11.15,-228.0
11.21,-246.0
11.28,-252.0
11.34,-257.0
11.4,-236.0
11.47,-235.0
11.53,-238.0
11.59,-237.0
11.66,-244.0
11.72,-239.0
11.78,-234.0
11.84,-219.0
11.91,-205.0
11.97,-206.0
12.03,-197.0
12.1,-204.0
12.16,-193.0
12.22,-187.0
12.29,-215.0
12.35,-205.0
12.41,-199.0
12.47,-206.0
12.54,-203.0
12.6,-201.0
12.66,-178.0
12.73,-180.0
12.79,-180.0
12.85,-204.0
12.92,-173.0
12.98,-172.0
13.04,-166.0
13.1,-146.0
13.17,-159.0
13.23,-132.0
13.29,-160.0
13.36,-123.0
13.42,-116.0
13.48,-120.0
13.55,-118.0
13.61,-126.0
13.67,-109.0
13.73,-106.0
13.8,-118.0
13.86,-89.0
13.92,-68.0
13.99,-74.0
14.05,-91.0
14.11,-89.0
14.18,-64.0
14.24,-52.0
14.3,-46.0
14.36,-58.0
14.43,-58.0
14.49,-41.0
14.55,-55.0
14.62,-56.0
14.68,-52.0
14.74,-60.0
14.81,-49.0
14.87,-40.0
14.93,-56.0
14.99,-46.0
15.06,-68.0
15.12,-43.0
15.18,-52.0
15.25,-80.0
15.31,-65.0
15.37,-88.0
15.44,-92.0
15.5,-94.0
15.56,-110.0
15.62,-94.0
15.69,-87.0
15.75,-96.0
15.81,-99.0
15.88,-83.0
15.94,-88.0
16.0,-97.0
16.07,-108.0
16.13,-118.0
16.19,-118.0
16.25,-134.0
16.32,-126.0
16.38,-117.0
16.44,-133.0
16.51,-155.0
16.57,-156.0
16.63,-129.0
16.7,-135.0
16.76,-121.0
16.82,-147.0
16.88,-143.0
16.95,-140.0
17.01,-121.0
17.07,-108.0
17.14,-108.0
17.2,-110.0
17.26,-122.0
17.33,-129.0
17.39,-118.0
17.45,-106.0
17.51,-121.0
17.58,-121.0
17.64,-111.0
17.7,-104.0
17.77,-87.0
17.83,-87.0
17.89,-110.0
17.96,-111.0
18.02,-90.0
18.08,-117.0
18.14,-143.0
18.21,-144.0
18.27,-101.0
18.33,-83.0
18.4,-78.0
18.46,-51.0
18.52,-59.0
18.59,-50.0
18.65,-53.0
18.71,-60.0
18.77,-46.0
18.84,-36.0
18.9,-55.0
18.96,-44.0
19.03,-42.0
19.09,-44.0
19.15,-28.0
19.22,-35.0
19.28,-40.0
19.34,-50.0
19.4,-42.0
19.47,-42.0
19.53,-60.0
19.59,-50.0
19.66,-56.0
19.72,-71.0
19.78,-70.0
19.84,-74.0
19.91,-58.0
19.97,-48.0
20.03,-58.0
20.1,-64.0
20.16,-80.0
20.22,-93.0
20.29,-91.0
20.35,-85.0
20.41,-81.0
20.47,-87.0
20.54,-80.0
20.6,-72.0
20.66,-81.0
20.73,-60.0
20.79,-86.0
20.85,-105.0
20.92,-80.0
20.98,-66.0
21.04,-55.0
21.1,-67.0
21.17,-61.0
21.23,-72.0
21.29,-87.0
21.36,-48.0
21.42,-67.0
21.48,-91.0
21.55,-74.0
21.61,-70.0
21.67,-90.0
21.73,-104.0
21.8,-102.0
21.86,-111.0
21.92,-117.0
21.99,-111.0
22.05,-111.0
22.11,-121.0
22.18,-143.0
22.24,-133.0
22.3,-131.0
22.36,-141.0
22.43,-151.0
22.49,-158.0
22.55,-165.0
22.62,-166.0
22.68,-155.0
22.74,-160.0
22.81,-169.0
22.87,-143.0
22.93,-145.0
22.99,-145.0
23.06,-150.0
23.12,-187.0
23.18,-165.0
23.25,-172.0
23.31,-183.0
23.37,-179.0
23.44,-175.0
23.5,-170.0
23.56,-166.0
23.62,-171.0
23.69,-172.0
23.75,-178.0
23.81,-184.0
23.88,-163.0
23.94,-180.0
24.0,-180.0
24.07,-153.0
24.13,-165.0
24.19,-155.0
24.25,-163.0
24.32,-162.0
24.38,-176.0
24.44,-185.0
24.51,-175.0
24.57,-171.0
24.63,-185.0
24.7,-179.0
24.76,-171.0
24.82,-171.0
24.88,-176.0
24.95,-172.0
25.01,-174.0
25.07,-173.0
25.14,-165.0
25.2,-174.0
25.26,-160.0
25.33,-186.0
25.39,-170.0
25.45,-188.0
25.51,-174.0
25.58,-166.0
25.64,-155.0
25.7,-172.0
25.77,-140.0
25.83,-134.0
25.89,-138.0
25.96,-145.0
26.02,-154.0
26.08,-142.0
26.14,-151.0
26.21,-133.0
26.27,-138.0
26.33,-138.0
26.4,-137.0
26.46,-144.0
26.52,-148.0
26.59,-142.0
26.65,-151.0
26.71,-144.0
26.77,-159.0
26.84,-163.0
26.9,-175.0
26.96,-158.0
27.03,-170.0
27.09,-179.0
27.15,-185.0
27.22,-168.0
27.28,-163.0
27.34,-191.0
27.4,-185.0
27.47,-193.0
27.53,-167.0
27.59,-180.0
27.66,-177.0
27.72,-175.0
27.78,-171.0
27.85,-161.0
27.91,-164.0
27.97,-148.0
28.03,-129.0
28.1,-142.0
28.16,-147.0
28.22,-132.0
28.29,-143.0
28.35,-142.0
28.41,-159.0
28.48,-149.0
28.54,-137.0
28.6,-128.0
28.66,-145.0
28.73,-147.0
28.79,-163.0
28.85,-168.0
28.92,-163.0
28.98,-172.0
29.04,-169.0
29.11,-165.0
29.17,-161.0
29.23,-152.0
29.29,-167.0
29.36,-167.0
29.42,-177.0
29.48,-178.0
29.55,-169.0
29.61,-183.0
29.67,-164.0
29.74,-165.0
29.8,-170.0
29.86,-182.0
29.92,-170.0
29.99,-162.0
30.05,-173.0
30.11,-173.0
30.18,-180.0
30.24,-147.0
30.3,-172.0
30.37,-164.0
30.43,-141.0
30.49,-141.0
30.55,-174.0
30.62,-171.0
30.68,-176.0
30.74,-162.0
30.81,-151.0
30.87,-171.0
30.93,-165.0
31.0,-160.0
31.06,-176.0
31.12,-178.0
31.18,-209.0
31.25,-193.0
31.31,-190.0
31.37,-191.0
31.44,-184.0
31.5,-200.0
31.56,-202.0
31.63,-207.0
31.69,-227.0
31.75,-214.0
31.81,-225.0
31.88,-210.0
31.94,-215.0
32.0,-212.0
32.07,-221.0
32.13,-228.0
32.19,-237.0
32.26,-241.0
32.32,-238.0
32.38,-235.0
32.44,-235.0
32.51,-248.0
32.57,-251.0
32.63,-228.0
32.7,-238.0
32.76,-251.0
32.82,-244.0
32.89,-244.0
32.95,-224.0
33.01,-196.0
33.07,-197.0
33.14,-204.0
33.2,-193.0
33.26,-205.0
33.33,-205.0
33.39,-214.0
33.45,-211.0
33.52,-207.0
33.58,-220.0
33.64,-222.0
33.7,-222.0
33.77,-219.0
33.83,-207.0
33.89,-224.0
33.96,-223.0
34.02,-229.0
34.08,-230.0
34.15,-225.0
34.21,-224.0
34.27,-232.0
34.33,-233.0
34.4,-226.0
34.46,-232.0
34.52,-225.0
34.59,-230.0
34.65,-226.0
34.71,-229.0
34.78,-234.0
34.84,-230.0
34.9,-225.0
34.96,-239.0
35.03,-215.0
35.09,-211.0
35.15,-207.0
35.22,-209.0
35.28,-220.0
35.34,-227.0
35.41,-239.0
35.47,-249.0
35.53,-242.0
35.59,-236.0
35.66,-234.0
35.72,-235.0
35.78,-219.0
35.85,-205.0
35.91,-215.0
35.97,-189.0
36.04,-181.0
36.1,-188.0
36.16,-156.0
36.22,-185.0
36.29,-178.0
36.35,-178.0
36.41,-172.0
36.48,-182.0
36.54,-199.0
36.6,-183.0
36.67,-185.0
36.73,-188.0
36.79,-185.0
36.85,-168.0
36.92,-170.0
36.98,-169.0
37.04,-173.0
37.11,-184.0
37.17,-166.0
37.23,-160.0
37.3,-155.0
37.36,-173.0
37.42,-144.0
37.48,-145.0
37.55,-161.0
37.61,-150.0
37.67,-145.0
37.74,-148.0
37.8,-139.0
37.86,-117.0
37.93,-119.0
37.99,-99.0
38.05,-79.0
38.12,-77.0
38.18,-81.0
38.24,-67.0
38.3,-91.0
38.37,-75.0
38.43,-93.0
38.49,-84.0
38.56,-72.0
38.62,-81.0
38.68,-75.0
38.75,-80.0
38.81,-75.0
38.87,-84.0
38.93,-65.0
39.0,-79.0
39.06,-70.0
39.12,-82.0
39.19,-86.0
39.25,-72.0
39.31,-69.0
39.38,-57.0
39.44,-56.0
39.5,-71.0
39.56,-46.0
39.63,-55.0
39.69,-65.0
39.75,-56.0
39.82,-27.0
39.88,-31.0
39.94,-21.0
40.01,-39.0
40.07,-35.0
40.13,-17.0
40.19,-46.0
40.26,-44.0
40.32,-29.0
40.38,-18.0
40.45,-21.0
40.51,-10.0
40.57,-2.0
40.64,-29.0
40.7,-29.0
40.76,-41.0
40.82,-25.0
40.89,-20.0
40.95,-20.0
41.01,-31.0
41.08,-32.0
41.14,-44.0
41.2,-49.0
41.27,-59.0
41.33,-63.0
41.39,-50.0
41.45,-25.0
41.52,-32.0
41.58,-56.0
41.64,-68.0
41.71,-62.0
41.77,-50.0
41.83,-52.0
41.9,-71.0
41.96,-60.0
42.02,-73.0
42.08,-68.0
42.15,-71.0
42.21,-75.0
42.27,-79.0
42.34,-88.0
42.4,-73.0
42.46,-63.0
42.53,-58.0
42.59,-56.0
42.65,-54.0
42.71,-37.0
42.78,-33.0
42.84,-53.0
42.9,-30.0
42.97,-44.0
43.03,-20.0
43.09,-31.0
43.16,-25.0
43.22,-27.0
43.28,-40.0
43.34,-31.0
43.41,-42.0
43.47,-12.0
43.53,-1.0
43.6,-11.0
43.66,-30.0
43.72,-42.0
43.79,-33.0
43.85,-44.0
43.91,-30.0
43.97,-18.0
44.04,-19.0
44.1,-35.0
44.16,-39.0
44.23,-25.0
44.29,-26.0
44.35,-16.0
44.42,-19.0
44.48,-8.0
44.54,-19.0
44.6,-5.0
44.67,-18.0
44.73,-4.0
44.79,9.0
44.86,5.0
44.92,29.0
44.98,22.0
45.05,23.0
45.11,31.0
45.17,30.0
45.23,40.0
45.3,26.0
45.36,30.0
45.42,25.0
45.49,27.0
45.55,26.0
45.61,19.0
45.68,29.0
45.74,24.0
45.8,25.0
45.86,12.0
45.93,23.0
45.99,21.0
46.05,25.0
46.12,13.0
46.18,20.0
46.24,19.0
46.31,13.0
46.37,29.0
46.43,32.0
46.49,17.0
46.56,5.0
46.62,4.0
46.68,0.0
46.75,-3.0
46.81,20.0
46.87,11.0
46.94,11.0
47.0,10.0
47.06,25.0
47.12,17.0
47.19,-2.0
47.25,15.0
47.31,8.0
47.38,7.0
47.44,-17.0
47.5,-8.0
47.57,-7.0
47.63,5.0
47.69,22.0
47.75,-4.0
47.82,-19.0
47.88,-17.0
47.94,-32.0
48.01,-12.0
48.07,-17.0
48.13,-24.0
48.2,-37.0
48.26,-33.0
48.32,-26.0
48.38,-11.0
48.45,-15.0
48.51,-20.0
48.57,-20.0
48.64,-35.0
48.7,1.0
48.76,-13.0
48.83,-15.0
48.89,-27.0
48.95,-23.0
49.01,-48.0
49.08,-55.0
49.14,-39.0
49.2,-53.0
49.27,-56.0
49.33,-85.0
49.39,-71.0
49.46,-65.0
49.52,-85.0
49.58,-86.0
49.64,-69.0
49.71,-87.0
49.77,-92.0
49.83,-98.0
49.9,-100.0
49.96,-93.0
50.02,-105.0
50.09,-96.0
50.15,-89.0
50.21,-86.0
50.27,-76.0
50.34,-95.0
50.4,-95.0
50.46,-73.0
50.53,-66.0
50.59,-65.0
50.65,-69.0
50.72,-77.0
50.78,-58.0
50.84,-58.0
50.9,-64.0
50.97,-52.0
51.03,-61.0
51.09,-51.0
51.16,-72.0
51.22,-59.0
51.28,-55.0
51.35,-69.0
51.41,-70.0
51.47,-75.0
51.53,-66.0
51.6,-77.0
51.66,-78.0
51.72,-90.0
51.79,-88.0
51.85,-82.0
51.91,-99.0
51.98,-93.0
52.04,-91.0
52.1,-51.0
52.16,-30.0
52.23,-30.0
52.29,-31.0
52.35,-22.0
52.42,-30.0
52.48,-29.0
52.54,-32.0
52.61,-15.0
52.67,-6.0
52.73,-7.0
52.79,6.0
52.86,13.0
52.92,4.0
52.98,-2.0
53.05,-7.0
53.11,-2.0
53.17,-6.0
53.24,-13.0
53.3,-26.0
53.36,-39.0
53.42,-25.0
53.49,-28.0
53.55,-43.0
53.61,-42.0
53.68,-37.0
53.74,-53.0
53.8,-46.0
53.87,-32.0
53.93,-33.0
53.99,-39.0
54.05,-46.0
54.12,-38.0
54.18,-45.0
54.24,-74.0
54.31,-38.0
54.37,-46.0
54.43,-62.0
54.5,-54.0
54.56,-58.0
54.62,-58.0
54.68,-77.0
54.75,-64.0
54.81,-63.0
54.87,-60.0
54.94,-73.0
55.0,-62.0
55.06,-62.0
55.13,-70.0
55.19,-63.0
55.25,-72.0
55.31,-58.0
55.38,-51.0
55.44,-75.0
55.5,-72.0
55.57,-69.0
55.63,-62.0
55.69,-78.0
55.76,-51.0
55.82,-68.0
55.88,-68.0
55.94,-54.0
56.01,-67.0
56.07,-69.0
56.13,-64.0
56.2,-61.0
56.26,-96.0
56.32,-86.0
56.39,-79.0
56.45,-93.0
56.51,-101.0
56.57,-88.0
56.64,-86.0
56.7,-89.0
56.76,-100.0
56.83,-107.0
56.89,-115.0
56.95,-139.0
57.02,-133.0
57.08,-112.0
57.14,-126.0
57.2,-118.0
57.27,-95.0
57.33,-105.0
57.39,-123.0
57.46,-102.0
57.52,-105.0
57.58,-107.0
57.65,-111.0
57.71,-127.0
57.77,-109.0
57.83,-121.0
57.9,-121.0
57.96,-150.0
58.02,-128.0
58.09,-132.0
58.15,-140.0
58.21,-118.0
58.28,-138.0
58.34,-136.0
58.4,-148.0
58.46,-165.0
58.53,-187.0
58.59,-162.0
58.65,-174.0
58.72,-159.0
58.78,-156.0
58.84,-152.0
58.91,-152.0
58.97,-163.0
59.03,-140.0
59.09,-145.0
59.16,-121.0
59.22,-135.0
59.28,-140.0
59.35,-133.0
59.41,-132.0
59.47,-142.0
59.54,-150.0
59.6,-147.0
59.66,-148.0
59.72,-119.0
59.79,-141.0
59.85,-150.0
59.91,-140.0
59.98,-144.0
60.04,-136.0
60.1,-115.0
60.17,-127.0
60.23,-125.0
60.29,-136.0
60.35,-144.0
60.42,-135.0
60.48,-142.0
60.54,-138.0
60.61,-134.0
60.67,-122.0
60.73,-111.0
60.8,-125.0
60.86,-134.0
60.92,-124.0
60.98,-138.0
61.05,-120.0
61.11,-111.0
61.17,-127.0
61.24,-133.0
61.3,-132.0
61.36,-146.0
61.43,-147.0
61.49,-146.0
61.55,-142.0
61.61,-155.0
61.68,-138.0
61.74,-145.0
61.8,-132.0
61.87,-111.0
61.93,-117.0
61.99,-103.0
62.06,-111.0
62.12,-114.0
62.18,-97.0
62.24,-109.0
62.31,-92.0
62.37,-114.0
62.43,-117.0
62.5,-129.0
62.56,-128.0
62.62,-117.0
62.69,-99.0
62.75,-101.0
62.81,-57.0
62.87,-88.0
62.94,-95.0
63.0,-103.0
63.06,-71.0
63.13,-59.0
63.19,-71.0
63.25,-48.0
63.32,-39.0
63.38,-32.0
63.44,-45.0
63.5,-27.0
63.57,-46.0
63.63,-43.0
63.69,-26.0
63.76,-41.0
63.82,-30.0
63.88,-4.0
63.95,-22.0
64.01,-33.0
64.07,-25.0
64.13,-29.0
64.2,-18.0
64.26,7.0
64.32,1.0
64.39,-4.0
64.45,23.0
64.51,15.0
64.58,11.0
64.64,29.0
64.7,31.0
64.76,27.0
64.83,43.0
64.89,68.0
64.95,77.0
65.02,78.0
65.08,83.0
65.14,60.0
65.21,52.0
65.27,50.0
65.33,46.0
65.39,64.0
65.46,73.0
65.52,84.0
65.58,72.0
65.65,62.0
65.71,69.0
65.77,48.0
65.84,63.0
65.9,68.0
65.96,54.0
66.02,56.0
66.09,59.0
66.15,43.0
66.21,43.0
66.28,48.0
66.34,36.0
66.4,47.0
66.47,49.0
66.53,38.0
66.59,55.0
66.65,43.0
66.72,28.0
66.78,38.0
66.84,40.0
66.91,52.0
66.97,56.0
67.03,52.0
67.1,41.0
67.16,35.0
67.22,28.0
67.28,30.0
67.35,17.0
67.41,45.0
67.47,58.0
67.54,63.0
67.6,73.0
67.66,74.0
67.73,65.0
67.79,72.0
67.85,108.0
67.91,120.0
67.98,108.0
68.04,127.0
68.1,146.0
68.17,114.0
68.23,114.0
68.29,134.0
68.36,141.0
68.42,142.0
68.48,140.0
68.54,122.0
68.61,137.0
68.67,120.0
68.73,103.0
68.8,116.0
68.86,92.0
68.92,108.0
68.99,87.0
69.05,85.0
69.11,115.0
69.17,134.0
69.24,126.0
69.3,139.0
69.36,130.0
69.43,126.0
69.49,125.0
69.55,105.0
69.62,135.0
69.68,157.0
69.74,136.0
69.8,141.0
69.87,137.0
69.93,136.0
69.99,131.0
70.06,135.0
70.12,148.0
70.18,117.0
70.25,127.0
70.31,130.0
70.37,124.0
70.43,130.0
70.5,134.0
70.56,106.0
70.62,95.0
70.69,104.0
70.75,91.0
70.81,79.0
70.88,100.0
70.94,122.0
71.0,106.0
71.06,93.0
71.13,104.0
71.19,94.0
71.25,88.0
71.32,91.0
71.38,99.0
71.44,103.0
71.51,86.0
71.57,102.0
71.63,98.0
71.69,120.0
71.76,125.0
71.82,112.0
71.88,104.0
71.95,114.0
72.01,126.0
72.07,115.0
72.14,115.0
72.2,124.0
72.26,120.0
72.32,108.0
72.39,115.0
72.45,120.0
72.51,107.0
72.58,100.0
72.64,100.0
72.7,98.0
72.77,107.0
72.83,93.0
72.89,85.0
72.95,98.0
73.02,82.0
73.08,79.0
73.14,86.0
73.21,103.0
73.27,112.0
73.33,109.0
73.4,111.0
73.46,111.0
73.52,95.0
73.58,89.0
73.65,96.0
73.71,95.0
73.77,101.0
73.84,95.0
73.9,84.0
73.96,75.0
74.03,75.0
74.09,73.0
74.15,69.0
74.21,66.0
74.28,55.0
74.34,52.0
74.4,65.0
74.47,36.0
74.53,53.0
74.59,50.0
74.66,32.0
74.72,20.0
74.78,9.0
74.84,20.0
74.91,8.0
74.97,18.0
75.03,2.0
75.1,1.0
75.16,10.0
75.22,-19.0
75.29,-1.0
75.35,-17.0
75.41,-25.0
75.47,-32.0
75.54,-36.0
75.6,-19.0
75.66,-35.0
75.73,-19.0
75.79,-15.0
75.85,-35.0
75.92,-16.0
75.98,-34.0
76.04,-39.0
76.1,-7.0
76.17,-7.0
76.23,6.0
76.29,-6.0
76.36,-12.0
76.42,-22.0
76.48,-27.0
76.55,-27.0
76.61,-34.0
76.67,-20.0
76.73,-22.0
76.8,-23.0
76.86,-6.0
76.92,-1.0
76.99,11.0
77.05,27.0
77.11,23.0
77.18,29.0
77.24,43.0
77.3,52.0
77.36,55.0
77.43,23.0
77.49,23.0
77.55,12.0
77.62,29.0
77.68,28.0
77.74,13.0
77.81,0.0
77.87,10.0
77.93,22.0
77.99,22.0
78.06,11.0
78.12,-8.0
78.18,22.0
78.25,6.0
78.31,19.0
78.37,30.0
78.44,1.0
78.5,46.0
78.56,40.0
78.62,37.0
78.69,39.0
78.75,29.0
78.81,30.0
78.88,31.0
78.94,25.0
79.0,30.0
79.07,29.0
79.13,25.0
79.19,53.0
79.25,25.0
79.32,32.0
79.38,49.0
79.44,23.0
79.51,22.0
79.57,24.0
79.63,20.0
79.7,33.0
79.76,44.0
79.82,46.0
79.88,60.0
79.95,54.0
80.01,48.0
80.07,39.0
80.14,65.0
80.2,50.0
80.26,48.0
80.33,33.0
80.39,51.0
80.45,69.0
80.51,56.0
80.58,33.0
80.64,23.0
80.7,12.0
80.77,19.0
80.83,8.0
80.89,19.0
80.96,23.0
81.02,10.0
81.08,5.0
81.14,3.0
81.21,-3.0
81.27,-8.0
81.33,-14.0
81.4,-20.0
81.46,-20.0
81.52,-9.0
81.59,-14.0
81.65,-8.0
81.71,-4.0
81.77,-2.0
81.84,0.0
81.9,-12.0
81.96,-2.0
82.03,37.0
82.09,8.0
82.15,-6.0
82.22,24.0
82.28,15.0
82.34,6.0
82.4,3.0
82.47,-13.0
82.53,-15.0
82.59,-18.0
82.66,-5.0
82.72,-11.0
82.78,-28.0
82.85,-13.0
82.91,-1.0
82.97,5.0
83.03,5.0
83.1,-5.0
83.16,-12.0
83.22,-19.0
83.29,-34.0
83.35,-28.0
83.41,-27.0
83.48,-42.0
83.54,-18.0
83.6,-25.0
83.66,-41.0
83.73,-60.0
83.79,-46.0
83.85,-32.0
83.92,-18.0
83.98,-38.0
84.04,-47.0
84.11,-30.0
84.17,-48.0
84.23,-61.0
84.29,-55.0
84.36,-38.0
84.42,-47.0
84.48,-32.0
84.55,-43.0
84.61,-44.0
84.67,-38.0
84.74,-51.0
84.8,-38.0
84.86,-53.0
84.92,-59.0
84.99,-49.0
85.05,-58.0
85.11,-53.0
85.18,-55.0
85.24,-63.0
85.3,-75.0
85.37,-75.0
85.43,-70.0
85.49,-62.0
85.55,-67.0
85.62,-46.0
85.68,-66.0
85.74,-51.0
85.81,-42.0
85.87,-51.0
85.93,-60.0
86.0,-55.0
86.06,-42.0
86.12,-46.0
86.18,-51.0
86.25,-60.0
86.31,-80.0
86.37,-78.0
86.44,-62.0
86.5,-78.0
86.56,-64.0
86.63,-70.0
86.69,-56.0
86.75,-60.0
86.81,-56.0
86.88,-52.0
86.94,-48.0
87.0,-36.0
87.07,-48.0
87.13,-50.0
87.19,-64.0
87.26,-60.0
87.32,-46.0
87.38,-52.0
87.44,-58.0
87.51,-42.0
87.57,-40.0
87.63,-51.0
87.7,-43.0
87.76,-37.0
87.82,-46.0
87.89,-38.0
87.95,-49.0
88.01,-51.0
88.07,-42.0
88.14,-43.0
88.2,-30.0
88.26,-23.0
88.33,-24.0
88.39,-9.0
88.45,-17.0
88.52,-29.0
88.58,-20.0
88.64,-37.0
88.7,-16.0
88.77,-18.0
88.83,-14.0
88.89,-1.0
88.96,-5.0
89.02,-26.0
89.08,-30.0
89.15,-6.0
89.21,-12.0
89.27,-19.0
89.33,-33.0
89.4,-20.0
89.46,-17.0
89.52,-12.0
89.59,-12.0
89.65,12.0
89.71,5.0
89.78,-11.0
89.84,1.0
89.9,-13.0
89.96,-5.0
90.03,-13.0
90.09,-3.0
90.15,6.0
90.22,11.0
90.28,2.0
90.34,-23.0
90.41,-7.0
90.47,12.0
90.53,-7.0
90.59,-13.0
90.66,-12.0
90.72,-3.0
90.78,-8.0
90.85,-9.0
90.91,8.0
90.97,2.0
91.04,6.0
91.1,15.0
91.16,10.0
91.22,22.0
91.29,26.0
91.35,-3.0
91.41,-11.0
91.48,-13.0
91.54,18.0
91.6,21.0
91.67,2.0
91.73,32.0
91.79,36.0
91.85,22.0
91.92,31.0
91.98,22.0
92.04,8.0
92.11,15.0
92.17,33.0
92.23,29.0
92.3,46.0
92.36,46.0
92.42,71.0
92.48,71.0
92.55,49.0
92.61,80.0
92.67,82.0
92.74,57.0
92.8,78.0
92.86,70.0
92.93,90.0
92.99,49.0
93.05,53.0
93.11,75.0
93.18,59.0
93.24,63.0
93.3,59.0
93.37,53.0
93.43,60.0
93.49,56.0
93.56,66.0
93.62,48.0
93.68,51.0
93.74,51.0
93.81,37.0
93.87,49.0
93.93,46.0
94.0,32.0
94.06,38.0
94.12,32.0
94.19,38.0
94.25,53.0
94.31,26.0
94.37,16.0
94.44,43.0
94.5,48.0
94.56,57.0
94.63,65.0
94.69,75.0
94.75,64.0
94.82,57.0
94.88,63.0
94.94,57.0
95.0,46.0
95.07,47.0
95.13,44.0
95.19,42.0
95.26,20.0
95.32,32.0
95.38,44.0
95.45,24.0
95.51,17.0
95.57,23.0
95.63,8.0
95.7,11.0
95.76,24.0
95.82,25.0
95.89,17.0
95.95,36.0
96.01,40.0
96.08,32.0
96.14,42.0
96.2,38.0
96.26,47.0
96.33,46.0
96.39,46.0
96.45,61.0
96.52,42.0
96.58,48.0
96.64,37.0
96.71,25.0
96.77,44.0
96.83,48.0
96.89,56.0
96.96,72.0
97.02,59.0
97.08,50.0
97.15,75.0
97.21,80.0
97.27,72.0
97.34,75.0
97.4,81.0
97.46,100.0
97.52,77.0
97.59,83.0
97.65,87.0
97.71,68.0
97.78,71.0
97.84,70.0
97.9,77.0
97.97,72.0
98.03,52.0
98.09,42.0
98.15,41.0
98.22,51.0
98.28,50.0
98.34,53.0
98.41,69.0
98.47,75.0
98.53,87.0
98.6,62.0
98.66,87.0
98.72,75.0
98.78,52.0
98.85,60.0
98.91,27.0
98.97,36.0
99.04,52.0
99.1,52.0
99.16,68.0
99.23,54.0
99.29,66.0
99.35,67.0
99.41,58.0
99.48,51.0
99.54,35.0
99.6,42.0
99.67,64.0
99.73,74.0
99.79,57.0
99.86,52.0
99.92,51.0
99.98,18.0
100.04,-5.0
100.11,4.0
100.17,22.0
100.23,-12.0
100.3,-24.0
100.36,-40.0
100.42,-57.0
100.49,-43.0
100.55,-42.0
100.61,-33.0
100.67,-40.0
100.74,-58.0
100.8,-59.0
100.86,-48.0
100.93,-49.0
100.99,-42.0
101.05,-18.0
101.12,-20.0
101.18,-20.0
101.24,-24.0
101.3,-3.0
101.37,9.0
101.43,-4.0
101.49,-4.0
101.56,23.0
101.62,0.0
101.68,13.0
101.75,7.0
101.81,13.0
101.87,11.0
101.93,18.0
102.0,35.0
102.06,40.0
102.12,37.0
102.19,26.0
102.25,48.0
102.31,48.0
102.38,49.0
102.44,57.0
102.5,52.0
102.56,61.0
102.63,73.0
102.69,65.0
102.75,74.0
102.82,69.0
102.88,50.0
102.94,68.0
103.01,79.0
103.07,76.0
103.13,56.0
103.19,58.0
103.26,69.0
103.32,54.0
103.38,68.0
103.45,79.0
103.51,59.0
103.57,65.0
103.64,69.0
103.7,79.0
103.76,63.0
103.82,49.0
103.89,68.0
103.95,67.0
104.01,71.0
104.08,83.0
104.14,87.0
104.2,60.0
104.27,92.0
104.33,109.0
104.39,97.0
104.45,115.0
104.52,109.0
104.58,105.0
104.64,95.0
104.71,95.0
104.77,92.0
104.83,75.0
104.9,63.0
104.96,67.0
105.02,54.0
105.08,73.0
105.15,83.0
105.21,73.0
105.27,93.0
105.34,85.0
105.4,76.0
105.46,81.0
105.53,103.0
105.59,111.0
105.65,92.0
105.71,86.0
105.78,85.0
105.84,82.0
105.9,82.0
105.97,88.0
106.03,69.0
106.09,80.0
106.16,100.0
106.22,93.0
106.28,113.0
106.34,100.0
106.41,97.0
106.47,118.0
106.53,84.0
106.6,104.0
106.66,89.0
106.72,100.0
106.79,113.0
106.85,117.0
106.91,119.0
106.97,113.0
107.04,109.0
107.1,106.0
107.16,106.0
107.23,91.0
107.29,97.0
107.35,88.0
107.42,80.0
107.48,90.0
107.54,100.0
107.6,85.0
107.67,69.0
107.73,70.0
107.79,61.0
107.86,52.0
107.92,49.0
107.98,49.0
108.05,56.0
108.11,17.0
108.17,7.0
108.23,20.0
108.3,11.0
108.36,17.0
108.42,-14.0
108.49,2.0
108.55,16.0
108.61,10.0
108.68,0.0
108.74,-19.0
108.8,-19.0
108.86,17.0
108.93,-9.0
108.99,-29.0
109.05,-3.0
109.12,3.0
109.18,-15.0
109.24,-22.0
109.31,-43.0
109.37,-58.0
109.43,-40.0
109.49,-53.0
109.56,-50.0
109.62,-42.0
109.68,-33.0
109.75,-34.0
109.81,-44.0
109.87,-30.0
109.94,-55.0
110.0,-51.0
110.06,-40.0
110.12,-44.0
110.19,-53.0
110.25,-38.0
110.31,-46.0
110.38,-51.0
110.44,-25.0
110.5,-63.0
110.57,-47.0
110.63,-41.0
110.69,-57.0
110.75,-45.0
110.82,-64.0
110.88,-55.0
110.94,-70.0
111.01,-44.0
111.07,-19.0
111.13,-35.0
111.2,-32.0
111.26,-33.0
111.32,-50.0
111.38,-61.0
111.45,-38.0
111.51,-50.0
111.57,-9.0
111.64,-31.0
111.7,-60.0
111.76,-19.0
111.83,-25.0
111.89,-19.0
111.95,-43.0
112.01,-70.0
112.08,-43.0
112.14,-24.0
112.2,-49.0
112.27,-22.0
112.33,-53.0
112.39,-42.0
112.46,-27.0
112.52,-27.0
112.58,-27.0
112.64,-35.0
112.71,-37.0
112.77,-19.0
112.83,-32.0
112.9,-51.0
112.96,-37.0
113.02,-35.0
113.09,-16.0
113.15,5.0
113.21,-4.0
113.27,-4.0
113.34,3.0
113.4,1.0
113.46,10.0
113.53,32.0
113.59,21.0
113.65,33.0
113.72,22.0
113.78,30.0
113.84,29.0
113.9,-3.0
113.97,-5.0
114.03,-13.0
114.09,3.0
114.16,-9.0
114.22,-27.0
114.28,-31.0
114.35,-23.0
114.41,-35.0
114.47,-49.0
114.53,-29.0
114.6,-17.0
114.66,-26.0
114.72,-25.0
114.79,-19.0
114.85,-18.0
114.91,-32.0
114.98,-14.0
115.04,-15.0
115.1,-18.0
115.16,-2.0
115.23,-10.0
115.29,-30.0
115.35,4.0
115.42,-27.0
115.48,-30.0
115.54,-18.0
115.61,-25.0
115.67,-1.0
115.73,-8.0
115.79,13.0
115.86,11.0
115.92,24.0
115.98,25.0
116.05,43.0
116.11,30.0
116.17,16.0
116.24,34.0
116.3,38.0
116.36,58.0
116.42,35.0
116.49,37.0
116.55,36.0
116.61,50.0
116.68,41.0
116.74,56.0
116.8,51.0
116.87,48.0
116.93,35.0
116.99,57.0
117.05,50.0
117.12,32.0
117.18,57.0
117.24,57.0
117.31,54.0
117.37,46.0
117.43,40.0
117.5,72.0
117.56,67.0
117.62,49.0
117.68,82.0
117.75,94.0
117.81,91.0
117.87,91.0
117.94,101.0
118.0,88.0
118.06,88.0
118.13,79.0
118.19,57.0
118.25,74.0
118.31,73.0
118.38,83.0
118.44,97.0
118.5,89.0
118.57,91.0
118.63,102.0
118.69,89.0
118.76,110.0
118.82,102.0
118.88,103.0
118.94,81.0
119.01,107.0
119.07,116.0
119.13,112.0
119.2,124.0
119.26,112.0
119.32,110.0
119.39,116.0
119.45,103.0
119.51,88.0
119.57,106.0
119.64,114.0
119.7,103.0
119.76,104.0
119.83,104.0
119.89,101.0
119.95,102.0
120.02,113.0
120.08,120.0
120.14,121.0
120.2,124.0
120.27,137.0
120.33,132.0
120.39,131.0
120.46,137.0
120.52,123.0
120.58,124.0
120.65,151.0
120.71,130.0
120.77,128.0
120.83,121.0
120.9,120.0
120.96,117.0
121.02,138.0
121.09,138.0
121.15,137.0
121.21,130.0
121.28,161.0
121.34,138.0
121.4,135.0
121.46,139.0
121.53,131.0
121.59,143.0
121.65,127.0
121.72,129.0
121.78,146.0
121.84,148.0
121.91,146.0
121.97,134.0
122.03,143.0
122.09,151.0
122.16,155.0
122.22,156.0
122.28,151.0
122.35,160.0
122.41,176.0
122.47,151.0
122.54,152.0
122.6,154.0
122.66,157.0
122.72,161.0
122.79,161.0
122.85,153.0
122.91,154.0
122.98,156.0
123.04,142.0
123.1,156.0
123.17,154.0
123.23,156.0
123.29,173.0
123.35,181.0
123.42,187.0
123.48,168.0
123.54,173.0
123.61,184.0
123.67,176.0
123.73,167.0
123.8,160.0
123.86,159.0
123.92,163.0
123.98,154.0
124.05,156.0
124.11,120.0
124.17,138.0
124.24,138.0
124.3,136.0
124.36,127.0
124.43,139.0
124.49,135.0
124.55,121.0
124.61,137.0
124.68,143.0
124.74,144.0
124.8,131.0
124.87,129.0
124.93,142.0
124.99,126.0
125.06,125.0
125.12,110.0
125.18,87.0
125.24,98.0
125.31,108.0
125.37,107.0
125.43,137.0
125.5,126.0
125.56,129.0
125.62,128.0
125.69,145.0
125.75,137.0
125.81,129.0
125.87,134.0
125.94,143.0
126.0,135.0
126.06,122.0
126.13,124.0
126.19,109.0
126.25,120.0
126.32,124.0
126.38,126.0
126.44,129.0
126.5,132.0
126.57,91.0
126.63,118.0
126.69,111.0
126.76,102.0
126.82,105.0
126.88,110.0
126.95,109.0
127.01,111.0
127.07,127.0
127.13,116.0
127.2,94.0
127.26,81.0
127.32,76.0
127.39,95.0
127.45,107.0
127.51,96.0
127.58,95.0
127.64,97.0
127.7,109.0
127.76,111.0
127.83,118.0
127.89,105.0
127.95,105.0
128.02,121.0
128.08,117.0
128.14,123.0
128.21,119.0
128.27,110.0
128.33,112.0
128.39,96.0
128.46,103.0
128.52,88.0
128.58,88.0
128.65,93.0
128.71,109.0
128.77,119.0
128.84,110.0
128.9,115.0
128.96,116.0
129.02,118.0
129.09,118.0
129.15,131.0
129.21,127.0
129.28,124.0
129.34,139.0
129.4,151.0
129.47,143.0
129.53,150.0
129.59,158.0
129.65,153.0
129.72,150.0
129.78,179.0
129.84,160.0
129.91,153.0
129.97,161.0
130.03,168.0
130.1,159.0
130.16,168.0
130.22,156.0
130.28,157.0
130.35,178.0
130.41,160.0
130.47,138.0
130.54,142.0
130.6,135.0
130.66,128.0
130.73,117.0
130.79,124.0
130.85,132.0
130.91,134.0
130.98,128.0
131.04,116.0
131.1,123.0
131.17,134.0
131.23,119.0
131.29,139.0
131.36,123.0
131.42,104.0
131.48,93.0
131.54,91.0
131.61,103.0
131.67,118.0
131.73,120.0
131.8,110.0
131.86,115.0
131.92,148.0
131.99,130.0
132.05,118.0
132.11,119.0
132.17,111.0
132.24,110.0
132.3,95.0
132.36,104.0
132.43,104.0
132.49,121.0
132.55,126.0
132.62,82.0
132.68,117.0
132.74,112.0
132.8,84.0
132.87,92.0
132.93,85.0
132.99,90.0
133.06,95.0
133.12,81.0
133.18,99.0
133.25,86.0
133.31,66.0
133.37,54.0
133.43,49.0
133.5,63.0
133.56,36.0
133.62,16.0
133.69,21.0
133.75,2.0
133.81,17.0
133.88,-14.0
133.94,-5.0
134.0,-10.0
134.06,-16.0
134.13,-22.0
134.19,-34.0
134.25,-45.0
134.32,-67.0
134.38,-53.0
134.44,-75.0
134.51,-66.0
134.57,-57.0
134.63,-60.0
134.69,-71.0
134.76,-88.0
134.82,-99.0
134.88,-80.0
134.95,-82.0
135.01,-97.0
135.07,-86.0
135.14,-72.0
135.2,-66.0
135.26,-47.0
135.32,-60.0
135.39,-35.0
135.45,-43.0
135.51,-45.0
135.58,-14.0
135.64,-19.0
135.7,-1.0
135.77,12.0
135.83,9.0
135.89,27.0
135.95,19.0
136.02,30.0
136.08,59.0
136.14,70.0
136.21,70.0
136.27,39.0
136.33,43.0
136.4,53.0
136.46,34.0
136.52,30.0
136.58,18.0
136.65,3.0
136.71,10.0
136.77,22.0
136.84,3.0
136.9,14.0
136.96,36.0
137.03,29.0
137.09,24.0
137.15,28.0
137.21,39.0
137.28,31.0
137.34,35.0
137.4,35.0
137.47,27.0
137.53,54.0
137.59,20.0
137.66,27.0
137.72,19.0
137.78,37.0
137.84,41.0
137.91,21.0
137.97,49.0
138.03,39.0
138.1,23.0
138.16,26.0
138.22,20.0
138.29,40.0
138.35,35.0
138.41,24.0
138.47,31.0
138.54,38.0
138.6,32.0
138.66,35.0
138.73,30.0
138.79,48.0
138.85,53.0
138.92,38.0
138.98,53.0
139.04,32.0
139.1,43.0
139.17,45.0
139.23,41.0
139.29,48.0
139.36,49.0
139.42,38.0
139.48,21.0
139.55,22.0
139.61,19.0
139.67,27.0
139.73,27.0
139.8,26.0
139.86,35.0
139.92,21.0
139.99,24.0
140.05,23.0
140.11,-10.0
140.18,7.0
140.24,-1.0
140.3,-13.0
140.36,-26.0
140.43,-25.0
140.49,-22.0
140.55,-21.0
140.62,-19.0
140.68,-30.0
140.74,-12.0
140.81,-13.0
140.87,-21.0
140.93,1.0
140.99,0.0
141.06,-3.0
141.12,13.0
141.18,2.0
141.25,22.0
141.31,40.0
141.37,36.0
141.44,40.0
141.5,55.0
141.56,32.0
141.62,17.0
141.69,11.0
141.75,-16.0
141.81,-1.0
141.88,-14.0
141.94,-25.0
142.0,-6.0
142.07,1.0
142.13,26.0
142.19,31.0
142.25,7.0
142.32,14.0
142.38,27.0
142.44,11.0
142.51,17.0
142.57,19.0
142.63,20.0
142.7,22.0
142.76,44.0
142.82,60.0
142.88,63.0
142.95,91.0
143.01,97.0
143.07,95.0
143.14,88.0
143.2,87.0
143.26,71.0
143.33,93.0
143.39,73.0
143.45,69.0
143.51,104.0
143.58,97.0
143.64,88.0
143.7,84.0
143.77,83.0
143.83,85.0
143.89,69.0
143.96,58.0
144.02,48.0
144.08,41.0
144.14,17.0
144.21,4.0
144.27,-16.0
144.33,-10.0
144.4,2.0
144.46,-4.0
144.52,2.0
144.59,15.0
144.65,10.0
144.71,1.0
144.77,1.0
144.84,9.0
144.9,17.0
144.96,1.0
145.03,6.0
145.09,40.0
145.15,35.0
145.22,44.0
145.28,42.0
145.34,44.0
145.4,60.0
145.47,59.0
145.53,76.0
145.59,64.0
145.66,68.0
145.72,68.0
145.78,82.0
145.85,86.0
145.91,87.0
145.97,84.0
146.03,98.0
146.1,87.0
146.16,86.0
146.22,102.0
146.29,125.0
146.35,122.0
146.41,104.0
146.47,110.0
146.54,105.0
146.6,94.0
146.66,82.0
146.73,73.0
146.79,55.0
146.85,62.0
146.92,74.0
146.98,69.0
147.04,91.0
147.1,108.0
147.17,100.0
147.23,127.0
147.29,103.0
147.36,88.0
147.42,82.0
147.48,85.0
147.55,90.0
147.61,78.0
147.67,106.0
147.73,96.0
147.8,121.0
147.86,105.0
147.92,103.0
147.99,96.0
148.05,102.0
148.11,78.0
148.18,94.0
148.24,108.0
148.3,90.0
148.36,88.0
148.43,101.0
148.49,90.0
148.55,104.0
148.62,98.0
148.68,80.0
148.74,77.0
148.81,73.0
148.87,77.0
148.93,76.0
148.99,58.0
149.06,83.0
149.12,90.0
149.18,83.0
149.25,73.0
149.31,79.0
149.37,78.0
149.44,58.0
149.5,53.0
149.56,68.0
149.62,60.0
149.69,46.0
149.75,57.0
149.81,52.0
149.88,43.0
149.94,54.0
150.0,51.0
150.07,95.0
150.13,85.0
150.19,89.0
150.25,86.0
150.32,91.0
150.38,71.0
150.44,64.0
150.51,63.0
150.57,54.0
150.63,63.0
150.7,54.0
150.76,49.0
150.82,66.0
150.88,64.0
150.95,71.0
151.01,74.0
151.07,79.0
151.14,80.0
151.2,61.0
151.26,53.0
151.33,64.0
151.39,67.0
151.45,61.0
151.51,55.0
151.58,76.0
151.64,73.0
151.7,70.0
151.77,56.0
151.83,54.0
151.89,53.0
151.96,64.0
152.02,49.0
152.08,75.0
152.14,108.0
152.21,127.0
152.27,160.0
152.33,160.0
152.4,177.0
152.46,150.0
152.52,156.0
152.59,167.0
152.65,150.0
152.71,152.0
152.77,135.0
152.84,131.0
152.9,141.0
152.96,134.0
153.03,144.0
153.09,134.0
153.15,138.0
153.22,140.0
153.28,163.0
153.34,159.0
153.4,149.0
153.47,146.0
153.53,117.0
153.59,143.0
153.66,139.0
153.72,136.0
153.78,159.0
153.85,134.0
153.91,130.0
153.97,127.0
154.03,123.0
154.1,128.0
154.16,100.0
154.22,112.0
154.29,118.0
154.35,139.0
154.41,134.0
154.48,149.0
154.54,174.0
154.6,173.0
154.66,176.0
154.73,183.0
154.79,180.0
154.85,188.0
154.92,192.0
154.98,176.0
155.04,178.0
155.11,186.0
155.17,189.0
155.23,210.0
155.29,210.0
155.36,218.0
155.42,214.0
155.48,214.0
155.55,200.0
155.61,205.0
155.67,224.0
155.74,224.0
155.8,239.0
155.86,257.0
155.92,244.0
155.99,244.0
156.05,248.0
156.11,253.0
156.18,240.0
156.24,242.0
156.3,236.0
156.37,246.0
156.43,235.0
156.49,215.0
156.55,200.0
156.62,203.0
156.68,220.0
156.74,225.0
156.81,222.0
156.87,238.0
156.93,211.0
157.0,215.0
157.06,196.0
157.12,193.0
157.18,195.0
157.25,200.0
157.31,183.0
157.37,173.0
157.44,195.0
157.5,189.0
157.56,184.0
157.63,179.0
157.69,184.0
157.75,184.0
157.81,174.0
157.88,159.0
157.94,149.0
158.0,159.0
158.07,152.0
158.13,139.0
158.19,158.0
158.26,174.0
158.32,163.0
158.38,173.0
158.44,181.0
158.51,159.0
158.57,130.0
158.63,124.0
158.7,109.0
158.76,96.0
158.82,100.0
158.89,102.0
158.95,83.0
159.01,76.0
159.07,71.0
159.14,57.0
159.2,58.0
159.26,43.0
159.33,36.0
159.39,38.0
159.45,27.0
159.52,24.0
159.58,35.0
159.64,35.0
159.7,41.0
159.77,40.0
159.83,38.0
159.89,19.0
159.96,29.0
160.02,28.0
160.08,18.0
160.15,13.0
160.21,9.0
160.27,20.0
160.33,31.0
160.4,42.0
160.46,36.0
160.52,50.0
160.59,72.0
160.65,71.0
160.71,62.0
160.78,67.0
160.84,73.0
160.9,50.0
160.96,35.0
161.03,32.0
161.09,13.0
161.15,33.0
161.22,17.0
161.28,25.0
161.34,38.0
161.41,51.0
161.47,39.0
161.53,51.0
161.59,48.0
161.66,39.0
161.72,62.0
161.78,53.0
161.85,64.0
161.91,72.0
161.97,58.0
162.04,59.0
162.1,55.0
162.16,51.0
162.22,65.0
162.29,57.0
162.35,49.0
162.41,60.0
162.48,76.0
162.54,79.0
162.6,76.0
162.67,75.0
162.73,82.0
162.79,98.0
162.85,68.0
162.92,88.0
162.98,66.0
163.04,51.0
163.11,41.0
163.17,31.0
163.23,53.0
163.3,37.0
163.36,32.0
163.42,54.0
163.48,76.0
163.55,58.0
163.61,70.0
163.67,61.0
163.74,50.0
163.8,41.0
163.86,1.0
163.93,15.0
163.99,17.0
164.05,13.0
164.11,34.0
164.18,42.0
164.24,48.0
164.3,79.0
164.37,45.0
164.43,45.0
164.49,48.0
164.56,45.0
164.62,42.0
164.68,13.0
164.74,20.0
164.81,1.0
164.87,20.0
164.93,33.0
165.0,23.0
165.06,24.0
165.12,22.0
165.19,33.0
165.25,27.0
165.31,35.0
165.37,50.0
165.44,26.0
165.5,70.0
165.56,43.0
165.63,38.0
165.69,45.0
165.75,48.0
165.82,35.0
165.88,27.0
165.94,34.0
166.0,29.0
166.07,45.0
166.13,25.0
166.19,49.0
166.26,25.0
166.32,4.0
166.38,-12.0
166.45,9.0
166.51,9.0
166.57,-6.0
166.63,8.0
166.7,-4.0
166.76,-22.0
166.82,-40.0
166.89,-34.0
166.95,-14.0
167.01,-16.0
167.08,-29.0
167.14,-14.0
167.2,-31.0
167.26,-29.0
167.33,-8.0
167.39,-4.0
167.45,-20.0
167.52,-27.0
167.58,-26.0
167.64,-55.0
167.71,-56.0
167.77,-57.0
167.83,-51.0
167.89,-38.0
167.96,-16.0
168.02,-12.0
168.08,1.0
168.15,4.0
168.21,11.0
168.27,-19.0
168.34,-37.0
168.4,-43.0
168.46,-60.0
168.52,-68.0
168.59,-68.0
168.65,-48.0
168.71,-19.0
168.78,-40.0
168.84,-36.0
168.9,-26.0
168.97,-22.0
169.03,-36.0
169.09,-34.0
169.15,-66.0
169.22,-20.0
169.28,5.0
169.34,36.0
169.41,42.0
169.47,45.0
169.53,66.0
169.6,67.0
169.66,67.0
169.72,74.0
169.78,62.0
169.85,68.0
169.91,47.0
169.97,22.0
170.04,14.0
170.1,4.0
170.16,28.0
170.23,34.0
170.29,24.0
170.35,41.0
170.41,6.0
170.48,32.0
170.54,35.0
170.6,13.0
170.67,42.0
170.73,46.0
170.79,24.0
170.86,30.0
170.92,47.0
170.98,60.0
171.04,50.0
171.11,58.0
171.17,72.0
171.23,63.0
171.3,77.0
171.36,67.0
171.42,100.0
171.49,126.0
171.55,104.0
171.61,110.0
171.67,128.0
171.74,107.0
171.8,90.0
171.86,100.0
171.93,108.0
171.99,92.0
172.05,80.0
172.12,96.0
172.18,72.0
172.24,86.0
172.3,79.0
172.37,78.0
172.43,71.0
172.49,67.0
172.56,66.0
172.62,48.0
172.68,69.0
172.75,75.0
172.81,35.0
172.87,24.0
172.93,26.0
173.0,42.0
173.06,85.0
173.12,82.0
173.19,77.0
173.25,93.0
173.31,87.0
173.38,85.0
173.44,94.0
173.5,85.0
173.56,81.0
173.63,69.0
173.69,79.0
173.75,89.0
173.82,91.0
173.88,108.0
173.94,97.0
174.01,74.0
174.07,88.0
174.13,82.0
174.19,67.0
174.26,47.0
174.32,52.0
174.38,62.0
174.45,58.0
174.51,56.0
174.57,73.0
174.64,89.0
174.7,86.0
174.76,89.0
174.82,82.0
174.89,89.0
174.95,87.0
175.01,86.0
175.08,87.0
175.14,110.0
175.2,93.0
175.27,109.0
175.33,126.0
175.39,119.0
175.45,124.0
175.52,108.0
175.58,120.0
175.64,117.0
175.71,117.0
175.77,105.0
175.83,82.0
175.9,90.0
175.96,96.0
176.02,96.0
176.08,80.0
176.15,67.0
176.21,78.0
176.27,99.0
176.34,86.0
176.4,65.0
176.46,65.0
176.53,78.0
176.59,64.0
176.65,80.0
176.71,95.0
176.78,96.0
176.84,102.0
176.9,132.0
176.97,132.0
177.03,142.0
177.09,129.0
177.16,141.0
177.22,148.0
177.28,140.0
177.34,152.0
177.41,133.0
177.47,127.0
177.53,118.0
177.6,146.0
177.66,154.0
177.72,136.0
177.79,150.0
177.85,146.0
177.91,104.0
177.97,100.0
178.04,102.0
178.1,96.0
178.16,99.0
178.23,85.0
178.29,86.0
178.35,91.0
178.42,88.0
178.48,94.0
178.54,85.0
178.6,94.0
178.67,94.0
178.73,94.0
178.79,87.0
178.86,85.0
178.92,95.0
178.98,106.0
179.05,114.0
179.11,123.0
179.17,120.0
179.23,154.0
179.3,157.0
179.36,173.0
179.42,172.0
179.49,168.0
179.55,177.0
179.61,162.0
179.68,165.0
179.74,164.0
179.8,155.0
179.86,172.0
179.93,175.0
179.99,179.0
180.05,170.0
180.12,148.0
180.18,146.0
180.24,142.0
180.31,152.0
180.37,163.0
180.43,151.0
180.49,179.0
180.56,171.0
180.62,193.0
180.68,187.0
180.75,195.0
180.81,213.0
180.87,222.0
180.94,225.0
181.0,219.0
181.06,237.0
181.12,245.0
181.19,260.0
181.25,267.0
181.31,243.0
181.38,262.0
181.44,267.0
181.5,255.0
181.57,268.0
181.63,251.0
181.69,258.0
181.75,244.0
181.82,250.0
181.88,261.0
181.94,268.0
182.01,258.0
182.07,285.0
182.13,256.0
182.2,256.0
182.26,239.0
182.32,210.0
182.38,205.0
182.45,203.0
182.51,192.0
182.57,205.0
182.64,213.0
182.7,229.0
182.76,237.0
182.83,248.0
182.89,247.0
182.95,239.0
183.01,237.0
183.08,224.0
183.14,226.0
183.2,224.0
183.27,225.0
183.33,222.0
183.39,203.0
183.46,192.0
183.52,212.0
183.58,198.0
183.64,216.0
183.71,221.0
183.77,195.0
183.83,173.0
183.9,166.0
183.96,163.0
184.02,160.0
184.09,135.0
184.15,106.0
184.21,127.0
184.27,131.0
184.34,106.0
184.4,111.0
184.46,107.0
184.53,118.0
184.59,118.0
184.65,133.0
184.72,130.0
184.78,144.0
184.84,149.0
184.9,149.0
184.97,157.0
185.03,152.0
185.09,138.0
185.16,138.0
185.22,133.0
185.28,133.0
185.35,129.0
185.41,124.0
185.47,121.0
185.53,121.0
185.6,141.0
185.66,147.0
185.72,148.0
185.79,124.0
185.85,135.0
185.91,139.0
185.98,128.0
186.04,130.0
186.1,142.0
186.16,154.0
186.23,147.0
186.29,159.0
186.35,132.0
186.42,137.0
186.48,150.0
186.54,144.0
186.61,143.0
186.67,140.0
186.73,154.0
186.79,141.0
186.86,157.0
186.92,147.0
186.98,140.0
187.05,164.0
187.11,179.0
187.17,149.0
187.24,168.0
187.3,165.0
187.36,139.0
187.42,152.0
187.49,126.0
187.55,111.0
187.61,103.0
187.68,78.0
187.74,83.0
187.8,93.0
187.87,103.0
187.93,110.0
187.99,94.0
188.05,99.0
188.12,80.0
188.18,93.0
188.24,115.0
188.31,118.0
188.37,117.0
188.43,100.0
188.5,99.0
188.56,107.0
188.62,121.0
188.68,138.0
188.75,145.0
188.81,138.0
188.87,141.0
188.94,140.0
189.0,138.0
189.06,121.0
189.13,115.0
189.19,139.0
189.25,136.0
189.31,138.0
189.38,147.0
189.44,156.0
189.5,159.0
189.57,157.0
189.63,162.0
189.69,139.0
189.76,116.0
189.82,109.0
189.88,109.0
189.94,100.0
190.01,89.0
190.07,131.0
190.13,132.0
190.2,135.0
190.26,146.0
190.32,139.0
190.39,144.0
190.45,121.0
190.51,128.0
190.57,130.0
190.64,133.0
190.7,126.0
190.76,124.0
190.83,113.0
190.89,125.0
190.95,155.0
191.02,132.0
191.08,128.0
191.14,127.0
191.2,120.0
191.27,113.0
191.33,72.0
191.39,49.0
191.46,39.0
191.52,34.0
191.58,47.0
191.65,71.0
191.71,83.0
191.77,49.0
191.83,42.0
191.9,39.0
191.96,15.0
192.02,30.0
192.09,26.0
192.15,21.0
192.21,46.0
192.28,47.0
192.34,53.0
192.4,58.0
192.46,50.0
192.53,56.0
192.59,38.0
192.65,48.0
192.72,25.0
192.78,-13.0
192.84,-5.0
192.91,-10.0
192.97,-14.0
193.03,-20.0
193.09,-36.0
193.16,-18.0
193.22,-31.0
193.28,-36.0
193.35,-27.0
193.41,-25.0
193.47,-19.0
193.54,-28.0
193.6,-23.0
193.66,-18.0
193.72,-21.0
193.79,1.0
193.85,14.0
193.91,7.0
193.98,-1.0
194.04,15.0
194.1,2.0
194.17,26.0
194.23,3.0
194.29,13.0
194.35,26.0
194.42,35.0
194.48,40.0
194.54,51.0
194.61,44.0
194.67,34.0
194.73,44.0
194.8,40.0
194.86,52.0
194.92,35.0
194.98,34.0
195.05,27.0
195.11,18.0
195.17,14.0
195.24,4.0
195.3,-3.0
195.36,25.0
195.43,26.0
195.49,5.0
195.55,18.0
195.61,11.0
195.68,11.0
195.74,3.0
195.8,21.0
195.87,27.0
195.93,28.0
195.99,30.0
196.06,25.0
196.12,38.0
196.18,58.0
196.24,52.0
196.31,40.0
196.37,41.0
196.43,54.0
196.5,43.0
196.56,29.0
196.62,54.0
196.69,49.0
196.75,39.0
196.81,43.0
196.87,51.0
196.94,50.0
197.0,41.0
197.06,14.0
197.13,13.0
197.19,7.0
197.25,6.0
197.32,-6.0
197.38,-10.0
197.44,11.0
197.5,4.0
197.57,15.0
197.63,11.0
197.69,23.0
197.76,35.0
197.82,35.0
197.88,39.0
197.95,44.0
198.01,41.0
198.07,78.0
198.13,69.0
198.2,69.0
198.26,63.0
198.32,87.0
198.39,75.0
198.45,72.0
198.51,84.0
198.58,66.0
198.64,62.0
198.7,19.0
198.76,25.0
198.83,19.0
198.89,39.0
198.95,43.0
199.02,29.0
199.08,21.0
199.14,42.0
199.21,37.0
199.27,32.0
199.33,46.0
199.39,25.0
199.46,3.0
199.52,1.0
199.58,-1.0
199.65,2.0
199.71,5.0
199.77,9.0
199.84,24.0
199.9,36.0
199.96,20.0
200.02,30.0
200.09,21.0
200.15,3.0
200.21,9.0
200.28,1.0
200.34,4.0
200.4,17.0
200.47,9.0
200.53,13.0
200.59,22.0
200.65,13.0
200.72,-1.0
200.78,8.0
200.84,-8.0
200.91,-16.0
200.97,-24.0
201.03,-20.0
201.1,-12.0
201.16,-5.0
201.22,0.0
201.28,6.0
201.35,22.0
201.41,18.0
201.47,22.0
201.54,34.0
201.6,26.0
201.66,21.0
201.73,17.0
201.79,-1.0
201.85,16.0
201.91,22.0
201.98,17.0
202.04,39.0
202.1,69.0
202.17,65.0
202.23,68.0
202.29,66.0
202.36,57.0
202.42,58.0
202.48,59.0
202.54,73.0
202.61,64.0
202.67,53.0
202.73,69.0
202.8,92.0
202.86,84.0
202.92,102.0
202.99,87.0
203.05,88.0
203.11,84.0
203.17,66.0
203.24,89.0
203.3,85.0
203.36,103.0
203.43,85.0
203.49,98.0
203.55,83.0
203.62,95.0
203.68,114.0
203.74,99.0
203.8,108.0
203.87,96.0
203.93,90.0
203.99,96.0
204.06,72.0
204.12,85.0
204.18,90.0
204.25,90.0
204.31,96.0
204.37,112.0
204.43,104.0
204.5,109.0
204.56,71.0
204.62,86.0
204.69,98.0
204.75,73.0
204.81,75.0
204.88,72.0
204.94,80.0
205.0,91.0
205.06,105.0
205.13,117.0
205.19,118.0
205.25,113.0
205.32,128.0
205.38,127.0
205.44,116.0
205.51,119.0
205.57,127.0
205.63,160.0
205.69,176.0
205.76,158.0
205.82,178.0
205.88,197.0
205.95,183.0
206.01,201.0
206.07,199.0
206.14,209.0
206.2,205.0
206.26,181.0
206.32,178.0
206.39,194.0
206.45,183.0
206.51,183.0
206.58,194.0
206.64,196.0
206.7,205.0
206.77,192.0
206.83,187.0
206.89,195.0
206.95,187.0
207.02,191.0
207.08,200.0
207.14,214.0
207.21,228.0
207.27,239.0
207.33,212.0
207.4,210.0
207.46,202.0
207.52,214.0
207.58,198.0
207.65,201.0
207.71,192.0
207.77,205.0
207.84,186.0
207.9,189.0
207.96,186.0
208.03,193.0
208.09,197.0
208.15,191.0
208.21,188.0
208.28,193.0
208.34,183.0
208.4,173.0
208.47,180.0
208.53,170.0
208.59,159.0
208.66,186.0
208.72,169.0
208.78,171.0
208.84,172.0
208.91,146.0
208.97,130.0
209.03,131.0
209.1,133.0
209.16,124.0
209.22,111.0
209.29,95.0
209.35,100.0
209.41,103.0
209.47,109.0
209.54,114.0
209.6,131.0
209.66,120.0
209.73,103.0
209.79,80.0
209.85,82.0
209.92,60.0
209.98,68.0
210.04,63.0
210.1,55.0
210.17,49.0
210.23,49.0
210.29,63.0
210.36,57.0
210.42,50.0
210.48,50.0
210.55,48.0
210.61,38.0
210.67,33.0
210.73,36.0
210.8,40.0
210.86,40.0
210.92,61.0
210.99,72.0
211.05,73.0
211.11,73.0
211.18,62.0
211.24,52.0
211.3,68.0
211.36,68.0
211.43,62.0
211.49,57.0
211.55,49.0
211.62,59.0
211.68,83.0
211.74,102.0
211.81,83.0
211.87,95.0
211.93,101.0
211.99,94.0
212.06,84.0
212.12,88.0
212.18,65.0
212.25,73.0
212.31,80.0
212.37,75.0
212.44,47.0
212.5,34.0
212.56,57.0
212.62,60.0
212.69,78.0
212.75,46.0
212.81,51.0
212.88,70.0
212.94,59.0
213.0,49.0
213.07,41.0
213.13,68.0
213.19,72.0
213.25,89.0
213.32,91.0
213.38,79.0
213.44,84.0
213.51,73.0
213.57,80.0
213.63,81.0
213.7,88.0
213.76,96.0
213.82,113.0
213.88,114.0
213.95,107.0
214.01,114.0
214.07,136.0
214.14,129.0
214.2,130.0
214.26,143.0
214.33,135.0
214.39,121.0
214.45,137.0
214.51,120.0
214.58,145.0
214.64,159.0
214.7,135.0
214.77,161.0
214.83,149.0
214.89,135.0
214.96,159.0
215.02,123.0
215.08,123.0
215.14,124.0
215.21,141.0
215.27,142.0
215.33,128.0
215.4,159.0
215.46,154.0
215.52,157.0
215.59,161.0
215.65,164.0
215.71,154.0
215.77,156.0
215.84,179.0
215.9,170.0
215.96,149.0
216.03,150.0
216.09,173.0
216.15,143.0
216.22,161.0
216.28,154.0
216.34,152.0
216.4,137.0
216.47,130.0
216.53,128.0
216.59,120.0
216.66,92.0
216.72,92.0
216.78,85.0
216.85,71.0
216.91,70.0
216.97,78.0
217.03,66.0
217.1,54.0
217.16,52.0
217.22,49.0
217.29,22.0
217.35,41.0
217.41,48.0
217.48,36.0
217.54,26.0
217.6,20.0
217.66,32.0
217.73,56.0
217.79,51.0
217.85,52.0
217.92,57.0
217.98,42.0
218.04,41.0
218.11,21.0
218.17,39.0
218.23,10.0
218.29,12.0
218.36,37.0
218.42,15.0
218.48,16.0
218.55,10.0
218.61,3.0
218.67,16.0
218.74,9.0
218.8,2.0
218.86,19.0
218.92,8.0
218.99,51.0
219.05,40.0
219.11,43.0
219.18,44.0
219.24,42.0
219.3,51.0
219.37,26.0
219.43,25.0
219.49,51.0
219.55,40.0
219.62,33.0
219.68,29.0
219.74,44.0
219.81,48.0
219.87,44.0
219.93,48.0
220.0,63.0
220.06,75.0
220.12,34.0
220.18,49.0
220.25,63.0
220.31,58.0
220.37,51.0
220.44,67.0
220.5,81.0
220.56,68.0
220.63,73.0
220.69,81.0
220.75,71.0
220.81,98.0
220.88,121.0
220.94,100.0
221.0,102.0
221.07,90.0
221.13,111.0
221.19,130.0
221.26,113.0
221.32,103.0
221.38,80.0
221.44,107.0
221.51,111.0
221.57,126.0
221.63,132.0
221.7,137.0
221.76,121.0
221.82,121.0
221.89,114.0
221.95,111.0
222.01,76.0
222.07,61.0
222.14,81.0
222.2,58.0
222.26,70.0
222.33,76.0
222.39,84.0
222.45,88.0
222.52,104.0
222.58,97.0
222.64,74.0
222.7,66.0
222.77,76.0
222.83,74.0
222.89,69.0
222.96,67.0
223.02,48.0
223.08,60.0
223.15,55.0
223.21,40.0
223.27,73.0
223.33,61.0
223.4,74.0
223.46,51.0
223.52,55.0
223.59,55.0
223.65,47.0
223.71,48.0
223.78,58.0
223.84,36.0
223.9,44.0
223.96,66.0
224.03,55.0
224.09,53.0
224.15,50.0
224.22,28.0
224.28,6.0
224.34,20.0
224.41,18.0
224.47,-6.0
224.53,0.0
224.59,29.0
224.66,21.0
224.72,38.0
224.78,21.0
224.85,5.0
224.91,20.0
224.97,21.0
225.04,3.0
225.1,13.0
225.16,19.0
225.22,8.0
225.29,-5.0
225.35,5.0
225.41,9.0
225.48,12.0
225.54,44.0
225.6,47.0
225.67,15.0
225.73,32.0
225.79,20.0
225.85,46.0
225.92,31.0
225.98,30.0
226.04,34.0
226.11,27.0
226.17,40.0
226.23,15.0
226.3,6.0
226.36,7.0
226.42,8.0
226.48,-3.0
226.55,-14.0
226.61,-11.0
226.67,-4.0
226.74,0.0
226.8,3.0
226.86,-2.0
226.93,7.0
226.99,13.0
227.05,0.0
227.11,20.0
227.18,39.0
227.24,30.0
227.3,38.0
227.37,35.0
227.43,26.0
227.49,10.0
227.56,19.0
227.62,49.0
227.68,37.0
227.74,43.0
227.81,56.0
227.87,38.0
227.93,43.0
228.0,64.0
228.06,74.0
228.12,76.0
228.19,54.0
228.25,64.0
228.31,92.0
228.37,95.0
228.44,82.0
228.5,82.0
228.56,80.0
228.63,92.0
228.69,73.0
228.75,61.0
228.82,83.0
228.88,99.0
228.94,65.0
229.0,81.0
229.07,49.0
229.13,38.0
229.19,61.0
229.26,57.0
229.32,53.0
229.38,47.0
229.45,21.0
229.51,63.0
229.57,75.0
229.63,68.0
229.7,86.0
229.76,107.0
229.82,110.0
229.89,110.0
229.95,102.0
230.01,116.0
230.08,122.0
230.14,130.0
230.2,102.0
230.26,104.0
230.33,122.0
230.39,106.0
230.45,133.0
230.52,139.0
230.58,117.0
230.64,123.0
230.71,158.0
230.77,156.0
230.83,145.0
230.89,139.0
230.96,119.0
231.02,132.0
231.08,131.0
231.15,157.0
231.21,149.0
231.27,130.0
231.34,156.0
231.4,137.0
231.46,131.0
231.52,146.0
231.59,126.0
231.65,146.0
231.71,127.0
231.78,125.0
231.84,130.0
231.9,122.0
231.97,138.0
232.03,148.0
232.09,137.0
232.15,138.0
232.22,132.0
232.28,110.0
232.34,101.0
232.41,124.0
232.47,108.0
232.53,122.0
232.6,117.0
232.66,126.0
232.72,123.0
232.78,120.0
232.85,100.0
232.91,109.0
232.97,139.0
233.04,133.0
233.1,119.0
233.16,120.0
233.23,120.0
233.29,115.0
233.35,109.0
233.41,122.0
233.48,129.0
233.54,113.0
233.6,136.0
233.67,147.0
233.73,133.0
233.79,129.0
233.86,149.0
233.92,134.0
233.98,129.0
234.04,109.0
234.11,98.0
234.17,126.0
234.23,97.0
234.3,95.0
234.36,92.0
234.42,60.0
234.49,58.0
234.55,66.0
234.61,65.0
234.67,24.0
234.74,34.0
234.8,24.0
234.86,39.0
234.93,40.0
234.99,33.0
235.05,34.0
235.12,43.0
235.18,57.0
235.24,39.0
235.3,42.0
235.37,32.0
235.43,39.0
235.49,48.0
235.56,50.0
235.62,50.0
235.68,46.0
235.75,65.0
235.81,54.0
235.87,57.0
235.93,67.0
236.0,73.0
236.06,53.0
236.12,65.0
236.19,48.0
236.25,48.0
236.31,36.0
236.38,34.0
236.44,28.0
236.5,41.0
236.56,52.0
236.63,50.0
236.69,60.0
236.75,48.0
236.82,65.0
236.88,67.0
236.94,46.0
237.01,76.0
237.07,75.0
237.13,76.0
237.19,75.0
237.26,71.0
237.32,91.0
237.38,101.0
237.45,85.0
237.51,72.0
237.57,97.0
237.64,92.0
237.7,89.0
237.76,87.0
237.82,77.0
237.89,80.0
237.95,92.0
238.01,98.0
238.08,74.0
238.14,71.0
238.2,101.0
238.27,98.0
238.33,109.0
238.39,105.0
238.45,103.0
238.52,98.0
238.58,89.0
238.64,105.0
238.71,96.0
238.77,83.0
238.83,91.0
238.9,116.0
238.96,108.0
239.02,89.0
239.08,93.0
239.15,104.0
239.21,100.0
239.27,111.0
239.34,100.0
239.4,99.0
239.46,113.0
239.53,123.0
239.59,116.0
239.65,127.0
239.71,129.0
239.78,136.0
239.84,147.0
239.9,152.0
239.97,133.0
240.03,134.0
240.09,139.0
240.16,144.0
240.22,135.0
240.28,137.0
240.34,155.0
240.41,161.0
240.47,179.0
240.53,157.0
240.6,149.0
240.66,179.0
240.72,196.0
240.79,170.0
240.85,161.0
240.91,185.0
240.97,181.0
241.04,164.0
241.1,160.0
241.16,153.0
241.23,161.0
241.29,156.0
241.35,146.0
241.42,147.0
241.48,131.0
241.54,138.0
241.6,137.0
241.67,139.0
241.73,122.0
241.79,108.0
241.86,94.0
241.92,101.0
241.98,135.0
242.05,105.0
242.11,117.0
242.17,109.0
242.23,106.0
242.3,109.0
242.36,97.0
242.42,111.0
242.49,102.0
242.55,122.0
242.61,91.0
242.68,94.0
242.74,108.0
242.8,115.0
242.86,111.0
242.93,112.0
242.99,124.0
243.05,122.0
243.12,107.0
243.18,80.0
243.24,92.0
243.31,105.0
243.37,98.0
243.43,106.0
243.49,98.0
243.56,84.0
243.62,109.0
243.68,78.0
243.75,98.0
243.81,86.0
243.87,79.0
243.94,73.0
244.0,76.0
244.06,81.0
244.12,88.0
244.19,85.0
244.25,92.0
244.31,86.0
244.38,98.0
244.44,83.0
244.5,77.0
244.57,79.0
244.63,79.0
244.69,104.0
244.75,83.0
244.82,76.0
244.88,84.0
244.94,81.0
245.01,81.0
245.07,65.0
245.13,64.0
245.2,69.0
245.26,82.0
245.32,78.0
245.38,66.0
245.45,72.0
245.51,70.0
245.57,96.0
245.64,94.0
245.7,75.0
245.76,80.0
245.83,84.0
245.89,95.0
245.95,78.0
246.01,73.0
246.08,60.0
246.14,75.0
246.2,91.0
246.27,76.0
246.33,88.0
246.39,88.0
246.46,98.0
246.52,102.0
246.58,100.0
246.64,111.0
246.71,90.0
246.77,98.0
246.83,131.0
246.9,120.0
246.96,147.0
247.02,145.0
247.09,151.0
247.15,157.0
247.21,134.0
247.27,139.0
247.34,142.0
247.4,148.0
247.46,124.0
247.53,133.0
247.59,148.0
247.65,144.0
247.72,135.0
247.78,127.0
247.84,130.0
247.9,117.0
247.97,100.0
248.03,123.0
248.09,117.0
248.16,130.0
248.22,147.0
248.28,130.0
248.35,153.0
248.41,140.0
248.47,150.0
248.53,130.0
248.6,128.0
248.66,125.0
248.72,130.0
248.79,114.0
248.85,125.0
248.91,116.0
248.98,122.0
249.04,131.0
249.1,130.0
249.16,131.0
249.23,126.0
249.29,152.0
249.35,129.0
249.42,100.0
249.48,102.0
249.54,95.0
249.61,74.0
249.67,89.0
249.73,75.0
249.79,75.0
249.86,68.0
249.92,52.0
249.98,42.0
250.05,28.0
250.11,25.0
250.17,18.0
250.24,19.0
250.3,21.0
250.36,33.0
250.42,17.0
250.49,17.0
250.55,15.0
250.61,14.0
250.68,8.0
250.74,16.0
250.8,24.0
250.87,-2.0
250.93,-4.0
250.99,31.0
251.05,29.0
251.12,15.0
251.18,19.0
251.24,23.0
251.31,-3.0
251.37,3.0
251.43,-12.0
251.5,-20.0
251.56,-15.0
251.62,-11.0
251.68,-37.0
251.75,-33.0
251.81,-51.0
251.87,-41.0
251.94,-53.0
252.0,-37.0
252.06,-42.0
252.13,-23.0
252.19,-14.0
252.25,-11.0
252.31,-17.0
252.38,9.0
252.44,3.0
252.5,8.0
252.57,22.0
252.63,29.0
252.69,41.0
252.76,55.0
252.82,64.0
252.88,46.0
252.94,61.0
253.01,36.0
253.07,62.0
253.13,63.0
253.2,64.0
253.26,104.0
253.32,77.0
253.39,61.0
253.45,82.0
253.51,77.0
253.57,74.0
253.64,97.0
253.7,85.0
253.76,74.0
253.83,75.0
253.89,75.0
253.95,68.0
254.02,74.0
254.08,84.0
254.14,69.0
254.2,85.0
254.27,70.0
254.33,71.0
254.39,67.0
254.46,69.0
254.52,64.0
254.58,71.0
254.65,91.0
254.71,87.0
254.77,86.0
254.83,64.0
254.9,90.0
254.96,102.0
255.02,106.0
255.09,110.0
255.15,130.0
255.21,132.0
255.28,135.0
255.34,141.0
255.4,146.0
255.46,146.0
255.53,141.0
255.59,144.0
255.65,147.0
255.72,154.0
255.78,146.0
255.84,140.0
255.91,150.0
255.97,155.0
256.03,143.0
256.09,145.0
256.16,152.0
256.22,173.0
256.28,167.0
256.35,167.0
256.41,166.0
256.47,170.0
256.54,183.0
256.6,193.0
256.66,164.0
256.72,162.0
256.79,168.0
256.85,176.0
256.91,174.0
256.98,164.0
257.04,168.0
257.1,167.0
257.17,162.0
257.23,168.0
257.29,163.0
257.35,143.0
257.42,137.0
257.48,150.0
257.54,133.0
257.61,131.0
257.67,139.0
257.73,137.0
257.8,145.0
257.86,157.0
257.92,159.0
257.98,145.0
258.05,144.0
258.11,165.0
258.17,158.0
258.24,168.0
258.3,178.0
258.36,174.0
258.43,173.0
258.49,162.0
258.55,174.0
258.61,159.0
258.68,150.0
258.74,137.0
258.8,140.0
258.87,127.0
258.93,117.0
258.99,119.0
259.06,118.0
259.12,103.0
259.18,109.0
259.24,99.0
259.31,101.0
259.37,129.0
259.43,122.0
259.5,135.0
259.56,118.0
259.62,116.0
259.69,126.0
259.75,104.0
259.81,91.0
259.87,102.0
259.94,99.0
260.0,113.0
260.06,102.0
260.13,131.0
260.19,109.0
260.25,125.0
260.32,124.0
260.38,131.0
260.44,144.0
260.5,157.0
260.57,165.0
260.63,147.0
260.69,126.0
260.76,140.0
260.82,152.0
260.88,141.0
260.95,130.0
261.01,123.0
261.07,105.0
261.13,102.0
261.2,86.0
261.26,77.0
261.32,78.0
261.39,60.0
261.45,86.0
261.51,98.0
261.58,100.0
261.64,68.0
261.7,65.0
261.76,74.0
261.83,73.0
261.89,74.0
261.95,69.0
262.02,64.0
262.08,89.0
262.14,86.0
262.21,99.0
262.27,94.0
262.33,104.0
262.39,98.0
262.46,103.0
262.52,108.0
262.58,113.0
262.65,116.0
262.71,118.0
262.77,93.0
262.84,91.0
262.9,104.0
262.96,117.0
263.02,126.0
263.09,93.0
263.15,127.0
263.21,145.0
263.28,119.0
263.34,122.0
263.4,130.0
263.47,130.0
263.53,109.0
263.59,105.0
263.65,139.0
263.72,127.0
263.78,115.0
263.84,125.0
263.91,115.0
263.97,114.0
264.03,116.0
264.1,124.0
264.16,112.0
264.22,104.0
264.28,106.0
264.35,102.0
264.41,111.0
264.47,97.0
264.54,109.0
264.6,109.0
264.66,108.0
264.73,93.0
264.79,102.0
264.85,122.0
264.91,123.0
264.98,132.0
265.04,113.0
265.1,112.0
265.17,118.0
265.23,130.0
265.29,115.0
265.36,108.0
265.42,94.0
265.48,96.0
265.54,107.0
265.61,100.0
265.67,110.0
265.73,125.0
265.8,119.0
265.86,142.0
265.92,130.0
265.99,127.0
266.05,155.0
266.11,118.0
266.17,133.0
266.24,148.0
266.3,128.0
266.36,126.0
266.43,132.0
266.49,143.0
266.55,140.0
266.62,137.0
266.68,162.0
266.74,152.0
266.8,162.0
266.87,136.0
266.93,146.0
266.99,159.0
267.06,127.0
267.12,132.0
267.18,119.0
267.25,143.0
267.31,146.0
267.37,124.0
267.43,139.0
267.5,126.0
267.56,114.0
267.62,126.0
267.69,133.0
267.75,125.0
267.81,114.0
267.88,98.0
267.94,116.0
268.0,117.0
268.06,112.0
268.13,103.0
268.19,85.0
268.25,99.0
268.32,93.0
268.38,85.0
268.44,56.0
268.51,78.0
268.57,108.0
268.63,86.0
268.69,80.0
268.76,58.0
268.82,63.0
268.88,61.0
268.95,62.0
269.01,70.0
269.07,86.0
269.14,76.0
269.2,63.0
269.26,41.0
269.32,26.0
269.39,24.0
269.45,21.0
269.51,9.0
269.58,4.0
269.64,-2.0
269.7,14.0
269.77,34.0
269.83,12.0
269.89,17.0
269.95,45.0
270.02,23.0
270.08,38.0
270.14,42.0
270.21,42.0
270.27,49.0
270.33,37.0
270.4,51.0
270.46,48.0
270.52,60.0
270.58,55.0
270.65,58.0
270.71,61.0
270.77,32.0
270.84,23.0
270.9,22.0
270.96,45.0
271.03,43.0
271.09,31.0
271.15,21.0
271.21,34.0
271.28,29.0
271.34,20.0
271.4,5.0
271.47,22.0
271.53,15.0
271.59,7.0
271.66,12.0
271.72,5.0
271.78,12.0
271.84,13.0
271.91,16.0
271.97,24.0
272.03,30.0
272.1,42.0
272.16,39.0
272.22,47.0
272.29,69.0
272.35,53.0
272.41,41.0
272.47,41.0
272.54,58.0
272.6,50.0
272.66,65.0
272.73,58.0
272.79,71.0
272.85,55.0
272.92,34.0
272.98,45.0
273.04,56.0
273.1,48.0
273.17,47.0
273.23,55.0
273.29,35.0
273.36,23.0
273.42,8.0
273.48,25.0
273.55,14.0
273.61,45.0
273.67,39.0
273.73,16.0
273.8,17.0
273.86,30.0
273.92,33.0
273.99,31.0
274.05,33.0
274.11,24.0
274.18,21.0
274.24,23.0
274.3,38.0
274.36,33.0
274.43,39.0
274.49,49.0
274.55,52.0
274.62,52.0
274.68,50.0
274.74,45.0
274.81,52.0
274.87,77.0
274.93,68.0
274.99,84.0
275.06,97.0
275.12,82.0
275.18,56.0
275.25,43.0
275.31,48.0
275.37,52.0
275.44,52.0
275.5,46.0
275.56,48.0
275.62,47.0
275.69,60.0
275.75,47.0
275.81,53.0
275.88,30.0
275.94,30.0
276.0,42.0
276.07,15.0
276.13,8.0
276.19,22.0
276.25,13.0
276.32,17.0
276.38,10.0
276.44,12.0
276.51,8.0
276.57,11.0
276.63,-5.0
276.7,16.0
276.76,-11.0
276.82,-16.0
276.88,-22.0
276.95,-50.0
277.01,-42.0
277.07,-29.0
277.14,-27.0
277.2,-26.0
277.26,-24.0
277.33,-30.0
277.39,-14.0
277.45,-9.0
277.51,-26.0
277.58,-27.0
277.64,-34.0
277.7,-29.0
277.77,-23.0
277.83,-6.0
277.89,-26.0
277.96,-7.0
278.02,-20.0
278.08,-7.0
278.14,-13.0
278.21,-9.0
278.27,-10.0
278.33,-10.0
278.4,2.0
278.46,19.0
278.52,-5.0
278.59,-5.0
278.65,25.0
278.71,7.0
278.77,8.0
278.84,21.0
278.9,12.0
278.96,30.0
279.03,38.0
279.09,44.0
279.15,33.0
279.22,51.0
279.28,73.0
279.34,79.0
279.4,91.0
279.47,77.0
279.53,98.0
279.59,95.0
279.66,95.0
279.72,102.0
279.78,93.0
279.85,96.0
279.91,97.0
279.97,114.0
280.03,119.0
280.1,117.0
280.16,131.0
280.22,132.0
280.29,136.0
280.35,125.0
280.41,142.0
280.48,158.0
280.54,142.0
280.6,138.0
280.66,133.0
280.73,121.0
280.79,133.0
280.85,136.0
280.92,140.0
280.98,165.0
281.04,161.0
281.11,179.0
281.17,171.0
281.23,173.0
281.29,193.0
281.36,200.0
281.42,200.0
281.48,178.0
281.55,200.0
281.61,225.0
281.67,233.0
281.74,224.0
281.8,197.0
281.86,195.0
281.92,184.0
281.99,206.0
282.05,194.0
282.11,190.0
282.18,211.0
282.24,216.0
282.3,214.0
282.37,198.0
282.43,195.0
282.49,209.0
282.55,214.0
282.62,212.0
282.68,207.0
282.74,212.0
282.81,197.0
282.87,198.0
282.93,189.0
283.0,200.0
283.06,198.0
283.12,204.0
283.18,222.0
283.25,203.0
283.31,184.0
283.37,216.0
283.44,228.0
283.5,217.0
283.56,202.0
283.63,187.0
283.69,194.0
283.75,185.0
283.81,197.0
283.88,190.0
283.94,178.0
284.0,175.0
284.07,168.0
284.13,162.0
284.19,164.0
284.26,147.0
284.32,150.0
284.38,144.0
284.44,129.0
284.51,146.0
284.57,150.0
284.63,153.0
284.7,162.0
284.76,167.0
284.82,155.0
284.89,131.0
284.95,120.0
285.01,128.0
285.07,117.0
285.14,115.0
285.2,101.0
285.26,124.0
285.33,119.0
285.39,143.0
285.45,145.0
285.52,119.0
285.58,101.0
285.64,118.0
285.7,114.0
285.77,108.0
285.83,86.0
285.89,81.0
285.96,94.0
286.02,105.0
286.08,115.0
286.15,122.0
286.21,128.0
286.27,152.0
286.33,169.0
286.4,150.0
286.46,143.0
286.52,157.0
286.59,143.0
286.65,155.0
286.71,150.0
286.78,131.0
286.84,155.0
286.9,149.0
286.96,161.0
287.03,171.0
287.09,144.0
287.15,164.0
287.22,157.0
287.28,161.0
287.34,168.0
287.41,169.0
287.47,149.0
287.53,152.0
287.59,150.0
287.66,143.0
287.72,143.0
287.78,135.0
287.85,140.0
287.91,140.0
287.97,153.0
288.04,158.0
288.1,168.0
288.16,150.0
288.22,168.0
288.29,159.0
288.35,171.0
288.41,165.0
288.48,175.0
288.54,169.0
288.6,177.0
288.67,183.0
288.73,150.0
288.79,141.0
288.85,147.0
288.92,156.0
288.98,146.0
289.04,140.0
289.11,142.0
289.17,143.0
289.23,142.0
289.3,155.0
289.36,162.0
289.42,167.0
289.48,159.0
289.55,162.0
289.61,164.0
289.67,162.0
289.74,141.0
289.8,162.0
289.86,139.0
289.93,143.0
289.99,141.0
290.05,159.0
290.11,163.0
290.18,186.0
290.24,183.0
290.3,173.0
290.37,170.0
290.43,172.0
290.49,176.0
290.56,155.0
290.62,156.0
290.68,146.0
290.74,144.0
290.81,147.0
290.87,155.0
290.93,154.0
291.0,131.0
291.06,138.0
291.12,136.0
291.19,147.0
291.25,154.0
291.31,154.0
291.37,176.0
291.44,164.0
291.5,167.0
291.56,168.0
291.63,167.0
291.69,178.0
291.75,156.0
291.82,155.0
291.88,155.0
291.94,169.0
292.0,139.0
292.07,151.0
292.13,158.0
292.19,158.0
292.26,157.0
292.32,139.0
292.38,165.0
292.45,147.0
292.51,172.0
292.57,148.0
292.63,150.0
292.7,151.0
292.76,150.0
292.82,167.0
292.89,134.0
292.95,148.0
293.01,137.0
293.08,123.0
293.14,134.0
293.2,146.0
293.26,132.0
293.33,135.0
293.39,131.0
293.45,131.0
293.52,145.0
293.58,120.0
293.64,132.0
293.71,112.0
293.77,120.0
293.83,110.0
293.89,113.0
293.96,115.0
294.02,108.0
294.08,107.0
294.15,77.0
294.21,122.0
294.27,92.0
294.34,94.0
294.4,93.0
294.46,97.0
294.52,102.0
294.59,80.0
294.65,92.0
294.71,99.0
294.78,123.0
294.84,121.0
294.9,94.0
294.97,91.0
295.03,100.0
295.09,119.0
295.15,114.0
295.22,110.0
295.28,105.0
295.34,95.0
295.41,114.0
295.47,109.0
295.53,102.0
295.6,101.0
295.66,90.0
295.72,62.0
295.78,88.0
295.85,64.0
295.91,48.0
295.97,56.0
296.04,41.0
296.1,41.0
296.16,33.0
296.23,18.0
296.29,38.0
296.35,57.0
296.41,42.0
296.48,66.0
296.54,38.0
296.6,44.0
296.67,43.0
296.73,58.0
296.79,77.0
296.86,52.0
296.92,52.0
296.98,39.0
297.04,39.0
297.11,50.0
297.17,49.0
297.23,66.0
297.3,72.0
297.36,80.0
297.42,88.0
297.49,91.0
297.55,95.0
297.61,99.0
297.67,98.0
297.74,95.0
297.8,97.0
297.86,75.0
297.93,76.0
297.99,89.0
298.05,71.0
298.12,67.0
298.18,74.0
298.24,85.0
298.3,88.0
298.37,76.0
298.43,84.0
298.49,77.0
298.56,73.0
298.62,70.0
298.68,57.0
298.75,47.0
298.81,63.0
298.87,55.0
298.93,63.0
299.0,68.0
299.06,66.0
299.12,74.0
299.19,59.0
299.25,59.0
299.31,48.0
299.38,77.0
299.44,73.0
299.5,83.0
299.56,109.0
299.63,104.0
299.69,101.0
299.75,111.0
299.82,100.0
299.88,98.0
299.94,97.0
300.01,93.0
300.07,106.0
300.13,104.0
300.19,72.0
300.26,83.0
300.32,82.0
300.38,69.0
300.45,52.0
300.51,33.0
300.57,47.0
300.64,24.0
300.7,51.0
300.76,39.0
300.82,27.0
300.89,38.0
300.95,29.0
301.01,35.0
301.08,21.0
301.14,4.0
301.2,-3.0
301.27,10.0
301.33,3.0
301.39,-8.0
301.45,11.0
301.52,8.0
301.58,10.0
301.64,-3.0
301.71,16.0
301.77,0.0
301.83,8.0
301.9,-8.0
301.96,-13.0
302.02,-18.0
302.08,-27.0
302.15,-21.0
302.21,-31.0
302.27,-21.0
302.34,-32.0
302.4,-32.0
302.46,-44.0
302.53,-50.0
302.59,-42.0
302.65,-35.0
302.71,-39.0
302.78,-40.0
302.84,-49.0
302.9,-62.0
302.97,-64.0
303.03,-35.0
303.09,-45.0
303.16,-51.0
303.22,-41.0
303.28,-39.0
303.34,-40.0
303.41,-29.0
303.47,-9.0
303.53,3.0
303.6,-34.0
303.66,-7.0
303.72,-11.0
303.79,-21.0
303.85,-15.0
303.91,-18.0
303.97,-20.0
304.04,-1.0
304.1,8.0
304.16,-16.0
304.23,-22.0
304.29,-15.0
304.35,-2.0
304.42,-6.0
304.48,-7.0
304.54,-9.0
304.6,-6.0
304.67,-3.0
304.73,-14.0
304.79,3.0
304.86,7.0
304.92,15.0
304.98,16.0
305.05,9.0
305.11,-14.0
305.17,23.0
305.23,26.0
305.3,20.0
305.36,35.0
305.42,53.0
305.49,64.0
305.55,53.0
305.61,49.0
305.68,62.0
305.74,59.0
305.8,63.0
305.86,85.0
305.93,68.0
305.99,102.0
306.05,106.0
306.12,104.0
306.18,108.0
306.24,103.0
306.31,130.0
306.37,129.0
306.43,131.0
306.49,140.0
306.56,137.0
306.62,159.0
306.68,147.0
306.75,138.0
306.81,144.0
306.87,148.0
306.94,136.0
307.0,176.0
307.06,191.0
307.12,157.0
307.19,176.0
307.25,171.0
307.31,170.0
307.38,163.0
307.44,171.0
307.5,157.0
307.57,155.0
307.63,174.0
307.69,170.0
307.75,171.0
307.82,173.0
307.88,170.0
307.94,169.0
308.01,186.0
308.07,197.0
308.13,195.0
308.2,215.0
308.26,219.0
308.32,224.0
308.38,232.0
308.45,216.0
308.51,192.0
308.57,195.0
308.64,212.0
308.7,229.0
308.76,213.0
308.83,214.0
308.89,204.0
308.95,207.0
309.01,190.0
309.08,188.0
309.14,180.0
309.2,181.0
309.27,160.0
309.33,155.0
309.39,158.0
309.46,159.0
309.52,150.0
309.58,146.0
309.64,151.0
309.71,136.0
309.77,130.0
309.83,121.0
309.9,130.0
309.96,123.0
310.02,124.0
310.09,138.0
310.15,138.0
310.21,137.0
310.27,115.0
310.34,132.0
310.4,136.0
310.46,132.0
310.53,143.0
310.59,132.0
310.65,139.0
310.72,119.0
310.78,122.0
310.84,119.0
310.9,123.0
310.97,118.0
311.03,112.0
311.09,120.0
311.16,114.0
311.22,123.0
311.28,105.0
311.35,89.0
311.41,104.0
311.47,117.0
311.53,96.0
311.6,89.0
311.66,111.0
311.72,108.0
311.79,117.0
311.85,111.0
311.91,134.0
311.98,136.0
312.04,134.0
312.1,160.0
312.16,147.0
312.23,150.0
312.29,144.0
312.35,163.0
312.42,149.0
312.48,154.0
312.54,162.0
312.61,148.0
312.67,182.0
312.73,169.0
312.79,169.0
312.86,188.0
312.92,224.0
312.98,187.0
313.05,187.0
313.11,207.0
313.17,210.0
313.24,216.0
313.3,206.0
313.36,213.0
313.42,219.0
313.49,217.0
313.55,210.0
313.61,232.0
313.68,211.0
313.74,198.0
313.8,182.0
313.87,212.0
313.93,200.0
313.99,169.0
314.05,202.0
314.12,195.0
314.18,201.0
314.24,198.0
314.31,210.0
314.37,213.0
314.43,203.0
314.5,204.0
314.56,217.0
314.62,228.0
314.68,223.0
314.75,225.0
314.81,215.0
314.87,224.0
314.94,210.0
315.0,215.0
315.06,224.0
315.13,220.0
315.19,244.0
315.25,204.0
315.31,215.0
315.38,198.0
315.44,212.0
315.5,228.0
315.57,206.0
315.63,219.0
315.69,234.0
315.76,213.0
315.82,211.0
315.88,191.0
315.94,203.0
316.01,211.0
316.07,196.0
316.13,218.0
316.2,206.0
316.26,198.0
316.32,193.0
316.39,181.0
316.45,208.0
316.51,209.0
316.57,208.0
316.64,223.0
316.7,216.0
316.76,225.0
316.83,234.0
316.89,215.0
316.95,194.0
317.02,220.0
317.08,231.0
317.14,239.0
317.2,234.0
317.27,224.0
317.33,231.0
317.39,214.0
317.46,226.0
317.52,232.0
317.58,229.0
317.65,216.0
317.71,201.0
317.77,178.0
317.83,169.0
317.9,180.0
317.96,183.0
318.02,151.0
318.09,159.0
318.15,152.0
318.21,143.0
318.28,124.0
318.34,128.0
318.4,135.0
318.46,107.0
318.53,115.0
318.59,94.0
318.65,113.0
318.72,135.0
318.78,91.0
318.84,95.0
318.91,115.0
318.97,121.0
319.03,105.0
319.09,96.0
319.16,112.0
319.22,99.0
319.28,101.0
319.35,114.0
319.41,105.0
319.47,104.0
319.54,94.0
319.6,100.0
319.66,87.0
319.72,109.0
319.79,105.0
319.85,94.0
319.91,125.0
319.98,128.0
320.04,143.0
320.1,121.0
320.17,142.0
320.23,144.0
320.29,143.0
320.35,166.0
320.42,137.0
320.48,149.0
320.54,148.0
320.61,160.0
320.67,154.0
320.73,146.0
320.8,137.0
320.86,130.0
320.92,140.0
320.98,159.0
321.05,153.0
321.11,143.0
321.17,112.0
321.24,130.0
321.3,140.0
321.36,132.0
321.43,127.0
321.49,125.0
321.55,118.0
321.61,109.0
321.68,120.0
321.74,127.0
321.8,140.0
321.87,138.0
321.93,135.0
321.99,148.0
322.06,141.0
322.12,136.0
322.18,144.0
322.24,133.0
322.31,118.0
322.37,106.0
322.43,129.0
322.5,135.0
322.56,123.0
322.62,129.0
322.69,124.0
322.75,140.0
322.81,126.0
322.87,134.0
322.94,151.0
323.0,131.0
323.06,129.0
323.13,120.0
323.19,110.0
323.25,102.0
323.32,110.0
323.38,132.0
323.44,107.0
323.5,119.0
323.57,113.0
323.63,116.0
323.69,116.0
323.76,110.0
323.82,102.0
323.88,86.0
323.95,99.0
324.01,88.0
324.07,104.0
324.13,103.0
324.2,102.0
324.26,106.0
324.32,114.0
324.39,100.0
324.45,82.0
324.51,107.0
324.58,112.0
324.64,107.0
324.7,109.0
324.76,107.0
324.83,104.0
324.89,96.0
324.95,85.0
325.02,72.0
325.08,92.0
325.14,73.0
325.21,70.0
325.27,70.0
325.33,85.0
325.39,87.0
325.46,63.0
325.52,68.0
325.58,59.0
325.65,80.0
325.71,67.0
325.77,92.0
325.84,73.0
325.9,62.0
325.96,62.0
326.02,59.0
326.09,66.0
326.15,58.0
326.21,67.0
326.28,71.0
326.34,86.0
326.4,64.0
326.47,41.0
326.53,50.0
326.59,45.0
326.65,36.0
326.72,-2.0
326.78,-5.0
326.84,6.0
326.91,10.0
326.97,4.0
327.03,8.0
327.1,7.0
327.16,-3.0
327.22,23.0
327.28,12.0
327.35,16.0
327.41,12.0
327.47,-1.0
327.54,6.0
327.6,-15.0
327.66,-5.0
327.73,3.0
327.79,-2.0
327.85,16.0
327.91,5.0
327.98,-8.0
328.04,-13.0
328.1,15.0
328.17,1.0
328.23,-18.0
328.29,-19.0
328.36,-35.0
328.42,-35.0
328.48,-24.0
328.54,-27.0
328.61,-26.0
328.67,-25.0
328.73,-41.0
328.8,-41.0
328.86,-25.0
328.92,-12.0
328.99,9.0
329.05,1.0
329.11,-17.0
329.17,-5.0
329.24,-22.0
329.3,-19.0
329.36,-24.0
329.43,-14.0
329.49,-13.0
329.55,-28.0
329.62,-9.0
329.68,-3.0
329.74,7.0
329.8,4.0
329.87,11.0
329.93,-7.0
329.99,-3.0
330.06,18.0
330.12,25.0
330.18,20.0
330.25,29.0
330.31,11.0
330.37,35.0
330.43,37.0
330.5,41.0
330.56,49.0
330.62,39.0
330.69,66.0
330.75,64.0
330.81,41.0
330.88,44.0
330.94,58.0
331.0,49.0
331.06,55.0
331.13,61.0
331.19,81.0
331.25,86.0
331.32,83.0
331.38,77.0
331.44,102.0
331.51,119.0
331.57,122.0
331.63,104.0
331.69,103.0
331.76,107.0
331.82,108.0
331.88,97.0
331.95,141.0
332.01,135.0
332.07,139.0
332.14,156.0
332.2,144.0
332.26,155.0
332.32,148.0
332.39,155.0
332.45,152.0
332.51,129.0
332.58,157.0
332.64,158.0
332.7,169.0
332.77,164.0
332.83,159.0
332.89,169.0
332.95,172.0
333.02,173.0
333.08,191.0
333.14,188.0
333.21,173.0
333.27,183.0
333.33,173.0
333.4,188.0
333.46,165.0
333.52,183.0
333.58,161.0
333.65,174.0
333.71,157.0
333.77,154.0
333.84,151.0
333.9,151.0
333.96,146.0
334.03,138.0
334.09,148.0
334.15,146.0
334.21,166.0
334.28,160.0
334.34,171.0
334.4,170.0
334.47,159.0
334.53,175.0
334.59,172.0
334.66,183.0
334.72,148.0
334.78,140.0
334.84,155.0
334.91,172.0
334.97,182.0
335.03,157.0
335.1,151.0
335.16,133.0
335.22,151.0
335.29,152.0
335.35,155.0
335.41,125.0
335.47,111.0
335.54,117.0
335.6,118.0
335.66,110.0
335.73,117.0
335.79,118.0
335.85,121.0
335.92,97.0
335.98,102.0
336.04,104.0
336.1,85.0
336.17,71.0
336.23,74.0
336.29,89.0
336.36,81.0
336.42,110.0
336.48,101.0
336.55,96.0
336.61,123.0
336.67,108.0
336.73,100.0
336.8,100.0
336.86,114.0
336.92,100.0
336.99,105.0
337.05,74.0
337.11,73.0
337.18,81.0
337.24,83.0
337.3,70.0
337.36,85.0
337.43,75.0
337.49,89.0
337.55,74.0
337.62,78.0
337.68,69.0
337.74,58.0
337.81,73.0
337.87,75.0
337.93,80.0
337.99,71.0
338.06,83.0
338.12,81.0
338.18,76.0
338.25,62.0
338.31,52.0
338.37,66.0
338.44,74.0
338.5,62.0
338.56,85.0
338.62,72.0
338.69,78.0
338.75,85.0
338.81,64.0
338.88,85.0
338.94,72.0
339.0,77.0
339.07,70.0
339.13,74.0
339.19,88.0
339.25,68.0
339.32,95.0
339.38,89.0
339.44,92.0
339.51,104.0
339.57,89.0
339.63,84.0
339.7,84.0
339.76,99.0
339.82,125.0
339.88,124.0
339.95,112.0
340.01,122.0
340.07,136.0
340.14,137.0
340.2,145.0
340.26,140.0
340.33,158.0
340.39,148.0
340.45,177.0
340.51,163.0
340.58,152.0
340.64,185.0
340.7,160.0
340.77,170.0
340.83,184.0
340.89,184.0
340.96,177.0
341.02,180.0
341.08,171.0
341.14,152.0
341.21,173.0
341.27,186.0
341.33,179.0
341.4,181.0
341.46,169.0
341.52,158.0
341.59,173.0
341.65,186.0
341.71,194.0
341.77,195.0
341.84,198.0
341.9,172.0
341.96,178.0
342.03,183.0
342.09,190.0
342.15,186.0
342.22,190.0
342.28,212.0
342.34,194.0
342.4,195.0
342.47,202.0
342.53,215.0
342.59,199.0
342.66,215.0
342.72,199.0
342.78,195.0
342.85,210.0
342.91,203.0
342.97,208.0
343.03,197.0
343.1,203.0
343.16,181.0
343.22,188.0
343.29,206.0
343.35,188.0
343.41,188.0
343.48,191.0
343.54,182.0
343.6,179.0
343.66,147.0
343.73,158.0
343.79,164.0
343.85,182.0
343.92,179.0
343.98,188.0
344.04,163.0
344.11,143.0
344.17,164.0
344.23,160.0
344.29,179.0
344.36,167.0
344.42,166.0
344.48,171.0
344.55,151.0
344.61,155.0
344.67,167.0
344.74,186.0
344.8,191.0
344.86,169.0
344.92,163.0
344.99,144.0
345.05,137.0
345.11,147.0
345.18,144.0
345.24,144.0
345.3,143.0
345.37,135.0
345.43,138.0
345.49,119.0
345.55,121.0
345.62,113.0
345.68,112.0
345.74,112.0
345.81,155.0
345.87,153.0
345.93,132.0
346.0,138.0
346.06,151.0
346.12,153.0
346.18,144.0
346.25,130.0
346.31,116.0
346.37,128.0
346.44,132.0
346.5,144.0
346.56,130.0
346.63,128.0
346.69,138.0
346.75,140.0
346.81,143.0
346.88,148.0
346.94,151.0
347.0,151.0
347.07,141.0
347.13,134.0
347.19,140.0
347.26,134.0
347.32,124.0
347.38,122.0
347.44,145.0
347.51,136.0
347.57,147.0
347.63,138.0
347.7,140.0
347.76,136.0
347.82,154.0
347.89,162.0
347.95,159.0
348.01,163.0
348.07,163.0
348.14,163.0
348.2,143.0
348.26,144.0
348.33,155.0
348.39,147.0
348.45,168.0
348.52,178.0
348.58,151.0
348.64,166.0
348.7,175.0
348.77,177.0
348.83,160.0
348.89,142.0
348.96,148.0
349.02,151.0
349.08,171.0
349.15,143.0
349.21,119.0
349.27,128.0
349.33,129.0
349.4,137.0
349.46,108.0
349.52,110.0
349.59,99.0
349.65,96.0
349.71,92.0
349.78,85.0
349.84,102.0
349.9,92.0
349.96,80.0
350.03,97.0
350.09,94.0
350.15,70.0
350.22,69.0
350.28,67.0
350.34,50.0
350.41,63.0
350.47,63.0
350.53,62.0
350.59,65.0
350.66,59.0
350.72,76.0
350.78,78.0
350.85,67.0
350.91,90.0
350.97,92.0
351.04,98.0
351.1,82.0
351.16,93.0
351.22,83.0
351.29,80.0
351.35,92.0
351.41,78.0
351.48,67.0
351.54,80.0
351.6,60.0
351.67,64.0
351.73,55.0
351.79,34.0
351.85,28.0
351.92,11.0
351.98,27.0
352.04,41.0
352.11,32.0
352.17,17.0
352.23,34.0
352.3,40.0
352.36,34.0
352.42,33.0
352.48,26.0
352.55,36.0
352.61,55.0
352.67,50.0
352.74,76.0
352.8,69.0
352.86,44.0
352.93,54.0
352.99,57.0
353.05,50.0
353.11,59.0
353.18,61.0
353.24,68.0
353.3,75.0
353.37,73.0
353.43,60.0
353.49,60.0
353.56,67.0
353.62,64.0
353.68,66.0
353.74,61.0
353.81,56.0
353.87,53.0
353.93,46.0
354.0,40.0
354.06,45.0
354.12,47.0
354.19,30.0
354.25,60.0
354.31,68.0
354.37,62.0
354.44,63.0
354.5,53.0
354.56,53.0
354.63,66.0
354.69,56.0
354.75,64.0
354.82,62.0
354.88,61.0
354.94,71.0
355.0,48.0
355.07,47.0
355.13,61.0
355.19,52.0
355.26,52.0
355.32,63.0
355.38,39.0
355.45,41.0
355.51,40.0
355.57,44.0
355.63,42.0
355.7,49.0
355.76,54.0
355.82,58.0
355.89,69.0
355.95,62.0
356.01,78.0
356.08,76.0
356.14,64.0
356.2,60.0
356.26,66.0
356.33,81.0
356.39,95.0
356.45,85.0
356.52,76.0
356.58,67.0
356.64,60.0
356.71,63.0
356.77,96.0
356.83,88.0
356.89,61.0
356.96,91.0
357.02,56.0
357.08,61.0
357.15,86.0
357.21,71.0
357.27,58.0
357.34,75.0
357.4,72.0
357.46,79.0
357.52,86.0
357.59,93.0
357.65,80.0
357.71,81.0
357.78,104.0
357.84,113.0
357.9,111.0
357.97,111.0
358.03,118.0
358.09,107.0
358.15,116.0
358.22,118.0
358.28,114.0
358.34,108.0
358.41,108.0
358.47,128.0
358.53,132.0
358.6,130.0
358.66,140.0
358.72,143.0
358.78,146.0
358.85,142.0
358.91,148.0
358.97,141.0
359.04,146.0
359.1,156.0
359.16,159.0
359.23,154.0
359.29,169.0
359.35,185.0
359.41,173.0
359.48,176.0
359.54,188.0
359.6,173.0
359.67,173.0
359.73,188.0
359.79,183.0
359.86,181.0
359.92,166.0
359.98,167.0
360.04,166.0
360.11,163.0
360.17,151.0
360.23,134.0
360.3,128.0
360.36,153.0
360.42,160.0
360.49,133.0
360.55,129.0
360.61,124.0
360.67,117.0
360.74,129.0
360.8,129.0
360.86,118.0
360.93,119.0
360.99,120.0
361.05,123.0
361.12,114.0
361.18,94.0
361.24,96.0
361.3,96.0
361.37,100.0
361.43,80.0
361.49,92.0
361.56,78.0
361.62,94.0
361.68,89.0
361.75,72.0
361.81,88.0
361.87,102.0
361.93,96.0
362.0,96.0
362.06,83.0
362.12,102.0
362.19,84.0
362.25,68.0
362.31,95.0
362.38,117.0
362.44,129.0
362.5,129.0
362.56,107.0
362.63,115.0
362.69,113.0
362.75,118.0
362.82,113.0
362.88,127.0
362.94,133.0
363.01,110.0
363.07,140.0
363.13,129.0
363.19,111.0
363.26,105.0
363.32,121.0
363.38,145.0
363.45,122.0
363.51,133.0
363.57,132.0
363.64,124.0
363.7,107.0
363.76,100.0
363.82,103.0
363.89,99.0
363.95,125.0
364.01,125.0
364.08,100.0
364.14,126.0
364.2,107.0
364.27,123.0
364.33,133.0
364.39,133.0
364.45,130.0
364.52,150.0
364.58,153.0
364.64,150.0
364.71,149.0
364.77,162.0
364.83,144.0
364.9,162.0
364.96,140.0
365.02,148.0
365.08,136.0
365.15,125.0
365.21,150.0
365.27,165.0
365.34,169.0
365.4,162.0
365.46,174.0
365.53,169.0
365.59,147.0
365.65,163.0
365.71,170.0
365.78,159.0
365.84,159.0
365.9,160.0
365.97,164.0
366.03,172.0
366.09,177.0
366.16,179.0
366.22,186.0
366.28,219.0
366.34,227.0
366.41,233.0
366.47,253.0
366.53,258.0
366.6,252.0
366.66,254.0
366.72,229.0
366.79,237.0
366.85,250.0
366.91,234.0
366.97,254.0
367.04,247.0
367.1,250.0
367.16,220.0
367.23,249.0
367.29,246.0
367.35,232.0
367.42,220.0
367.48,227.0
367.54,220.0
367.6,224.0
367.67,216.0
367.73,221.0
367.79,229.0
367.86,220.0
367.92,244.0
367.98,239.0
368.05,225.0
368.11,230.0
368.17,221.0
368.23,228.0
368.3,221.0
368.36,239.0
368.42,246.0
368.49,242.0
368.55,239.0
368.61,204.0
368.68,209.0
368.74,215.0
368.8,209.0
368.86,196.0
368.93,205.0
368.99,211.0
369.05,207.0
369.12,188.0
369.18,171.0
369.24,165.0
369.31,171.0
369.37,166.0
369.43,166.0
369.49,164.0
369.56,193.0
369.62,195.0
369.68,183.0
369.75,181.0
369.81,199.0
369.87,210.0
369.94,220.0
370.0,210.0
370.06,220.0
370.12,231.0
370.19,221.0
370.25,220.0
370.31,218.0
370.38,242.0
370.44,232.0
370.5,237.0
370.57,233.0
370.63,228.0
370.69,220.0
370.75,217.0
370.82,215.0
370.88,191.0
370.94,208.0
371.01,191.0
371.07,205.0
371.13,188.0
371.2,188.0
371.26,193.0
371.32,174.0
371.38,177.0
371.45,177.0
371.51,164.0
371.57,165.0
371.64,156.0
371.7,145.0
371.76,125.0
371.83,133.0
371.89,136.0
371.95,138.0
372.01,121.0
372.08,112.0
372.14,141.0
372.2,141.0
372.27,139.0
372.33,143.0
372.39,140.0
372.46,141.0
372.52,155.0
372.58,145.0
372.64,162.0
372.71,175.0
372.77,166.0
372.83,151.0
372.9,152.0
372.96,159.0
373.02,150.0
373.09,154.0
373.15,171.0
373.21,187.0
373.27,204.0
373.34,189.0
373.4,185.0
373.46,206.0
373.53,184.0
373.59,183.0
373.65,188.0
373.72,183.0
373.78,188.0
373.84,194.0
373.9,193.0
373.97,189.0
374.03,205.0
374.09,200.0
374.16,179.0
374.22,173.0
374.28,166.0
374.35,160.0
374.41,171.0
374.47,160.0
374.53,163.0
374.6,176.0
374.66,170.0
374.72,157.0
374.79,157.0
374.85,144.0
374.91,168.0
374.98,158.0
375.04,156.0
375.1,175.0
375.16,163.0
375.23,174.0
375.29,171.0
375.35,190.0
375.42,162.0
375.48,145.0
375.54,141.0
375.61,136.0
375.67,146.0
375.73,139.0
375.79,139.0
375.86,146.0
375.92,136.0
375.98,122.0
376.05,120.0
376.11,128.0
376.17,114.0
376.24,127.0
376.3,106.0
376.36,95.0
376.42,113.0
376.49,90.0
376.55,78.0
376.61,85.0
376.68,89.0
376.74,67.0
376.8,74.0
376.87,85.0
376.93,68.0
376.99,74.0
377.05,85.0
377.12,66.0
377.18,84.0
377.24,67.0
377.31,67.0
377.37,64.0
377.43,68.0
377.5,68.0
377.56,49.0
377.62,48.0
377.68,65.0
377.75,74.0
377.81,60.0
377.87,79.0
377.94,88.0
378.0,94.0
378.06,87.0
378.13,67.0
378.19,59.0
378.25,85.0
378.31,67.0
378.38,55.0
378.44,59.0
378.5,47.0
378.57,51.0
378.63,58.0
378.69,55.0
378.76,50.0
378.82,55.0
378.88,45.0
378.94,51.0
379.01,21.0
379.07,28.0
379.13,29.0
379.2,17.0
379.26,40.0
379.32,52.0
379.39,53.0
379.45,49.0
379.51,64.0
379.57,67.0
379.64,72.0
379.7,94.0
379.76,80.0
379.83,63.0
379.89,60.0
379.95,65.0
380.02,75.0
380.08,50.0
380.14,59.0
380.2,62.0
380.27,39.0
380.33,51.0
380.39,56.0
380.46,43.0
380.52,40.0
380.58,59.0
380.65,53.0
380.71,54.0
380.77,55.0
380.83,71.0
380.9,65.0
380.96,80.0
381.02,92.0
381.09,97.0
381.15,103.0
381.21,99.0
381.28,105.0
381.34,86.0
381.4,77.0
381.46,91.0
381.53,93.0
381.59,101.0
381.65,107.0
381.72,87.0
381.78,75.0
381.84,87.0
381.91,91.0
381.97,102.0
382.03,78.0
382.09,73.0
382.16,108.0
382.22,99.0
382.28,77.0
382.35,93.0
382.41,112.0
382.47,80.0
382.54,53.0
382.6,50.0
382.66,77.0
382.72,74.0
382.79,56.0
382.85,64.0
382.91,56.0
382.98,67.0
383.04,52.0
383.1,54.0
383.17,57.0
383.23,51.0
383.29,67.0
383.35,67.0
383.42,56.0
383.48,82.0
383.54,69.0
383.61,94.0
383.67,87.0
383.73,70.0
383.8,94.0
383.86,81.0
383.92,85.0
383.98,81.0
384.05,82.0
384.11,77.0
384.17,72.0
384.24,95.0
384.3,92.0
384.36,91.0
384.43,103.0
384.49,83.0
384.55,78.0
384.61,82.0
384.68,70.0
384.74,78.0
384.8,81.0
384.87,109.0
384.93,111.0
384.99,97.0
385.06,112.0
385.12,110.0
385.18,117.0
385.24,105.0
385.31,115.0
385.37,117.0
385.43,117.0
385.5,125.0
385.56,134.0
385.62,143.0
385.69,145.0
385.75,121.0
385.81,114.0
385.87,107.0
385.94,100.0
386.0,93.0
386.06,116.0
386.13,99.0
386.19,125.0
386.25,122.0
386.32,109.0
386.38,113.0
386.44,107.0
386.5,110.0
386.57,99.0
386.63,115.0
386.69,122.0
386.76,107.0
386.82,126.0
386.88,138.0
386.95,122.0
387.01,117.0
387.07,125.0
387.13,124.0
387.2,129.0
387.26,126.0
387.32,143.0
387.39,139.0
387.45,133.0
387.51,116.0
387.58,111.0
387.64,120.0
387.7,126.0
387.76,122.0
387.83,133.0
387.89,134.0
387.95,142.0
388.02,146.0
388.08,144.0
388.14,123.0
388.21,125.0
388.27,140.0
388.33,124.0
388.39,107.0
388.46,120.0
388.52,117.0
388.58,93.0
388.65,102.0
388.71,85.0
388.77,85.0
388.84,81.0
388.9,52.0
388.96,63.0
389.02,74.0
389.09,83.0
389.15,76.0
389.21,95.0
389.28,80.0
389.34,96.0
389.4,97.0
389.47,78.0
389.53,102.0
389.59,125.0
389.65,102.0
389.72,119.0
389.78,132.0
389.84,149.0
389.91,166.0
389.97,142.0
390.03,141.0
390.1,125.0
390.16,143.0
390.22,138.0
390.28,144.0
390.35,155.0
390.41,147.0
390.47,143.0
390.54,154.0
390.6,141.0
390.66,142.0
390.73,122.0
390.79,129.0
390.85,138.0
390.91,148.0
390.98,135.0
391.04,144.0
391.1,149.0
391.17,152.0
391.23,143.0
391.29,150.0
391.36,151.0
391.42,147.0
391.48,141.0
391.54,155.0
391.61,160.0
391.67,164.0
391.73,157.0
391.8,169.0
391.86,166.0
391.92,184.0
391.99,167.0
392.05,163.0
392.11,166.0
392.17,158.0
392.24,198.0
392.3,192.0
392.36,185.0
392.43,204.0
392.49,217.0
392.55,222.0
392.62,190.0
392.68,209.0
392.74,218.0
392.8,206.0
392.87,226.0
392.93,203.0
392.99,218.0
393.06,203.0
393.12,203.0
393.18,208.0
393.25,218.0
393.31,221.0
393.37,198.0
393.43,181.0
393.5,204.0
393.56,197.0
393.62,195.0
393.69,206.0
393.75,199.0
393.81,224.0
393.88,220.0
393.94,216.0
394.0,220.0
394.06,232.0
394.13,207.0
394.19,203.0
394.25,199.0
394.32,217.0
394.38,210.0
394.44,197.0
394.51,209.0
394.57,196.0
394.63,188.0
394.69,207.0
394.76,186.0
394.82,171.0
394.88,173.0
394.95,194.0
395.01,200.0
395.07,177.0
395.14,221.0
395.2,205.0
395.26,195.0
395.32,196.0
395.39,195.0
395.45,196.0
395.51,208.0
395.58,185.0
395.64,199.0
395.7,203.0
395.77,203.0
395.83,169.0
395.89,188.0
395.95,191.0
396.02,183.0
396.08,175.0
396.14,179.0
396.21,201.0
396.27,199.0
396.33,199.0
396.4,202.0
396.46,184.0
396.52,182.0
396.58,170.0
396.65,180.0
396.71,184.0
396.77,215.0
396.84,213.0
396.9,191.0
396.96,168.0
397.03,161.0
397.09,183.0
397.15,174.0
397.21,192.0
397.28,192.0
397.34,181.0
397.4,164.0
397.47,173.0
397.53,177.0
397.59,171.0
397.66,197.0
397.72,202.0
397.78,201.0
397.84,190.0
397.91,180.0
397.97,209.0
398.03,201.0
398.1,193.0
398.16,168.0
398.22,180.0
398.29,185.0
398.35,199.0
398.41,180.0
398.47,196.0
398.54,182.0
398.6,170.0
398.66,167.0
398.73,165.0
398.79,168.0
398.85,190.0
398.92,194.0
398.98,177.0
399.04,185.0
399.1,161.0
399.17,148.0
399.23,165.0
399.29,170.0
399.36,172.0
399.42,185.0
399.48,184.0
399.55,191.0
399.61,201.0
399.67,189.0
399.73,199.0
399.8,194.0
399.86,196.0
399.92,208.0
399.99,218.0
400.05,201.0
400.11,204.0
400.18,192.0
400.24,192.0
400.3,194.0
400.36,179.0
400.43,190.0
400.49,180.0
400.55,184.0
400.62,195.0
400.68,202.0
400.74,191.0
400.81,204.0
400.87,184.0
400.93,168.0
400.99,166.0
401.06,171.0
401.12,182.0
401.18,191.0
401.25,176.0
401.31,168.0
401.37,144.0
401.44,148.0
401.5,160.0
401.56,149.0
401.62,145.0
401.69,135.0
401.75,139.0
401.81,140.0
401.88,133.0
401.94,121.0
402.0,108.0
402.07,106.0
402.13,104.0
402.19,101.0
402.25,101.0
402.32,138.0
402.38,118.0
402.44,96.0
402.51,83.0
402.57,82.0
402.63,83.0
402.7,81.0
402.76,105.0
402.82,104.0
402.88,105.0
402.95,110.0
403.01,101.0
403.07,111.0
403.14,110.0
403.2,86.0
403.26,71.0
403.33,90.0
403.39,102.0
403.45,104.0
403.51,89.0
403.58,92.0
403.64,87.0
403.7,83.0
403.77,84.0
403.83,63.0
403.89,92.0
403.96,115.0
404.02,111.0
404.08,110.0
404.14,114.0
404.21,116.0
404.27,136.0
404.33,130.0
404.4,135.0
404.46,107.0
404.52,117.0
404.59,121.0
404.65,121.0
404.71,120.0
404.77,111.0
404.84,118.0
404.9,108.0
404.96,107.0
405.03,81.0
405.09,86.0
405.15,97.0
405.22,59.0
405.28,63.0
405.34,78.0
405.4,74.0
405.47,89.0
405.53,89.0
405.59,71.0
405.66,56.0
405.72,31.0
405.78,26.0
405.85,25.0
405.91,26.0
405.97,59.0
406.03,58.0
406.1,48.0
406.16,34.0
406.22,12.0
406.29,21.0
406.35,14.0
406.41,1.0
406.48,18.0
406.54,16.0
406.6,2.0
406.66,26.0
406.73,24.0
406.79,30.0
406.85,50.0
406.92,54.0
406.98,71.0
407.04,67.0
407.11,69.0
407.17,70.0
407.23,56.0
407.29,61.0
407.36,44.0
407.42,56.0
407.48,61.0
407.55,45.0
407.61,69.0
407.67,74.0
407.74,81.0
407.8,60.0
407.86,67.0
407.92,54.0
407.99,50.0
408.05,52.0
408.11,57.0
408.18,48.0
408.24,53.0
408.3,43.0
408.37,38.0
408.43,42.0
408.49,57.0
408.55,63.0
408.62,63.0
408.68,47.0
408.74,50.0
408.81,41.0
408.87,62.0
408.93,59.0
409.0,31.0
409.06,71.0
409.12,69.0
409.18,65.0
409.25,56.0
409.31,56.0
409.37,77.0
409.44,54.0
409.5,71.0
409.56,78.0
409.63,60.0
409.69,78.0
409.75,75.0
409.81,56.0
409.88,67.0
409.94,67.0
410.0,63.0
410.07,74.0
410.13,60.0
410.19,49.0
410.26,59.0
410.32,62.0
410.38,52.0
410.44,38.0
410.51,59.0
410.57,42.0
410.63,36.0
410.7,30.0
410.76,11.0
410.82,19.0
410.89,24.0
410.95,48.0
411.01,41.0
411.07,12.0
411.14,11.0
411.2,11.0
411.26,5.0
411.33,11.0
411.39,0.0
411.45,18.0
411.52,33.0
411.58,30.0
411.64,19.0
411.7,22.0
411.77,13.0
411.83,15.0
411.89,26.0
411.96,21.0
412.02,15.0
412.08,21.0
412.15,22.0
412.21,0.0
412.27,3.0
412.33,3.0
412.4,-3.0
412.46,-2.0
412.52,6.0
412.59,-5.0
412.65,-16.0
412.71,-35.0
412.78,-22.0
412.84,-20.0
412.9,-4.0
412.96,8.0
413.03,5.0
413.09,18.0
413.15,21.0
413.22,33.0
413.28,36.0
413.34,25.0
413.41,15.0
413.47,46.0
413.53,34.0
413.59,43.0
413.66,33.0
413.72,53.0
413.78,68.0
413.85,82.0
413.91,94.0
413.97,67.0
414.04,58.0
414.1,76.0
414.16,76.0
414.22,85.0
414.29,94.0
414.35,94.0
414.41,74.0
414.48,82.0
414.54,84.0
414.6,72.0
414.67,97.0
414.73,101.0
414.79,115.0
414.85,111.0
414.92,109.0
414.98,96.0
415.04,93.0
415.11,120.0
415.17,126.0
415.23,112.0
415.3,139.0
415.36,136.0
415.42,127.0
415.48,129.0
415.55,139.0
415.61,148.0
415.67,149.0
415.74,147.0
415.8,161.0
415.86,144.0
415.93,142.0
415.99,153.0
416.05,185.0
416.11,181.0
416.18,164.0
416.24,165.0
416.3,150.0
416.37,173.0
416.43,174.0
416.49,165.0
416.56,185.0
416.62,202.0
416.68,200.0
416.74,186.0
416.81,203.0
416.87,209.0
416.93,201.0
417.0,214.0
417.06,195.0
417.12,192.0
417.19,208.0
417.25,198.0
417.31,193.0
417.37,201.0
417.44,205.0
417.5,207.0
417.56,208.0
417.63,197.0
417.69,200.0
417.75,202.0
417.82,187.0
417.88,210.0
417.94,201.0
418.0,212.0
418.07,203.0
418.13,205.0
418.19,202.0
418.26,218.0
418.32,219.0
418.38,216.0
418.45,219.0
418.51,224.0
418.57,222.0
418.63,237.0
418.7,241.0
418.76,249.0
418.82,231.0
418.89,244.0
418.95,253.0
419.01,252.0
419.08,242.0
419.14,243.0
419.2,259.0
419.26,247.0
419.33,225.0
419.39,239.0
419.45,230.0
419.52,214.0
419.58,217.0
419.64,229.0
419.71,214.0
419.77,195.0
419.83,199.0
419.89,206.0
419.96,180.0
420.02,202.0
420.08,211.0
420.15,218.0
420.21,209.0
420.27,205.0
420.34,217.0
420.4,244.0
420.46,249.0
420.52,267.0
420.59,272.0
420.65,266.0
420.71,255.0
420.78,257.0
420.84,240.0
420.9,222.0
420.97,246.0
421.03,260.0
421.09,233.0
421.15,252.0
421.22,245.0
421.28,230.0
421.34,216.0
421.41,191.0
421.47,215.0
421.53,207.0
421.6,195.0
421.66,178.0
421.72,190.0
421.78,197.0
421.85,200.0
421.91,190.0
421.97,192.0
422.04,187.0
422.1,190.0
422.16,202.0
422.23,201.0
422.29,203.0
422.35,220.0
422.41,191.0
422.48,184.0
422.54,218.0
422.6,204.0
422.67,196.0
422.73,178.0
422.79,192.0
422.86,209.0
422.92,188.0
422.98,208.0
423.04,206.0
423.11,187.0
423.17,160.0
423.23,184.0
423.3,203.0
423.36,204.0
423.42,176.0
423.49,170.0
423.55,182.0
423.61,186.0
423.67,157.0
423.74,167.0
423.8,166.0
423.86,160.0
423.93,153.0
423.99,135.0
424.05,127.0
424.12,129.0
424.18,149.0
424.24,141.0
424.3,127.0
424.37,160.0
424.43,142.0
424.49,136.0
424.56,141.0
424.62,117.0
424.68,133.0
424.75,131.0
424.81,118.0
424.87,112.0
424.93,120.0
425.0,135.0
425.06,110.0
425.12,114.0
425.19,120.0
425.25,115.0
425.31,136.0
425.38,126.0
425.44,118.0
425.5,125.0
425.56,117.0
425.63,103.0
425.69,123.0
425.75,108.0
425.82,107.0
425.88,93.0
425.94,91.0
426.01,94.0
426.07,79.0
426.13,67.0
426.19,62.0
426.26,69.0
426.32,77.0
426.38,67.0
426.45,79.0
426.51,88.0
426.57,76.0
426.64,74.0
426.7,69.0
426.76,76.0
426.82,91.0
426.89,95.0
426.95,94.0
427.01,104.0
427.08,98.0
427.14,107.0
427.2,98.0
427.27,116.0
427.33,108.0
427.39,89.0
427.45,95.0
427.52,72.0
427.58,79.0
427.64,84.0
427.71,93.0
427.77,88.0
427.83,72.0
427.9,67.0
427.96,65.0
428.02,88.0
428.08,100.0
428.15,79.0
428.21,71.0
428.27,61.0
428.34,76.0
428.4,73.0
428.46,79.0
428.53,67.0
428.59,45.0
428.65,51.0
428.71,61.0
428.78,68.0
428.84,58.0
428.9,53.0
428.97,52.0
429.03,66.0
429.09,72.0
429.16,45.0
429.22,62.0
429.28,49.0
429.34,22.0
429.41,37.0
429.47,45.0
429.53,44.0
429.6,71.0
429.66,62.0
429.72,42.0
429.79,13.0
429.85,53.0
429.91,47.0
429.97,52.0
430.04,63.0
430.1,65.0
430.16,61.0
430.23,79.0
430.29,74.0
430.35,70.0
430.42,50.0
430.48,86.0
430.54,76.0
430.6,87.0
430.67,99.0
430.73,83.0
430.79,77.0
430.86,65.0
430.92,89.0
430.98,87.0
431.05,88.0
431.11,106.0
431.17,100.0
431.23,90.0
431.3,80.0
431.36,84.0
431.42,69.0
431.49,86.0
431.55,68.0
431.61,96.0
431.68,93.0
431.74,77.0
431.8,84.0
431.86,87.0
431.93,103.0
431.99,113.0
432.05,123.0
432.12,120.0
432.18,93.0
432.24,90.0
432.31,90.0
432.37,106.0
432.43,81.0
432.49,106.0
432.56,121.0
432.62,94.0
432.68,90.0
432.75,85.0
432.81,79.0
432.87,93.0
432.94,99.0
433.0,91.0
433.06,119.0
433.12,102.0
433.19,105.0
433.25,104.0
433.31,109.0
433.38,128.0
433.44,138.0
433.5,146.0
433.57,135.0
433.63,131.0
433.69,145.0
433.75,158.0
433.82,166.0
433.88,160.0
433.94,146.0
434.01,129.0
434.07,148.0
434.13,135.0
434.2,130.0
434.26,97.0
434.32,90.0
434.38,108.0
434.45,58.0
434.51,79.0
434.57,66.0
434.64,91.0
434.7,81.0
434.76,102.0
434.83,82.0
434.89,94.0
434.95,87.0
435.01,63.0
435.08,84.0
435.14,103.0
435.2,87.0
435.27,91.0
435.33,94.0
435.39,57.0
435.46,74.0
435.52,80.0
435.58,104.0
435.64,95.0
435.71,69.0
435.77,55.0
435.83,59.0
435.9,69.0
435.96,80.0
436.02,61.0
436.09,65.0
436.15,80.0
436.21,77.0
436.27,70.0
436.34,65.0
436.4,77.0
436.46,59.0
436.53,63.0
436.59,98.0
436.65,90.0
436.72,95.0
436.78,67.0
436.84,65.0
436.9,98.0
436.97,76.0
437.03,80.0
437.09,75.0
437.16,90.0
437.22,104.0
437.28,93.0
437.35,98.0
437.41,78.0
437.47,82.0
437.53,78.0
437.6,57.0
437.66,54.0
437.72,75.0
437.79,50.0
437.85,65.0
437.91,48.0
437.98,43.0
438.04,68.0
438.1,48.0
438.16,46.0
438.23,44.0
438.29,44.0
438.35,43.0
438.42,74.0
438.48,58.0
438.54,25.0
438.61,18.0
438.67,46.0
438.73,53.0
438.79,55.0
438.86,62.0
438.92,64.0
438.98,67.0
439.05,59.0
439.11,62.0
439.17,60.0
439.24,67.0
439.3,78.0
439.36,57.0
439.42,54.0
439.49,78.0
439.55,54.0
439.61,56.0
439.68,58.0
439.74,42.0
439.8,62.0
439.87,66.0
439.93,53.0
439.99,63.0
440.05,65.0
440.12,57.0
440.18,51.0
440.24,67.0
440.31,60.0
440.37,45.0
440.43,63.0
440.5,76.0
440.56,42.0
440.62,29.0
440.68,60.0
440.75,68.0
440.81,83.0
440.87,106.0
440.94,102.0
441.0,106.0
441.06,108.0
441.13,99.0
441.19,101.0
441.25,124.0
441.31,126.0
441.38,109.0
441.44,132.0
441.5,125.0
441.57,113.0
441.63,113.0
441.69,120.0
441.76,144.0
441.82,173.0
441.88,165.0
441.94,172.0
442.01,172.0
442.07,154.0
442.13,152.0
442.2,162.0
442.26,173.0
442.32,151.0
442.39,174.0
442.45,154.0
442.51,160.0
442.57,181.0
442.64,178.0
442.7,146.0
442.76,161.0
442.83,113.0
442.89,112.0
442.95,140.0
443.02,142.0
443.08,124.0
443.14,135.0
443.2,135.0
443.27,142.0
443.33,167.0
443.39,145.0
443.46,135.0
443.52,157.0
443.58,143.0
443.65,166.0
443.71,169.0
443.77,165.0
443.83,202.0
443.9,194.0
443.96,176.0
444.02,181.0
444.09,178.0
444.15,194.0
444.21,134.0
444.28,148.0
444.34,164.0
444.4,169.0
444.46,186.0
444.53,193.0
444.59,167.0
444.65,169.0
444.72,181.0
444.78,182.0
444.84,186.0
444.91,183.0
444.97,186.0
445.03,179.0
445.09,203.0
445.16,222.0
445.22,198.0
445.28,196.0
445.35,192.0
445.41,227.0
445.47,219.0
445.54,216.0
445.6,207.0
445.66,220.0
445.72,208.0
445.79,190.0
445.85,202.0
445.91,208.0
445.98,254.0
446.04,243.0
446.1,226.0
446.17,248.0
446.23,215.0
446.29,237.0
446.35,225.0
446.42,228.0
446.48,215.0
446.54,222.0
446.61,179.0
446.67,190.0
446.73,192.0
446.8,180.0
446.86,197.0
446.92,197.0
446.98,189.0
447.05,204.0
447.11,204.0
447.17,178.0
447.24,183.0
447.3,190.0
447.36,200.0
447.43,213.0
447.49,201.0
447.55,194.0
447.61,217.0
447.68,218.0
447.74,217.0
447.8,218.0
447.87,222.0
447.93,249.0
447.99,250.0
448.06,255.0
448.12,244.0
448.18,238.0
448.24,259.0
448.31,266.0
448.37,254.0
448.43,259.0
448.5,258.0
448.56,269.0
448.62,240.0
448.69,240.0
448.75,242.0
448.81,263.0
448.87,252.0
448.94,236.0
449.0,253.0
449.06,241.0
449.13,219.0
449.19,197.0
449.25,220.0
449.32,231.0
449.38,222.0
449.44,190.0
449.5,195.0
449.57,189.0
449.63,184.0
449.69,186.0
449.76,173.0
449.82,183.0
449.88,191.0
449.95,181.0
450.01,189.0
450.07,175.0
450.13,195.0
450.2,201.0
450.26,205.0
450.32,189.0
450.39,205.0
450.45,207.0
450.51,205.0
450.58,210.0
450.64,198.0
450.7,217.0
450.76,207.0
450.83,198.0
450.89,207.0
450.95,201.0
451.02,189.0
451.08,179.0
451.14,179.0
451.21,193.0
451.27,190.0
451.33,185.0
451.39,158.0
451.46,168.0
451.52,194.0
451.58,223.0
451.65,220.0
451.71,192.0
451.77,186.0
451.84,182.0
451.9,186.0
451.96,168.0
452.02,155.0
452.09,189.0
452.15,181.0
452.21,159.0
452.28,168.0
452.34,174.0
452.4,172.0
452.47,154.0
452.53,128.0
452.59,128.0
452.65,175.0
452.72,158.0
452.78,156.0
452.84,162.0
452.91,146.0
452.97,139.0
453.03,116.0
453.1,144.0
453.16,126.0
453.22,120.0
453.28,115.0
453.35,128.0
453.41,123.0
453.47,136.0
453.54,127.0
453.6,114.0
453.66,145.0
453.73,123.0
453.79,105.0
453.85,127.0
453.91,132.0
453.98,116.0
454.04,118.0
454.1,114.0
454.17,104.0
454.23,114.0
454.29,127.0
454.36,96.0
454.42,106.0
454.48,113.0
454.54,107.0
454.61,119.0
454.67,140.0
454.73,123.0
454.8,89.0
454.86,96.0
454.92,102.0
454.99,100.0
455.05,113.0
455.11,150.0
455.17,140.0
455.24,131.0
455.3,126.0
455.36,121.0
455.43,114.0
455.49,112.0
455.55,121.0
455.62,128.0
455.68,98.0
455.74,101.0
455.8,103.0
455.87,86.0
455.93,84.0
455.99,60.0
456.06,52.0
456.12,65.0
456.18,66.0
456.25,46.0
456.31,50.0
456.37,27.0
456.43,44.0
456.5,55.0
456.56,57.0
456.62,49.0
456.69,72.0
456.75,77.0
456.81,77.0
456.88,95.0
456.94,98.0
457.0,85.0
457.06,90.0
457.13,123.0
457.19,104.0
457.25,99.0
457.32,105.0
457.38,94.0
457.44,98.0
457.51,117.0
457.57,116.0
457.63,112.0
457.69,116.0
457.76,120.0
457.82,90.0
457.88,109.0
457.95,116.0
458.01,106.0
458.07,131.0
458.14,129.0
458.2,110.0
458.26,102.0
458.32,91.0
458.39,94.0
458.45,83.0
458.51,106.0
458.58,112.0
458.64,93.0
458.7,85.0
458.77,81.0
458.83,69.0
458.89,75.0
458.95,76.0
459.02,70.0
459.08,77.0
459.14,55.0
459.21,67.0
459.27,82.0
459.33,94.0
459.4,87.0
459.46,97.0
459.52,96.0
459.58,68.0
459.65,64.0
459.71,85.0
459.77,72.0
459.84,80.0
459.9,76.0
459.96,71.0
460.03,73.0
460.09,87.0
460.15,57.0
460.21,50.0
460.28,96.0
460.34,82.0
460.4,57.0
460.47,77.0
460.53,94.0
460.59,82.0
460.66,71.0
460.72,80.0
460.78,73.0
460.84,72.0
460.91,51.0
460.97,36.0
461.03,26.0
461.1,17.0
461.16,16.0
461.22,25.0
461.29,10.0
461.35,20.0
461.41,24.0
461.47,6.0
461.54,-3.0
461.6,6.0
461.66,-10.0
461.73,8.0
461.79,-19.0
461.85,4.0
461.92,7.0
461.98,8.0
462.04,25.0
462.1,24.0
462.17,13.0
462.23,37.0
462.29,33.0
462.36,56.0
462.42,63.0
462.48,42.0
462.55,34.0
462.61,42.0
462.67,40.0
462.73,28.0
462.8,8.0
462.86,-6.0
462.92,8.0
462.99,10.0
463.05,-1.0
463.11,-12.0
463.18,-8.0
463.24,-39.0
463.3,-15.0
463.36,-6.0
463.43,-14.0
463.49,-5.0
463.55,-32.0
463.62,-13.0
463.68,-6.0
463.74,3.0
463.81,37.0
463.87,0.0
463.93,-3.0
463.99,35.0
464.06,-3.0
464.12,10.0
464.18,28.0
464.25,45.0
464.31,35.0
464.37,35.0
464.44,53.0
464.5,60.0
464.56,41.0
464.62,30.0
464.69,22.0
464.75,12.0
464.81,23.0
464.88,17.0
464.94,19.0
465.0,50.0
465.07,37.0
465.13,34.0
465.19,25.0
465.25,24.0
465.32,36.0
465.38,44.0
465.44,25.0
465.51,29.0
465.57,37.0
465.63,51.0
465.7,50.0
465.76,54.0
465.82,40.0
465.88,44.0
465.95,37.0
466.01,75.0
466.07,57.0
466.14,72.0
466.2,87.0
466.26,65.0
466.33,76.0
466.39,76.0
466.45,84.0
466.51,61.0
466.58,68.0
466.64,84.0
466.7,97.0
466.77,125.0
466.83,130.0
466.89,118.0
466.96,119.0
467.02,96.0
467.08,97.0
467.14,106.0
467.21,111.0
467.27,101.0
467.33,126.0
467.4,132.0
467.46,125.0
467.52,108.0
467.59,152.0
467.65,143.0
467.71,131.0
467.77,133.0
467.84,128.0
467.9,151.0
467.96,152.0
468.03,151.0
468.09,139.0
468.15,169.0
468.22,175.0
468.28,158.0
468.34,173.0
468.4,161.0
468.47,152.0
468.53,170.0
468.59,174.0
468.66,169.0
468.72,168.0
468.78,179.0
468.85,183.0
468.91,179.0
468.97,201.0
469.03,205.0
469.1,197.0
469.16,203.0
469.22,196.0
469.29,187.0
469.35,197.0
469.41,200.0
469.48,190.0
469.54,169.0
469.6,182.0
469.66,177.0
469.73,156.0
469.79,168.0
469.85,196.0
469.92,179.0
469.98,201.0
470.04,204.0
470.11,163.0
470.17,136.0
470.23,110.0
470.29,148.0
470.36,175.0
470.42,167.0
470.48,213.0
470.55,180.0
470.61,197.0
470.67,202.0
470.74,232.0
470.8,226.0
470.86,229.0
470.92,233.0
470.99,241.0
471.05,224.0
471.11,240.0
471.18,228.0
471.24,208.0
471.3,230.0
471.37,235.0
471.43,228.0
471.49,231.0
471.55,241.0
471.62,205.0
471.68,204.0
471.74,221.0
471.81,210.0
471.87,237.0
471.93,208.0
472.0,223.0
472.06,236.0
472.12,231.0
472.18,204.0
472.25,200.0
472.31,188.0
472.37,196.0
472.44,184.0
472.5,168.0
472.56,169.0
472.63,188.0
472.69,176.0
472.75,159.0
472.81,163.0
472.88,174.0
472.94,186.0
473.0,196.0
473.07,188.0
473.13,183.0
473.19,186.0
473.26,209.0
473.32,202.0
473.38,211.0
473.44,210.0
473.51,190.0
473.57,221.0
473.63,230.0
473.7,217.0
473.76,215.0
473.82,218.0
473.89,210.0
473.95,221.0
474.01,230.0
474.07,224.0
474.14,220.0
474.2,226.0
474.26,218.0
474.33,220.0
474.39,223.0
474.45,205.0
474.52,206.0
474.58,196.0
474.64,192.0
474.7,181.0
474.77,206.0
474.83,213.0
474.89,198.0
474.96,164.0
475.02,192.0
475.08,195.0
475.15,203.0
475.21,177.0
475.27,171.0
475.33,185.0
475.4,199.0
475.46,171.0
475.52,181.0
475.59,193.0
475.65,189.0
475.71,193.0
475.78,181.0
475.84,194.0
475.9,176.0
475.96,171.0
476.03,182.0
476.09,186.0
476.15,184.0
476.22,200.0
476.28,174.0
476.34,189.0
476.41,200.0
476.47,186.0
476.53,176.0
476.59,164.0
476.66,182.0
476.72,150.0
476.78,165.0
476.85,164.0
476.91,141.0
476.97,149.0
477.04,169.0
477.1,183.0
477.16,166.0
477.22,157.0
477.29,175.0
477.35,161.0
477.41,164.0
477.48,153.0
477.54,188.0
477.6,182.0
477.67,194.0
477.73,173.0
477.79,179.0
477.85,164.0
477.92,183.0
477.98,180.0
478.04,167.0
478.11,206.0
478.17,201.0
478.23,197.0
478.3,215.0
478.36,197.0
478.42,215.0
478.48,212.0
478.55,207.0
478.61,205.0
478.67,208.0
478.74,204.0
478.8,225.0
478.86,204.0
478.93,174.0
478.99,167.0
479.05,178.0
479.11,176.0
479.18,185.0
479.24,165.0
479.3,178.0
479.37,186.0
479.43,167.0
479.49,158.0
479.56,159.0
479.62,166.0
479.68,157.0
479.74,129.0
479.81,156.0
479.87,154.0
479.93,122.0
480.0,124.0
480.06,134.0
480.12,146.0
480.19,158.0
480.25,144.0
480.31,165.0
480.37,161.0
480.44,124.0
480.5,109.0
480.56,110.0
480.63,108.0
480.69,133.0
480.75,138.0
480.82,129.0
480.88,127.0
480.94,123.0
481.0,90.0
481.07,64.0
481.13,102.0
481.19,118.0
481.26,114.0
481.32,113.0
481.38,88.0
481.45,108.0
481.51,95.0
481.57,95.0
481.63,138.0
481.7,130.0
481.76,123.0
481.82,137.0
481.89,142.0
481.95,157.0
482.01,136.0
482.08,127.0
482.14,121.0
482.2,119.0
482.26,117.0
482.33,120.0
482.39,121.0
482.45,123.0
482.52,119.0
482.58,135.0
482.64,108.0
482.71,123.0
482.77,120.0
482.83,119.0
482.89,128.0
482.96,134.0
483.02,102.0
483.08,105.0
483.15,116.0
483.21,131.0
483.27,131.0
483.34,121.0
483.4,108.0
483.46,113.0
483.52,118.0
483.59,116.0
483.65,98.0
483.71,92.0
483.78,109.0
483.84,90.0
483.9,108.0
483.97,98.0
484.03,98.0
484.09,100.0
484.15,94.0
484.22,109.0
484.28,122.0
484.34,112.0
484.41,124.0
484.47,119.0
484.53,95.0
484.6,81.0
484.66,110.0
484.72,115.0
484.78,98.0
484.85,91.0
484.91,97.0
484.97,80.0
485.04,97.0
485.1,110.0
485.16,85.0
485.23,99.0
485.29,114.0
485.35,107.0
485.41,116.0
485.48,99.0
485.54,119.0
485.6,127.0
485.67,120.0
485.73,120.0
485.79,107.0
485.86,114.0
485.92,100.0
485.98,123.0
486.04,119.0
486.11,117.0
486.17,96.0
486.23,87.0
486.3,92.0
486.36,71.0
486.42,90.0
486.49,56.0
486.55,49.0
486.61,58.0
486.67,58.0
486.74,38.0
486.8,59.0
486.86,43.0
486.93,36.0
486.99,46.0
487.05,41.0
487.12,46.0
487.18,50.0
487.24,7.0
487.3,1.0
487.37,-1.0
487.43,1.0
487.49,6.0
487.56,26.0
487.62,34.0
487.68,31.0
487.75,26.0
487.81,19.0
487.87,-3.0
487.93,-13.0
488.0,2.0
488.06,16.0
488.12,-3.0
488.19,-22.0
488.25,-17.0
488.31,-27.0
488.38,-16.0
488.44,-14.0
488.5,-11.0
488.56,-2.0
488.63,17.0
488.69,21.0
488.75,12.0
488.82,36.0
488.88,29.0
488.94,21.0
489.01,17.0
489.07,30.0
489.13,43.0
489.19,11.0
489.26,21.0
489.32,32.0
489.38,23.0
489.45,15.0
489.51,6.0
489.57,5.0
489.64,5.0
489.7,42.0
489.76,33.0
489.82,20.0
489.89,20.0
489.95,25.0
490.01,14.0
490.08,19.0
490.14,32.0
490.2,51.0
490.27,58.0
490.33,51.0
490.39,50.0
490.45,43.0
490.52,40.0
490.58,9.0
490.64,-4.0
490.71,10.0
490.77,4.0
490.83,10.0
490.9,12.0
490.96,4.0
491.02,6.0
491.08,-2.0
491.15,12.0
491.21,1.0
491.27,2.0
491.34,18.0
491.4,15.0
491.46,28.0
491.53,31.0
491.59,2.0
491.65,1.0
491.71,19.0
491.78,35.0
491.84,27.0
491.9,31.0
491.97,17.0
492.03,5.0
492.09,24.0
492.16,26.0
492.22,31.0
492.28,32.0
492.34,33.0
492.41,26.0
492.47,49.0
492.53,38.0
492.6,48.0
492.66,64.0
492.72,82.0
492.79,54.0
492.85,42.0
492.91,66.0
492.97,42.0
493.04,51.0
493.1,61.0
493.16,67.0
493.23,65.0
493.29,72.0
493.35,64.0
493.42,89.0
493.48,92.0
493.54,68.0
493.6,93.0
493.67,95.0
493.73,93.0
493.79,93.0
493.86,71.0
493.92,46.0
493.98,73.0
494.05,79.0
494.11,81.0
494.17,63.0
494.23,83.0
494.3,99.0
494.36,67.0
494.42,57.0
494.49,74.0
494.55,71.0
494.61,82.0
494.68,74.0
494.74,81.0
494.8,98.0
494.86,105.0
494.93,101.0
494.99,101.0
495.05,105.0
495.12,100.0
495.18,121.0
495.24,132.0
495.31,136.0
495.37,114.0
495.43,145.0
495.49,136.0
495.56,130.0
495.62,159.0
495.68,167.0
495.75,165.0
495.81,160.0
495.87,159.0
495.94,169.0
496.0,179.0
496.06,166.0
496.12,197.0
496.19,171.0
496.25,181.0
496.31,187.0
496.38,176.0
496.44,168.0
496.5,157.0
496.57,166.0
496.63,145.0
496.69,184.0
496.75,186.0
496.82,174.0
496.88,166.0
496.94,153.0
497.01,164.0
497.07,175.0
497.13,186.0
497.2,170.0
497.26,202.0
497.32,192.0
497.38,179.0
497.45,184.0
497.51,192.0
497.57,181.0
497.64,195.0
497.7,183.0
497.76,206.0
497.83,203.0
497.89,191.0
497.95,164.0
498.01,173.0
498.08,181.0
498.14,184.0
498.2,184.0
498.27,188.0
498.33,195.0
498.39,211.0
498.46,241.0
498.52,241.0
498.58,230.0
498.64,242.0
498.71,244.0
498.77,217.0
498.83,233.0
498.9,235.0
498.96,254.0
499.02,232.0
499.09,244.0
499.15,255.0
499.21,225.0
499.27,223.0
499.34,244.0
499.4,226.0
499.46,235.0
499.53,230.0
499.59,218.0
499.65,211.0
499.72,199.0
499.78,208.0
499.84,195.0
499.9,213.0
499.97,201.0
500.03,204.0
500.09,187.0
500.16,200.0
500.22,197.0
500.28,204.0
500.35,199.0
500.41,206.0
500.47,208.0
500.53,207.0
500.6,208.0
500.66,221.0
500.72,226.0
500.79,218.0
500.85,236.0
500.91,227.0
500.98,228.0
501.04,243.0
501.1,214.0
501.16,219.0
501.23,217.0
501.29,206.0
501.35,214.0
501.42,213.0
501.48,187.0
501.54,222.0
501.61,229.0
501.67,219.0
501.73,222.0
501.79,221.0
501.86,217.0
501.92,224.0
501.98,235.0
502.05,214.0
502.11,205.0
502.17,194.0
502.24,218.0
502.3,214.0
502.36,206.0
502.42,202.0
502.49,208.0
502.55,193.0
502.61,191.0
502.68,192.0
502.74,193.0
502.8,188.0
502.87,188.0
502.93,197.0
502.99,190.0
503.05,190.0
503.12,189.0
503.18,202.0
503.24,181.0
503.31,190.0
503.37,194.0
503.43,205.0
503.5,184.0
503.56,183.0
503.62,219.0
503.68,212.0
503.75,214.0
503.81,213.0
503.87,209.0
503.94,202.0
504.0,209.0
504.06,199.0
504.13,213.0
504.19,214.0
504.25,216.0
504.31,225.0
504.38,216.0
504.44,205.0
504.5,194.0
504.57,216.0
504.63,178.0
504.69,169.0
504.76,183.0
504.82,198.0
504.88,192.0
504.94,184.0
505.01,166.0
505.07,188.0
505.13,172.0
505.2,166.0
505.26,201.0
505.32,201.0
505.39,181.0
505.45,178.0
505.51,199.0
505.57,206.0
505.64,189.0
505.7,177.0
505.76,204.0
505.83,192.0
505.89,192.0
505.95,196.0
506.02,196.0
506.08,205.0
506.14,201.0
506.2,185.0
506.27,184.0
506.33,172.0
506.39,191.0
506.46,207.0
506.52,192.0
506.58,214.0
506.65,216.0
506.71,229.0
506.77,229.0
506.83,255.0
506.9,247.0
506.96,246.0
507.02,254.0
507.09,233.0
507.15,247.0
507.21,245.0
507.28,244.0
507.34,221.0
507.4,257.0
507.46,253.0
507.53,249.0
507.59,254.0
507.65,236.0
507.72,205.0
507.78,209.0
507.84,228.0
507.91,223.0
507.97,229.0
508.03,250.0
508.09,231.0
508.16,244.0
508.22,239.0
508.28,241.0
508.35,240.0
508.41,239.0
508.47,232.0
508.54,224.0
508.6,227.0
508.66,227.0
508.72,211.0
508.79,225.0
508.85,217.0
508.91,225.0
508.98,234.0
509.04,213.0
509.1,225.0
509.17,228.0
509.23,214.0
509.29,225.0
509.35,239.0
509.42,214.0
509.48,201.0
509.54,232.0
509.61,205.0
509.67,203.0
509.73,213.0
509.8,189.0
509.86,205.0
509.92,192.0
509.98,161.0
510.05,159.0
510.11,188.0
510.17,165.0
510.24,143.0
510.3,137.0
510.36,111.0
510.43,133.0
510.49,140.0
510.55,139.0
510.61,124.0
510.68,128.0
510.74,129.0
510.8,120.0
510.87,115.0
510.93,140.0
510.99,121.0
511.06,129.0
511.12,148.0
511.18,136.0
511.24,145.0
511.31,128.0
511.37,122.0
511.43,118.0
511.5,114.0
511.56,111.0
511.62,122.0
511.69,114.0
511.75,86.0
511.81,95.0
511.87,79.0
511.94,64.0
512.0,71.0
512.06,62.0
512.13,59.0
512.19,54.0
512.25,55.0
512.32,50.0
512.38,53.0
512.44,51.0
512.5,54.0
512.57,59.0
512.63,66.0
512.69,86.0
512.76,75.0
512.82,78.0
512.88,67.0
512.95,46.0
513.01,51.0
513.07,33.0
513.13,27.0
513.2,35.0
513.26,28.0
513.32,24.0
513.39,14.0
513.45,7.0
513.51,-15.0
513.58,-18.0
513.64,-21.0
513.7,-21.0
513.76,-25.0
513.83,-35.0
513.89,-32.0
513.95,-35.0
514.02,-38.0
514.08,-43.0
514.14,-21.0
514.21,-30.0
514.27,-33.0
514.33,-30.0
514.39,-40.0
514.46,-26.0
514.52,-25.0
514.58,-21.0
514.65,-15.0
514.71,-1.0
514.77,-24.0
514.84,-21.0
514.9,-14.0
514.96,4.0
515.02,8.0
515.09,2.0
515.15,-9.0
515.21,8.0
515.28,7.0
515.34,7.0
515.4,21.0
515.47,12.0
515.53,-7.0
515.59,-23.0
515.65,2.0
515.72,-20.0
515.78,-25.0
515.84,5.0
515.91,-6.0
515.97,-18.0
516.03,15.0
516.1,14.0
516.16,5.0
516.22,21.0
516.28,7.0
516.35,17.0
516.41,-2.0
516.47,3.0
516.54,-5.0
516.6,1.0
516.66,-21.0
516.73,7.0
516.79,-5.0
516.85,3.0
516.91,-10.0
516.98,-9.0
517.04,-7.0
517.1,-6.0
517.17,7.0
517.23,3.0
517.29,8.0
517.36,9.0
517.42,13.0
517.48,20.0
517.54,25.0
517.61,-5.0
517.67,16.0
517.73,9.0
517.8,25.0
517.86,4.0
517.92,1.0
517.99,44.0
518.05,41.0
518.11,22.0
518.17,34.0
518.24,50.0
518.3,45.0
518.36,88.0
518.43,72.0
518.49,52.0
518.55,69.0
518.62,63.0
518.68,84.0
518.74,66.0
518.8,89.0
518.87,91.0
518.93,79.0
518.99,93.0
519.06,117.0
519.12,89.0
519.18,110.0
519.25,101.0
519.31,122.0
519.37,125.0
519.43,125.0
519.5,108.0
519.56,117.0
519.62,137.0
519.69,135.0
519.75,147.0
519.81,146.0
519.88,125.0
519.94,115.0
520.0,124.0
520.06,150.0
520.13,135.0
520.19,147.0
520.25,160.0
520.32,150.0
520.38,166.0
520.44,166.0
520.51,164.0
520.57,169.0
520.63,144.0
520.69,151.0
520.76,166.0
520.82,171.0
520.88,159.0
520.95,170.0
521.01,148.0
521.07,176.0
521.14,154.0
521.2,154.0
521.26,158.0
521.32,158.0
521.39,170.0
521.45,168.0
521.51,160.0
521.58,165.0
521.64,175.0
521.7,173.0
521.77,172.0
521.83,184.0
521.89,151.0
521.95,153.0
522.02,164.0
522.08,173.0
522.14,188.0
522.21,194.0
522.27,184.0
522.33,182.0
522.4,205.0
522.46,175.0
522.52,204.0
522.58,207.0
522.65,207.0
522.71,208.0
522.77,220.0
522.84,214.0
522.9,196.0
522.96,203.0
523.03,210.0
523.09,215.0
523.15,226.0
523.21,249.0
523.28,232.0
523.34,239.0
523.4,230.0
523.47,222.0
523.53,238.0
523.59,222.0
523.66,213.0
523.72,211.0
523.78,210.0
523.84,221.0
523.91,232.0
523.97,256.0
524.03,241.0
524.1,236.0
524.16,237.0
524.22,245.0
524.29,220.0
524.35,210.0
524.41,227.0
524.47,225.0
524.54,207.0
524.6,220.0
524.66,235.0
524.73,224.0
524.79,231.0
524.85,239.0
524.92,226.0
524.98,227.0
525.04,226.0
525.1,235.0
525.17,251.0
525.23,232.0
525.29,221.0
525.36,235.0
525.42,225.0
525.48,237.0
525.55,225.0
525.61,215.0
525.67,229.0
525.73,237.0
525.8,239.0
525.86,224.0
525.92,203.0
525.99,206.0
526.05,210.0
526.11,206.0
526.18,205.0
526.24,210.0
526.3,245.0
526.36,212.0
526.43,217.0
526.49,231.0
526.55,189.0
526.62,217.0
526.68,230.0
526.74,203.0
526.81,215.0
526.87,217.0
526.93,244.0
526.99,223.0
527.06,229.0
527.12,225.0
527.18,204.0
527.25,192.0
527.31,185.0
527.37,194.0
527.44,207.0
527.5,190.0
527.56,155.0
527.62,178.0
527.69,213.0
527.75,199.0
527.81,197.0
527.88,187.0
527.94,187.0
528.0,190.0
528.07,174.0
528.13,207.0
528.19,190.0
528.25,210.0
528.32,177.0
528.38,170.0
528.44,187.0
528.51,185.0
528.57,179.0
528.63,183.0
528.7,184.0
528.76,194.0
528.82,177.0
528.88,184.0
528.95,165.0
529.01,167.0
529.07,164.0
529.14,182.0
529.2,156.0
529.26,143.0
529.33,149.0
529.39,157.0
529.45,152.0
529.51,157.0
529.58,163.0
529.64,167.0
529.7,146.0
529.77,116.0
529.83,168.0
529.89,166.0
529.96,151.0
530.02,168.0
530.08,168.0
530.14,169.0
530.21,151.0
530.27,155.0
530.33,166.0
530.4,155.0
530.46,163.0
530.52,139.0
530.59,142.0
530.65,162.0
530.71,170.0
530.77,159.0
530.84,158.0
530.9,142.0
530.96,160.0
531.03,173.0
531.09,177.0
531.15,173.0
531.22,177.0
531.28,171.0
531.34,191.0
531.4,187.0
531.47,166.0
531.53,167.0
531.59,184.0
531.66,185.0
531.72,179.0
531.78,194.0
531.85,214.0
531.91,218.0
531.97,207.0
532.03,214.0
532.1,213.0
532.16,218.0
532.22,198.0
532.29,195.0
532.35,204.0
532.41,191.0
532.48,192.0
532.54,188.0
532.6,177.0
532.66,183.0
532.73,172.0
532.79,177.0
532.85,184.0
532.92,179.0
532.98,189.0
533.04,180.0
533.11,172.0
533.17,170.0
533.23,177.0
533.29,165.0
533.36,166.0
533.42,182.0
533.48,165.0
533.55,159.0
533.61,141.0
533.67,158.0
533.74,171.0
533.8,183.0
533.86,171.0
533.92,169.0
533.99,153.0
534.05,173.0
534.11,163.0
534.18,179.0
534.24,172.0
534.3,177.0
534.37,160.0
534.43,159.0
534.49,174.0
534.55,174.0
534.62,165.0
534.68,155.0
534.74,166.0
534.81,162.0
534.87,159.0
534.93,161.0
535.0,166.0
535.06,152.0
535.12,144.0
535.18,136.0
535.25,129.0
535.31,153.0
535.37,154.0
535.44,140.0
535.5,140.0
535.56,158.0
535.63,177.0
535.69,160.0
535.75,159.0
535.81,168.0
535.88,131.0
535.94,162.0
536.0,155.0
536.07,129.0
536.13,155.0
536.19,154.0
536.26,160.0
536.32,149.0
536.38,150.0
536.44,169.0
536.51,162.0
536.57,177.0
536.63,165.0
536.7,149.0
536.76,154.0
536.82,163.0
536.89,141.0
536.95,143.0
537.01,141.0
537.07,133.0
537.14,118.0
537.2,118.0
537.26,122.0
537.33,106.0
537.39,99.0
537.45,97.0
537.52,99.0
537.58,80.0
537.64,85.0
537.7,88.0
537.77,99.0
537.83,98.0
537.89,83.0
537.96,92.0
538.02,89.0
538.08,77.0
538.15,89.0
538.21,78.0
538.27,102.0
538.33,107.0
538.4,106.0
538.46,107.0
538.52,105.0
538.59,85.0
538.65,55.0
538.71,70.0
538.78,100.0
538.84,77.0
538.9,89.0
538.96,57.0
539.03,74.0
539.09,76.0
539.15,73.0
539.22,80.0
539.28,78.0
539.34,71.0
539.41,51.0
539.47,48.0
539.53,68.0
539.59,69.0
539.66,52.0
539.72,56.0
539.78,51.0
539.85,41.0
539.91,47.0
539.97,31.0
540.04,24.0
540.1,23.0
540.16,27.0
540.22,36.0
540.29,50.0
540.35,63.0
540.41,42.0
540.48,31.0
540.54,31.0
540.6,19.0
540.67,34.0
540.73,38.0
540.79,39.0
540.85,18.0
540.92,37.0
540.98,31.0
541.04,26.0
541.11,44.0
541.17,52.0
541.23,35.0
541.3,26.0
541.36,41.0
541.42,50.0
541.48,49.0
541.55,31.0
541.61,32.0
541.67,56.0
541.74,42.0
541.8,46.0
541.86,49.0
541.93,34.0
541.99,52.0
542.05,30.0
542.11,37.0
542.18,43.0
542.24,16.0
542.3,30.0
542.37,27.0
542.43,29.0
542.49,28.0
542.56,49.0
542.62,59.0
542.68,44.0
542.74,58.0
542.81,64.0
542.87,56.0
542.93,37.0
543.0,34.0
543.06,39.0
543.12,29.0
543.19,36.0
543.25,52.0
543.31,66.0
543.37,47.0
543.44,42.0
543.5,55.0
543.56,52.0
543.63,43.0
543.69,52.0
543.75,39.0
543.82,18.0
543.88,26.0
543.94,29.0
544.0,20.0
544.07,20.0
544.13,28.0
544.19,15.0
544.26,4.0
544.32,-4.0
544.38,29.0
544.45,22.0
544.51,27.0
544.57,25.0
544.63,43.0
544.7,25.0
544.76,29.0
544.82,46.0
544.89,31.0
544.95,42.0
545.01,42.0
545.08,33.0
545.14,25.0
545.2,28.0
545.26,28.0
545.33,37.0
545.39,52.0
545.45,41.0
545.52,64.0
545.58,75.0
545.64,99.0
545.71,85.0
545.77,86.0
545.83,92.0
545.89,99.0
545.96,94.0
546.02,97.0
546.08,88.0
546.15,92.0
546.21,104.0
546.27,101.0
546.34,94.0
546.4,88.0
546.46,82.0
546.52,104.0
546.59,86.0
546.65,79.0
546.71,79.0
546.78,76.0
546.84,59.0
546.9,72.0
546.97,84.0
547.03,107.0
547.09,85.0
547.15,94.0
547.22,119.0
547.28,109.0
547.34,96.0
547.41,103.0
547.47,104.0
547.53,87.0
547.6,113.0
547.66,122.0
547.72,121.0
547.78,111.0
547.85,99.0
547.91,114.0
547.97,123.0
548.04,124.0
548.1,132.0
548.16,125.0
548.23,96.0
548.29,106.0
548.35,96.0
548.41,89.0
548.48,114.0
548.54,111.0
548.6,89.0
548.67,102.0
548.73,110.0
548.79,102.0
548.86,111.0
548.92,98.0
548.98,107.0
549.04,113.0
549.11,100.0
549.17,106.0
549.23,124.0
549.3,131.0
549.36,113.0
549.42,156.0
549.49,137.0
549.55,142.0
549.61,155.0
549.67,145.0
549.74,133.0
549.8,147.0
549.86,143.0
549.93,139.0
549.99,133.0
550.05,130.0
550.12,123.0
550.18,128.0
550.24,121.0
550.3,97.0
550.37,94.0
550.43,140.0
550.49,141.0
550.56,143.0
550.62,136.0
550.68,121.0
550.75,137.0
550.81,140.0
550.87,163.0
550.93,153.0
551.0,169.0
551.06,187.0
551.12,186.0
551.19,176.0
551.25,148.0
551.31,165.0
551.38,156.0
551.44,146.0
551.5,169.0
551.56,173.0
551.63,149.0
551.69,136.0
551.75,136.0
551.82,136.0
551.88,130.0
551.94,138.0
552.01,152.0
552.07,138.0
552.13,134.0
552.19,130.0
552.26,119.0
552.32,128.0
552.38,131.0
552.45,148.0
552.51,135.0
552.57,129.0
552.64,125.0
552.7,127.0
552.76,136.0
552.82,116.0
552.89,138.0
552.95,144.0
553.01,150.0
553.08,158.0
553.14,153.0
553.2,143.0
553.27,139.0
553.33,156.0
553.39,137.0
553.45,158.0
553.52,141.0
553.58,152.0
553.64,169.0
553.71,130.0
553.77,123.0
553.83,130.0
553.9,138.0
553.96,140.0
554.02,119.0
554.08,113.0
554.15,96.0
554.21,116.0
554.27,96.0
554.34,104.0
554.4,129.0
554.46,121.0
554.53,108.0
554.59,106.0
554.65,97.0
554.71,117.0
554.78,119.0
554.84,128.0
554.9,125.0
554.97,130.0
555.03,116.0
555.09,115.0
555.16,138.0
555.22,135.0
555.28,146.0
555.34,136.0
555.41,137.0
555.47,141.0
555.53,135.0
555.6,142.0
555.66,125.0
555.72,138.0
555.79,132.0
555.85,120.0
555.91,123.0
555.97,138.0
556.04,150.0
556.1,142.0
556.16,140.0
556.23,138.0
556.29,163.0
556.35,159.0
556.42,154.0
556.48,172.0
556.54,143.0
556.6,179.0
556.67,182.0
556.73,174.0
556.79,198.0
556.86,183.0
556.92,188.0
556.98,194.0
557.05,208.0
557.11,183.0
557.17,175.0
557.23,195.0
557.3,191.0
557.36,192.0
557.42,200.0
557.49,190.0
557.55,185.0
557.61,199.0
557.68,191.0
557.74,205.0
557.8,205.0
557.86,226.0
557.93,242.0
557.99,231.0
558.05,228.0
558.12,222.0
558.18,220.0
558.24,228.0
558.31,229.0
558.37,215.0
558.43,199.0
558.49,196.0
558.56,203.0
558.62,190.0
558.68,194.0
558.75,195.0
558.81,182.0
558.87,170.0
558.94,169.0
559.0,168.0
559.06,163.0
559.12,179.0
559.19,181.0
559.25,154.0
559.31,162.0
559.38,177.0
559.44,168.0
559.5,190.0
559.57,169.0
559.63,159.0
559.69,154.0
559.75,170.0
559.82,165.0
559.88,154.0
559.94,147.0
560.01,175.0
560.07,164.0
560.13,166.0
560.2,161.0
560.26,161.0
560.32,145.0
560.38,147.0
560.45,158.0
560.51,135.0
560.57,133.0
560.64,124.0
560.7,148.0
560.76,118.0
560.83,127.0
560.89,133.0
560.95,113.0
561.01,134.0
561.08,107.0
561.14,105.0
561.2,117.0
561.27,135.0
561.33,146.0
561.39,139.0
561.46,106.0
561.52,114.0
561.58,108.0
561.64,103.0
561.71,110.0
561.77,110.0
561.83,102.0
561.9,97.0
561.96,96.0
562.02,59.0
562.09,50.0
562.15,91.0
562.21,71.0
562.27,58.0
562.34,64.0
562.4,76.0
562.46,66.0
562.53,70.0
562.59,83.0
562.65,92.0
562.72,95.0
562.78,85.0
562.84,79.0
562.9,78.0
562.97,78.0
563.03,72.0
563.09,73.0
563.16,68.0
563.22,75.0
563.28,86.0
563.35,74.0
563.41,93.0
563.47,118.0
563.53,109.0
563.6,108.0
563.66,96.0
563.72,101.0
563.79,102.0
563.85,100.0
563.91,100.0
563.98,107.0
564.04,101.0
564.1,100.0
564.16,77.0
564.23,90.0
564.29,79.0
564.35,68.0
564.42,87.0
564.48,87.0
564.54,73.0
564.61,83.0
564.67,84.0
564.73,95.0
564.79,100.0
564.86,117.0
564.92,101.0
564.98,89.0
565.05,112.0
565.11,104.0
565.17,113.0
565.24,112.0
565.3,96.0
565.36,112.0
565.42,119.0
565.49,105.0
565.55,97.0
565.61,101.0
565.68,77.0
565.74,94.0
565.8,83.0
565.87,98.0
565.93,89.0
565.99,73.0
566.05,83.0
566.12,86.0
566.18,79.0
566.24,72.0
566.31,92.0
566.37,91.0
566.43,101.0
566.5,89.0
566.56,90.0
566.62,92.0
566.68,105.0
566.75,91.0
566.81,103.0
566.87,96.0
566.94,104.0
567.0,94.0
567.06,97.0
567.13,106.0
567.19,100.0
567.25,113.0
567.31,111.0
567.38,123.0
567.44,113.0
567.5,117.0
567.57,126.0
567.63,125.0
567.69,136.0
567.76,150.0
567.82,164.0
567.88,148.0
567.94,139.0
568.01,125.0
568.07,146.0
568.13,146.0
568.2,125.0
568.26,122.0
568.32,138.0
568.39,138.0
568.45,154.0
568.51,140.0
568.57,139.0
568.64,147.0
568.7,162.0
568.76,149.0
568.83,158.0
568.89,157.0
568.95,128.0
569.02,127.0
569.08,141.0
569.14,125.0
569.2,109.0
569.27,99.0
569.33,97.0
569.39,100.0
569.46,97.0
569.52,96.0
569.58,113.0
569.65,86.0
569.71,87.0
569.77,93.0
569.83,107.0
569.9,117.0
569.96,109.0
570.02,88.0
570.09,104.0
570.15,102.0
570.21,83.0
570.28,86.0
570.34,100.0
570.4,93.0
570.46,98.0
570.53,99.0
570.59,95.0
570.65,108.0
570.72,102.0
570.78,91.0
570.84,84.0
570.91,103.0
570.97,108.0
571.03,106.0
571.09,112.0
571.16,111.0
571.22,120.0
571.28,91.0
571.35,99.0
571.41,85.0
571.47,89.0
571.54,99.0
571.6,108.0
571.66,89.0
571.72,76.0
571.79,87.0
571.85,93.0
571.91,91.0
571.98,85.0
572.04,118.0
572.1,119.0
572.17,111.0
572.23,104.0
572.29,110.0
572.35,130.0
572.42,103.0
572.48,96.0
572.54,121.0
572.61,121.0
572.67,106.0
572.73,106.0
572.8,83.0
572.86,103.0
572.92,94.0
572.98,84.0
573.05,82.0
573.11,96.0
573.17,108.0
573.24,90.0
573.3,103.0
573.36,86.0
573.43,81.0
573.49,88.0
573.55,77.0
573.61,99.0
573.68,99.0
573.74,118.0
573.8,109.0
573.87,103.0
573.93,127.0
573.99,117.0
574.06,100.0
574.12,124.0
574.18,116.0
574.24,108.0
574.31,144.0
574.37,141.0
574.43,141.0
574.5,126.0
574.56,121.0
574.62,138.0
574.69,140.0
574.75,155.0
574.81,144.0
574.87,158.0
574.94,153.0
575.0,142.0
575.06,162.0
575.13,157.0
575.19,180.0
575.25,173.0
575.32,173.0
575.38,162.0
575.44,146.0
575.5,151.0
575.57,157.0
575.63,150.0
575.69,154.0
575.76,164.0
575.82,162.0
575.88,155.0
575.95,158.0
576.01,153.0
576.07,140.0
576.13,149.0
576.2,136.0
576.26,155.0
576.32,156.0
576.39,177.0
576.45,156.0
576.51,155.0
576.58,187.0
576.64,175.0
576.7,133.0
576.76,145.0
576.83,138.0
576.89,150.0
576.95,144.0
577.02,158.0
577.08,153.0
577.14,138.0
577.21,149.0
577.27,147.0
577.33,130.0
577.39,99.0
577.46,124.0
577.52,117.0
577.58,132.0
577.65,117.0
577.71,124.0
577.77,107.0
577.84,96.0
577.9,117.0
577.96,103.0
578.02,105.0
578.09,92.0
578.15,84.0
578.21,94.0
578.28,87.0
578.34,93.0
578.4,112.0
578.47,111.0
578.53,115.0
578.59,114.0
578.65,130.0
578.72,113.0
578.78,99.0
578.84,116.0
578.91,108.0
578.97,129.0
579.03,103.0
579.1,108.0
579.16,127.0
579.22,107.0
579.28,100.0
579.35,104.0
579.41,103.0
579.47,130.0
579.54,117.0
579.6,106.0
579.66,105.0
579.73,115.0
579.79,114.0
579.85,97.0
579.91,120.0
579.98,99.0
580.04,117.0
580.1,133.0
580.17,107.0
580.23,91.0
580.29,135.0
580.36,116.0
580.42,113.0
580.48,121.0
580.54,140.0
580.61,136.0
580.67,138.0
580.73,130.0
580.8,162.0
580.86,165.0
580.92,187.0
580.99,185.0
581.05,167.0
581.11,173.0
581.17,182.0
581.24,196.0
581.3,214.0
581.36,188.0
581.43,213.0
581.49,187.0
581.55,169.0
581.62,190.0
581.68,185.0
581.74,177.0
581.8,206.0
581.87,211.0
581.93,208.0
581.99,201.0
582.06,180.0
582.12,201.0
582.18,196.0
582.25,195.0
582.31,216.0
582.37,210.0
582.43,223.0
582.5,220.0
582.56,247.0
582.62,247.0
582.69,227.0
582.75,250.0
582.81,247.0
582.88,265.0
582.94,272.0
583.0,265.0
583.06,256.0
583.13,246.0
583.19,231.0
583.25,234.0
583.32,250.0
583.38,246.0
583.44,238.0
583.51,238.0
583.57,232.0
583.63,247.0
583.69,276.0
583.76,253.0
583.82,260.0
583.88,284.0
583.95,269.0
584.01,269.0
584.07,268.0
584.14,287.0
584.2,257.0
584.26,257.0
584.32,248.0
584.39,243.0
584.45,256.0
584.51,256.0
584.58,258.0
584.64,259.0
584.7,248.0
584.77,248.0
584.83,257.0
584.89,243.0
584.95,227.0
585.02,220.0
585.08,225.0
585.14,221.0
585.21,223.0
585.27,217.0
585.33,231.0
585.4,240.0
585.46,228.0
585.52,226.0
585.58,256.0
585.65,231.0
585.71,212.0
585.77,218.0
585.84,209.0
585.9,190.0
585.96,207.0
586.03,202.0
586.09,204.0
586.15,216.0
586.21,202.0
586.28,213.0
586.34,208.0
586.4,193.0
586.47,201.0
586.53,182.0
586.59,214.0
586.66,226.0
586.72,220.0
586.78,216.0
586.84,217.0
586.91,205.0
586.97,220.0
587.03,208.0
587.1,198.0
587.16,194.0
587.22,191.0
587.29,174.0
587.35,178.0
587.41,177.0
587.47,186.0
587.54,160.0
587.6,162.0
587.66,162.0
587.73,165.0
587.79,161.0
587.85,169.0
587.92,176.0
587.98,158.0
588.04,168.0
588.1,165.0
588.17,179.0
588.23,187.0
588.29,166.0
588.36,169.0
588.42,176.0
588.48,199.0
588.55,175.0
588.61,170.0
588.67,177.0
588.73,160.0
588.8,152.0
588.86,149.0
588.92,146.0
588.99,157.0
589.05,153.0
589.11,125.0
589.18,131.0
589.24,121.0
589.3,135.0
589.36,128.0
589.43,104.0
589.49,117.0
589.55,136.0
589.62,113.0
589.68,114.0
589.74,134.0
589.81,152.0
589.87,135.0
589.93,126.0
589.99,124.0
590.06,110.0
590.12,114.0
590.18,113.0
590.25,105.0
590.31,100.0
590.37,99.0
590.44,102.0
590.5,97.0
590.56,106.0
590.62,96.0
590.69,103.0
590.75,105.0
590.81,125.0
590.88,103.0
590.94,99.0
591.0,108.0
591.07,82.0
591.13,72.0
591.19,99.0
591.25,94.0
591.32,105.0
591.38,91.0
591.44,101.0
591.51,109.0
591.57,100.0
591.63,121.0
591.7,96.0
591.76,99.0
591.82,106.0
591.88,126.0
591.95,110.0
592.01,113.0
592.07,109.0
592.14,120.0
592.2,114.0
592.26,92.0
592.33,85.0
592.39,104.0
592.45,121.0
592.51,131.0
592.58,127.0
592.64,116.0
592.7,109.0
592.77,105.0
592.83,106.0
592.89,112.0
592.96,100.0
593.02,119.0
593.08,139.0
593.14,119.0
593.21,124.0
593.27,136.0
593.33,133.0
593.4,136.0
593.46,148.0
593.52,150.0
593.59,139.0
593.65,150.0
593.71,159.0
593.77,165.0
593.84,151.0
593.9,142.0
593.96,133.0
594.03,141.0
594.09,156.0
594.15,137.0
594.22,150.0
594.28,133.0
594.34,156.0
594.4,164.0
594.47,136.0
594.53,125.0
594.59,142.0
594.66,138.0
594.72,134.0
594.78,95.0
594.85,115.0
594.91,150.0
594.97,135.0
595.03,152.0
595.1,165.0
595.16,128.0
595.22,121.0
595.29,110.0
595.35,121.0
595.41,109.0
595.48,129.0
595.54,108.0
595.6,110.0
595.66,111.0
595.73,99.0
595.79,116.0
595.85,103.0
595.92,100.0
595.98,100.0
596.04,112.0
596.11,94.0
596.17,100.0
596.23,113.0
596.29,99.0
596.36,90.0
596.42,99.0
596.48,91.0
596.55,89.0
596.61,104.0
596.67,94.0
596.74,107.0
596.8,111.0
596.86,133.0
596.92,109.0
596.99,122.0
597.05,126.0
597.11,117.0
597.18,141.0
597.24,127.0
597.3,126.0
597.37,135.0
597.43,128.0
597.49,110.0
597.55,124.0
597.62,121.0
597.68,127.0
597.74,112.0
597.81,100.0
597.87,120.0
597.93,130.0
598.0,125.0
598.06,133.0
598.12,117.0
598.18,119.0
598.25,147.0
598.31,134.0
598.37,143.0
598.44,142.0
598.5,145.0
598.56,130.0
598.63,120.0
598.69,123.0
598.75,118.0
598.81,136.0
598.88,135.0
598.94,144.0
599.0,132.0
599.07,120.0
599.13,125.0
599.19,133.0
599.26,137.0
599.32,139.0
599.38,117.0
599.44,117.0
599.51,121.0
599.57,109.0
599.63,103.0
599.7,106.0
599.76,108.0
599.82,87.0
599.89,81.0
599.95,83.0
600.01,105.0
600.07,95.0
600.14,95.0
600.2,81.0
600.26,106.0
600.33,120.0
600.39,73.0
600.45,83.0
600.52,95.0
600.58,85.0
600.64,85.0
600.7,92.0
600.77,97.0
600.83,84.0
600.89,70.0
600.96,85.0
601.02,70.0
601.08,74.0
601.15,57.0
601.21,60.0
601.27,68.0
601.33,80.0
601.4,75.0
601.46,74.0
601.52,74.0
601.59,70.0
601.65,80.0
601.71,88.0
601.78,110.0
601.84,107.0
601.9,89.0
601.96,84.0
602.03,87.0
602.09,99.0
602.15,120.0
602.22,125.0
602.28,105.0
602.34,110.0
602.41,117.0
602.47,93.0
602.53,109.0
602.59,103.0
602.66,94.0
602.72,104.0
602.78,103.0
602.85,109.0
602.91,98.0
602.97,105.0
603.04,116.0
603.1,103.0
603.16,118.0
603.22,118.0
603.29,104.0
603.35,113.0
603.41,112.0
603.48,112.0
603.54,106.0
603.6,100.0
603.67,110.0
603.73,97.0
603.79,92.0
603.85,83.0
603.92,88.0
603.98,91.0
604.04,103.0
604.11,110.0
604.17,95.0
604.23,85.0
604.3,93.0
604.36,100.0
604.42,102.0
604.48,108.0
604.55,114.0
604.61,128.0
604.67,107.0
604.74,107.0
604.8,113.0
604.86,120.0
604.93,129.0
604.99,135.0
605.05,128.0
605.11,110.0
605.18,108.0
605.24,125.0
605.3,126.0
605.37,120.0
605.43,143.0
605.49,133.0
605.56,137.0
605.62,137.0
605.68,138.0
605.74,159.0
605.81,163.0
605.87,151.0
605.93,152.0
606.0,155.0
606.06,129.0
606.12,117.0
606.19,132.0
606.25,136.0
606.31,143.0
606.37,138.0
606.44,130.0
606.5,132.0
606.56,136.0
606.63,148.0
606.69,147.0
606.75,131.0
606.82,145.0
606.88,140.0
606.94,145.0
607.0,152.0
607.07,131.0
607.13,133.0
607.19,132.0
607.26,143.0
607.32,162.0
607.38,154.0
607.45,156.0
607.51,154.0
607.57,176.0
607.63,173.0
607.7,158.0
607.76,176.0
607.82,157.0
607.89,176.0
607.95,208.0
608.01,201.0
608.08,187.0
608.14,180.0
608.2,184.0
608.26,201.0
608.33,194.0
608.39,199.0
608.45,210.0
608.52,186.0
608.58,170.0
608.64,200.0
608.71,187.0
608.77,214.0
608.83,189.0
608.89,206.0
608.96,207.0
609.02,199.0
609.08,195.0
609.15,181.0
609.21,192.0
609.27,189.0
609.34,205.0
609.4,220.0
609.46,215.0
609.52,213.0
609.59,197.0
609.65,223.0
609.71,199.0
609.78,200.0
609.84,202.0
609.9,200.0
609.97,193.0
610.03,183.0
610.09,185.0
610.15,167.0
610.22,161.0
610.28,182.0
610.34,166.0
610.41,150.0
610.47,154.0
610.53,137.0
610.6,128.0
610.66,137.0
610.72,130.0
610.78,130.0
610.85,126.0
610.91,123.0
610.97,133.0
611.04,129.0
611.1,122.0
611.16,125.0
611.23,128.0
611.29,124.0
611.35,128.0
611.41,134.0
611.48,143.0
611.54,130.0
611.6,130.0
611.67,112.0
611.73,103.0
611.79,114.0
611.86,122.0
611.92,103.0
611.98,102.0
612.04,94.0
612.11,111.0
612.17,118.0
612.23,85.0
612.3,89.0
612.36,107.0
612.42,119.0
612.49,115.0
612.55,103.0
612.61,98.0
612.67,110.0
612.74,114.0
612.8,103.0
612.86,98.0
612.93,113.0
612.99,116.0
613.05,125.0
613.12,117.0
613.18,123.0
613.24,133.0
613.3,130.0
613.37,126.0
613.43,110.0
613.49,95.0
613.56,116.0
613.62,109.0
613.68,89.0
613.75,110.0
613.81,93.0
613.87,88.0
613.93,91.0
614.0,76.0
614.06,81.0
614.12,66.0
614.19,85.0
614.25,71.0
614.31,85.0
614.38,74.0
614.44,55.0
614.5,49.0
614.56,67.0
614.63,59.0
614.69,56.0
614.75,55.0
614.82,72.0
614.88,89.0
614.94,83.0
615.01,89.0
615.07,68.0
615.13,62.0
615.19,62.0
615.26,69.0
615.32,93.0
615.38,82.0
615.45,58.0
615.51,62.0
615.57,69.0
615.64,64.0
615.7,61.0
615.76,71.0
615.82,82.0
615.89,70.0
615.95,58.0
616.01,75.0
616.08,86.0
616.14,98.0
616.2,67.0
616.27,69.0
616.33,70.0
616.39,73.0
616.45,83.0
616.52,85.0
616.58,70.0
616.64,66.0
616.71,60.0
616.77,70.0
616.83,83.0
616.9,77.0
616.96,93.0
617.02,90.0
617.08,79.0
617.15,75.0
617.21,69.0
617.27,80.0
617.34,77.0
617.4,66.0
617.46,57.0
617.53,71.0
617.59,58.0
617.65,67.0
617.71,66.0
617.78,52.0
617.84,52.0
617.9,45.0
617.97,41.0
618.03,69.0
618.09,53.0
618.16,70.0
618.22,110.0
618.28,92.0
618.34,111.0
618.41,127.0
618.47,119.0
618.53,136.0
618.6,103.0
618.66,114.0
618.72,141.0
618.79,125.0
618.85,118.0
618.91,117.0
618.97,168.0
619.04,189.0
619.1,193.0
619.16,176.0
619.23,168.0
619.29,188.0
619.35,209.0
619.42,199.0
619.48,152.0
619.54,-2.0
619.6,253.0
619.67,5.0
619.73,169.0
619.79,99.0
619.86,59.0
619.92,294.0
619.98,61.0
620.05,198.0
620.11,122.0
620.17,124.0
620.23,86.0
620.3,29.0
620.36,111.0
620.42,122.0
620.49,170.0
620.55,133.0
620.61,106.0
620.68,78.0
620.74,-34.0
620.8,-77.0
620.86,57.0
620.93,71.0
620.99,-6.0
621.05,14.0
621.12,104.0
621.18,-10.0
621.24,173.0
621.31,178.0
621.37,139.0
621.43,6.0
621.49,-47.0
621.56,15.0
621.62,15.0
621.68,-15.0
621.75,163.0
621.81,17.0
621.87,189.0
621.94,153.0
622.0,-12.0
622.06,-3.0
622.12,43.0
622.19,33.0
622.25,106.0
622.31,45.0
622.38,-8.0
622.44,17.0
622.5,-76.0
622.57,-45.0
622.63,-29.0
622.69,-13.0
622.75,-145.0
622.82,-58.0
622.88,-33.0
622.94,-20.0
623.01,40.0
623.07,5.0
623.13,127.0
623.2,68.0
623.26,-34.0
623.32,101.0
623.38,14.0
623.45,73.0
623.51,13.0
623.57,76.0
623.64,24.0
623.7,53.0
623.76,53.0
623.83,66.0
623.89,123.0
623.95,123.0
624.01,170.0
624.08,96.0
624.14,25.0
624.2,154.0
624.27,127.0
624.33,92.0
624.39,120.0
624.46,211.0
624.52,44.0
624.58,258.0
624.64,149.0
624.71,330.0
624.77,246.0
624.83,64.0
624.9,201.0
624.96,84.0
625.02,149.0
625.09,169.0
625.15,154.0
625.21,242.0
625.27,24.0
625.34,84.0
625.4,23.0
625.46,123.0
625.53,58.0
625.59,63.0
625.65,171.0
625.72,164.0
625.78,148.0
625.84,265.0
625.9,60.0
625.97,219.0
626.03,170.0
626.09,157.0
626.16,136.0
626.22,169.0
626.28,261.0
626.35,218.0
626.41,260.0
626.47,53.0
626.53,-51.0
626.6,-65.0
626.66,147.0
626.72,147.0
626.79,385.0
626.85,225.0
626.91,238.0
626.98,281.0
627.04,122.0
627.1,165.0
627.16,231.0
627.23,343.0
627.29,206.0
627.35,186.0
627.42,-23.0
627.48,64.0
627.54,37.0
627.61,63.0
627.67,129.0
627.73,-25.0
627.79,75.0
627.86,88.0
627.92,159.0
627.98,96.0
628.05,94.0
628.11,147.0
628.17,55.0
628.24,94.0
628.3,58.0
628.36,58.0
628.42,72.0
628.49,42.0
628.55,241.0
628.61,188.0
628.68,10.0
628.74,77.0
628.8,35.0
628.87,99.0
628.93,251.0
628.99,384.0
629.05,345.0
629.12,326.0
629.18,186.0
629.24,78.0
629.31,153.0
629.37,81.0
629.43,294.0
629.5,289.0
629.56,196.0
629.62,284.0
629.68,83.0
629.75,-70.0
629.81,79.0
629.87,-24.0
629.94,134.0
630.0,211.0
630.06,128.0
630.13,129.0
630.19,60.0
630.25,83.0
630.31,-17.0
630.38,9.0
630.44,-66.0
630.5,-16.0
630.57,1.0
630.63,-83.0
630.69,-34.0
630.76,69.0
630.82,132.0
630.88,8.0
630.94,11.0
631.01,78.0
631.07,135.0
631.13,89.0
631.2,174.0
631.26,263.0
631.32,246.0
631.39,267.0
631.45,292.0
631.51,318.0
631.57,170.0
631.64,270.0
631.7,291.0
631.76,251.0
631.83,245.0
631.89,319.0
631.95,303.0
632.02,255.0
632.08,156.0
632.14,129.0
632.2,105.0
632.27,50.0
632.33,126.0
632.39,130.0
632.46,177.0
632.52,232.0
632.58,276.0
632.65,157.0
632.71,114.0
632.77,141.0
632.83,189.0
632.9,190.0
632.96,149.0
633.02,178.0
633.09,131.0
633.15,222.0
633.21,210.0
633.28,259.0
633.34,288.0
633.4,343.0
633.46,337.0
633.53,247.0
633.59,252.0
633.65,274.0
633.72,294.0
633.78,341.0
633.84,361.0
633.91,325.0
633.97,362.0
634.03,293.0
634.09,318.0
634.16,266.0
634.22,238.0
634.28,266.0
634.35,213.0
634.41,299.0
634.47,273.0
634.54,341.0
634.6,248.0
634.66,353.0
634.72,314.0
634.79,358.0
634.85,420.0
634.91,277.0
634.98,456.0
635.04,317.0
635.1,285.0
635.17,297.0
635.23,284.0
635.29,336.0
635.35,291.0
635.42,381.0
635.48,386.0
635.54,262.0
635.61,269.0
635.67,200.0
635.73,281.0
635.8,238.0
635.86,253.0
635.92,266.0
635.98,258.0
636.05,263.0
636.11,300.0
636.17,280.0
636.24,272.0
636.3,311.0
636.36,275.0
636.43,328.0
636.49,171.0
636.55,188.0
636.61,224.0
636.68,282.0
636.74,382.0
636.8,348.0
636.87,351.0
636.93,212.0
636.99,231.0
637.06,227.0
637.12,365.0
637.18,360.0
637.24,355.0
637.31,344.0
637.37,363.0
637.43,235.0
637.5,319.0
637.56,354.0
637.62,324.0
637.69,358.0
637.75,286.0
637.81,286.0
637.87,255.0
637.94,267.0
638.0,299.0
638.06,289.0
638.13,360.0
638.19,284.0
638.25,305.0
638.32,267.0
638.38,242.0
638.44,203.0
638.5,97.0
638.57,107.0
638.63,214.0
638.69,275.0
638.76,189.0
638.82,168.0
638.88,171.0
638.95,131.0
639.01,12.0
639.07,112.0
639.13,135.0
639.2,168.0
639.26,218.0
639.32,198.0
639.39,196.0
639.45,171.0
639.51,143.0
639.58,205.0
639.64,98.0
639.7,45.0
639.76,125.0
639.83,211.0
639.89,316.0
639.95,229.0
640.02,124.0
640.08,218.0
640.14,120.0
640.21,106.0
640.27,115.0
640.33,48.0
640.39,98.0
640.46,71.0
640.52,1.0
640.58,2.0
640.65,86.0
640.71,11.0
640.77,78.0
640.84,93.0
640.9,-14.0
640.96,92.0
641.02,123.0
641.09,32.0
641.15,63.0
641.21,99.0
641.28,3.0
641.34,-58.0
641.4,74.0
641.47,78.0
641.53,60.0
641.59,33.0
641.65,71.0
641.72,83.0
641.78,81.0
641.84,45.0
641.91,-14.0
641.97,132.0
642.03,105.0
642.1,216.0
642.16,283.0
642.22,217.0
642.28,210.0
642.35,213.0
642.41,191.0
642.47,307.0
642.54,231.0
642.6,328.0
642.66,249.0
642.73,198.0
642.79,115.0
642.85,59.0
642.91,192.0
642.98,103.0
643.04,168.0
643.1,161.0
643.17,69.0
643.23,92.0
643.29,35.0
643.36,84.0
643.42,45.0
643.48,59.0
643.54,61.0
643.61,48.0
643.67,111.0
643.73,121.0
643.8,153.0
643.86,122.0
643.92,174.0
643.99,92.0
644.05,140.0
644.11,106.0
644.17,124.0
644.24,178.0
644.3,209.0
644.36,264.0
644.43,244.0
644.49,241.0
644.55,237.0
644.62,210.0
644.68,187.0
644.74,154.0
644.8,165.0
644.87,194.0
644.93,195.0
644.99,185.0
645.06,248.0
645.12,200.0
645.18,183.0
645.25,144.0
645.31,104.0
645.37,102.0
645.43,16.0
645.5,38.0
645.56,48.0
645.62,67.0
645.69,114.0
645.75,101.0
645.81,148.0
645.88,71.0
645.94,114.0
646.0,115.0
646.06,147.0
646.13,166.0
646.19,42.0
646.25,100.0
646.32,108.0
646.38,132.0
646.44,134.0
646.51,142.0
646.57,163.0
646.63,201.0
646.69,210.0
646.76,172.0
646.82,184.0
646.88,198.0
646.95,167.0
647.01,181.0
647.07,208.0
647.14,230.0
647.2,195.0
647.26,164.0
647.32,244.0
647.39,161.0
647.45,100.0
647.51,210.0
647.58,100.0
647.64,91.0
647.7,132.0
647.77,107.0
647.83,105.0
647.89,123.0
647.95,181.0
648.02,125.0
648.08,155.0
648.14,128.0
648.21,152.0
648.27,80.0
648.33,103.0
648.4,105.0
648.46,118.0
648.52,189.0
648.58,110.0
648.65,169.0
648.71,185.0
648.77,158.0
648.84,234.0
648.9,205.0
648.96,159.0
649.03,192.0
649.09,172.0
649.15,138.0
649.21,207.0
649.28,194.0
649.34,159.0
649.4,157.0
649.47,155.0
649.53,122.0
649.59,94.0
649.66,70.0
649.72,52.0
649.78,66.0
649.84,87.0
649.91,96.0
649.97,137.0
650.03,135.0
650.1,147.0
650.16,143.0
650.22,60.0
650.29,44.0
650.35,24.0
650.41,6.0
650.47,31.0
650.54,17.0
650.6,28.0
650.66,16.0
650.73,31.0
650.79,-43.0
650.85,-15.0
650.92,14.0
650.98,-27.0
651.04,-2.0
651.1,39.0
651.17,60.0
651.23,-32.0
651.29,41.0
651.36,77.0
651.42,4.0
651.48,39.0
651.55,-28.0
651.61,-30.0
651.67,8.0
651.73,-9.0
651.8,63.0
651.86,77.0
651.92,94.0
651.99,58.0
652.05,87.0
652.11,50.0
652.18,61.0
652.24,21.0
652.3,-13.0
652.36,75.0
652.43,72.0
652.49,94.0
652.55,166.0
652.62,118.0
652.68,155.0
652.74,140.0
652.81,52.0
652.87,44.0
652.93,35.0
652.99,57.0
653.06,42.0
653.12,24.0
653.18,49.0
653.25,75.0
653.31,49.0
653.37,21.0
653.44,25.0
653.5,-8.0
653.56,5.0
653.62,-51.0
653.69,-6.0
653.75,-4.0
653.81,67.0
653.88,87.0
653.94,65.0
654.0,12.0
654.07,48.0
654.13,43.0
654.19,-17.0
654.25,72.0
654.32,56.0
654.38,109.0
654.44,78.0
654.51,44.0
654.57,108.0
654.63,156.0
654.7,90.0
654.76,70.0
654.82,62.0
654.88,51.0
654.95,74.0
655.01,6.0
655.07,86.0
655.14,81.0
655.2,112.0
655.26,120.0
655.33,70.0
655.39,74.0
655.45,-3.0
655.51,62.0
655.58,75.0
655.64,41.0
655.7,41.0
655.77,51.0
655.83,95.0
655.89,82.0
655.96,139.0
656.02,87.0
656.08,90.0
656.14,137.0
656.21,105.0
656.27,96.0
656.33,93.0
656.4,134.0
656.46,126.0
656.52,144.0
656.59,62.0
656.65,75.0
656.71,131.0
656.77,98.0
656.84,119.0
656.9,109.0
656.96,104.0
657.03,95.0
657.09,95.0
657.15,126.0
657.22,85.0
657.28,128.0
657.34,143.0
657.4,170.0
657.47,159.0
657.53,205.0
657.59,247.0
657.66,224.0
657.72,241.0
657.78,193.0
657.85,218.0
657.91,204.0
657.97,165.0
658.03,244.0
658.1,238.0
658.16,305.0
658.22,251.0
658.29,207.0
658.35,208.0
658.41,194.0
658.48,128.0
658.54,120.0
658.6,137.0
658.66,161.0
658.73,176.0
658.79,126.0
658.85,137.0
658.92,139.0
658.98,167.0
659.04,200.0
659.11,225.0
659.17,258.0
659.23,232.0
659.29,233.0
659.36,253.0
659.42,204.0
659.48,218.0
659.55,272.0
659.61,265.0
659.67,257.0
659.74,237.0
659.8,234.0
659.86,214.0
659.92,262.0
659.99,298.0
660.05,266.0
660.11,235.0
660.18,206.0
660.24,203.0
660.3,207.0
660.37,153.0
660.43,103.0
660.49,146.0
660.55,158.0
660.62,133.0
660.68,83.0
660.74,101.0
660.81,111.0
660.87,99.0
660.93,93.0
661.0,143.0
661.06,152.0
661.12,130.0
661.18,122.0
661.25,71.0
661.31,87.0
661.37,88.0
661.44,105.0
661.5,145.0
661.56,167.0
661.63,246.0
661.69,244.0
661.75,203.0
661.81,145.0
661.88,176.0
661.94,174.0
662.0,126.0
662.07,117.0
662.13,131.0
662.19,174.0
662.26,150.0
662.32,156.0
662.38,197.0
662.44,159.0
662.51,112.0
662.57,100.0
662.63,35.0
662.7,45.0
662.76,55.0
662.82,71.0
662.89,42.0
662.95,62.0
663.01,106.0
663.07,104.0
663.14,111.0
663.2,63.0
663.26,126.0
663.33,137.0
663.39,113.0
663.45,82.0
663.52,89.0
663.58,55.0
663.64,96.0
663.7,123.0
663.77,128.0
663.83,107.0
663.89,108.0
663.96,108.0
664.02,145.0
664.08,130.0
664.15,137.0
664.21,137.0
664.27,95.0
664.33,45.0
664.4,110.0
664.46,133.0
664.52,71.0
664.59,96.0
664.65,94.0
664.71,139.0
664.78,92.0
664.84,127.0
664.9,39.0
664.96,90.0
665.03,89.0
665.09,63.0
665.15,114.0
665.22,120.0
665.28,147.0
665.34,107.0
665.41,140.0
665.47,163.0
665.53,180.0
665.59,116.0
665.66,120.0
665.72,129.0
665.78,138.0
665.85,63.0
665.91,79.0
665.97,87.0
666.04,110.0
666.1,170.0
666.16,163.0
666.22,185.0
666.29,202.0
666.35,193.0
666.41,217.0
666.48,165.0
666.54,201.0
666.6,217.0
666.67,200.0
666.73,192.0
666.79,194.0
666.85,183.0
666.92,166.0
666.98,152.0
667.04,216.0
667.11,181.0
667.17,169.0
667.23,161.0
667.3,152.0
667.36,124.0
667.42,112.0
667.48,121.0
667.55,122.0
667.61,132.0
667.67,184.0
667.74,157.0
667.8,148.0
667.86,136.0
667.93,144.0
667.99,117.0
668.05,148.0
668.11,100.0
668.18,83.0
668.24,82.0
668.3,152.0
668.37,201.0
668.43,154.0
668.49,186.0
668.56,159.0
668.62,172.0
668.68,167.0
668.74,168.0
668.81,140.0
668.87,178.0
668.93,210.0
669.0,171.0
669.06,180.0
669.12,218.0
669.19,209.0
669.25,226.0
669.31,197.0
669.37,167.0
669.44,210.0
669.5,177.0
669.56,211.0
669.63,207.0
669.69,219.0
669.75,238.0
669.82,222.0
669.88,185.0
669.94,196.0
670.0,146.0
670.07,131.0
670.13,233.0
670.19,221.0
670.26,203.0
670.32,240.0
670.38,205.0
670.45,139.0
670.51,139.0
670.57,45.0
670.63,75.0
670.7,104.0
670.76,97.0
670.82,90.0
670.89,111.0
670.95,165.0
671.01,98.0
671.08,114.0
671.14,166.0
671.2,107.0
671.26,131.0
671.33,100.0
671.39,139.0
671.45,111.0
671.52,133.0
671.58,114.0
671.64,122.0
671.71,133.0
671.77,140.0
671.83,162.0
671.89,147.0
671.96,111.0
672.02,104.0
672.08,100.0
672.15,125.0
672.21,114.0
672.27,67.0
672.34,161.0
672.4,100.0
672.46,65.0
672.52,71.0
672.59,89.0
672.65,145.0
672.71,137.0
672.78,123.0
672.84,147.0
672.9,136.0
672.97,163.0
673.03,146.0
673.09,128.0
673.15,166.0
673.22,130.0
673.28,164.0
673.34,141.0
673.41,145.0
673.47,183.0
673.53,150.0
673.6,183.0
673.66,181.0
673.72,156.0
673.78,109.0
673.85,124.0
673.91,84.0
673.97,79.0
674.04,139.0
674.1,124.0
674.16,155.0
674.23,160.0
674.29,150.0
674.35,171.0
674.41,180.0
674.48,131.0
674.54,149.0
674.6,150.0
674.67,136.0
674.73,172.0
674.79,157.0
674.86,158.0
674.92,105.0
674.98,142.0
675.04,128.0
675.11,123.0
675.17,181.0
675.23,127.0
675.3,112.0
675.36,111.0
675.42,95.0
675.49,130.0
675.55,128.0
675.61,107.0
675.67,107.0
675.74,110.0
675.8,55.0
675.86,71.0
675.93,71.0
675.99,78.0
676.05,115.0
676.12,108.0
676.18,92.0
676.24,131.0
676.3,128.0
676.37,185.0
676.43,143.0
676.49,140.0
676.56,148.0
676.62,153.0
676.68,99.0
676.75,124.0
676.81,149.0
676.87,154.0
676.93,134.0
677.0,143.0
677.06,126.0
677.12,156.0
677.19,92.0
677.25,96.0
677.31,108.0
677.38,138.0
677.44,167.0
677.5,95.0
677.56,83.0
677.63,84.0
677.69,95.0
677.75,79.0
677.82,53.0
677.88,31.0
677.94,44.0
678.01,89.0
678.07,100.0
678.13,96.0
678.19,95.0
678.26,88.0
678.32,52.0
678.38,33.0
678.45,59.0
678.51,70.0
678.57,81.0
678.64,91.0
678.7,96.0
678.76,112.0
678.82,97.0
678.89,80.0
678.95,102.0
679.01,111.0
679.08,78.0
679.14,59.0
679.2,41.0
679.27,27.0
679.33,39.0
679.39,23.0
679.45,28.0
679.52,42.0
679.58,23.0
679.64,55.0
679.71,4.0
679.77,-57.0
679.83,-34.0
679.9,-53.0
679.96,-63.0
680.02,-104.0
680.08,-80.0
680.15,-36.0
680.21,-38.0
680.27,7.0
680.34,24.0
680.4,21.0
680.46,21.0
680.53,25.0
680.59,33.0
680.65,-25.0
680.71,3.0
680.78,16.0
680.84,4.0
680.9,30.0
680.97,61.0
681.03,79.0
681.09,81.0
681.16,97.0
681.22,81.0
681.28,41.0
681.34,71.0
681.41,85.0
681.47,103.0
681.53,132.0
681.6,149.0
681.66,151.0
681.72,147.0
681.79,108.0
681.85,112.0
681.91,134.0
681.97,180.0
682.04,141.0
682.1,107.0
682.16,127.0
682.23,78.0
682.29,106.0
682.35,126.0
682.42,84.0
682.48,101.0
682.54,79.0
682.6,97.0
682.67,77.0
682.73,102.0
682.79,88.0
682.86,97.0
682.92,156.0
682.98,103.0
683.05,149.0
683.11,164.0
683.17,169.0
683.23,174.0
683.3,148.0
683.36,194.0
683.42,149.0
683.49,119.0
683.55,131.0
683.61,151.0
683.68,254.0
683.74,234.0
683.8,219.0
683.86,208.0
683.93,184.0
683.99,237.0
684.05,191.0
684.12,219.0
684.18,252.0
684.24,198.0
684.31,233.0
684.37,238.0
684.43,224.0
684.49,201.0
684.56,225.0
684.62,199.0
684.68,209.0
684.75,221.0
684.81,213.0
684.87,262.0
684.94,293.0
685.0,248.0
685.06,263.0
685.12,258.0
685.19,241.0
685.25,252.0
685.31,263.0
685.38,286.0
685.44,268.0
685.5,265.0
685.57,289.0
685.63,289.0
685.69,246.0
685.75,264.0
685.82,235.0
685.88,236.0
685.94,267.0
686.01,257.0
686.07,238.0
686.13,242.0
686.2,260.0
686.26,243.0
686.32,244.0
686.38,261.0
686.45,277.0
686.51,276.0
686.57,277.0
686.64,266.0
686.7,261.0
686.76,269.0
686.83,259.0
686.89,246.0
686.95,236.0
687.01,198.0
687.08,196.0
687.14,245.0
687.2,227.0
687.27,226.0
687.33,230.0
687.39,264.0
687.46,241.0
687.52,226.0
687.58,216.0
687.64,231.0
687.71,251.0
687.77,251.0
687.83,229.0
687.9,244.0
687.96,246.0
688.02,203.0
688.09,256.0
688.15,257.0
688.21,237.0
688.27,249.0
688.34,236.0
688.4,211.0
688.46,207.0
688.53,208.0
688.59,248.0
688.65,254.0
688.72,238.0
688.78,238.0
688.84,226.0
688.9,253.0
688.97,246.0
689.03,201.0
689.09,228.0
689.16,203.0
689.22,164.0
689.28,197.0
689.35,175.0
689.41,215.0
689.47,196.0
689.53,210.0
689.6,186.0
689.66,188.0
689.72,162.0
689.79,166.0
689.85,192.0
689.91,194.0
689.98,178.0
690.04,164.0
690.1,175.0
690.16,187.0
690.23,190.0
690.29,161.0
690.35,160.0
690.42,167.0
690.48,185.0
690.54,186.0
690.61,171.0
690.67,204.0
690.73,237.0
690.79,227.0
690.86,238.0
690.92,212.0
690.98,215.0
691.05,207.0
691.11,227.0
691.17,214.0
691.24,194.0
691.3,210.0
691.36,222.0
691.42,213.0
691.49,208.0
691.55,233.0
691.61,215.0
691.68,241.0
691.74,217.0
691.8,226.0
691.87,248.0
691.93,241.0
691.99,208.0
692.05,219.0
692.12,190.0
692.18,215.0
692.24,241.0
692.31,224.0
692.37,218.0
692.43,204.0
692.5,230.0
692.56,219.0
692.62,201.0
692.68,210.0
692.75,242.0
692.81,264.0
692.87,294.0
692.94,296.0
693.0,302.0
693.06,263.0
693.13,255.0
693.19,287.0
693.25,271.0
693.31,290.0
693.38,314.0
693.44,329.0
693.5,341.0
693.57,353.0
693.63,322.0
693.69,314.0
693.76,304.0
693.82,272.0
693.88,259.0
693.94,268.0
694.01,306.0
694.07,305.0
694.13,304.0
694.2,277.0
694.26,293.0
694.32,293.0
694.39,264.0
694.45,304.0
694.51,293.0
694.57,313.0
694.64,266.0
694.7,248.0
694.76,259.0
694.83,212.0
694.89,251.0
694.95,252.0
695.02,270.0
695.08,268.0
695.14,266.0
695.2,267.0
695.27,226.0
695.33,238.0
695.39,219.0
695.46,212.0
695.52,172.0
695.58,156.0
695.65,169.0
695.71,131.0
695.77,157.0
695.83,168.0
695.9,169.0
695.96,167.0
696.02,163.0
696.09,125.0
696.15,165.0
696.21,164.0
696.28,134.0
696.34,161.0
696.4,147.0
696.46,165.0
696.53,188.0
696.59,206.0
696.65,224.0
696.72,251.0
696.78,274.0
696.84,254.0
696.91,252.0
696.97,240.0
697.03,238.0
697.09,233.0
697.16,241.0
697.22,229.0
697.28,261.0
697.35,267.0
697.41,260.0
697.47,240.0
697.54,199.0
697.6,203.0
697.66,192.0
697.72,182.0
697.79,135.0
697.85,172.0
697.91,155.0
697.98,157.0
698.04,145.0
698.1,97.0
698.17,126.0
698.23,97.0
698.29,134.0
698.35,127.0
698.42,106.0
698.48,141.0
698.54,109.0
698.61,116.0
698.67,152.0
698.73,104.0
698.8,122.0
698.86,159.0
698.92,127.0
698.98,134.0
699.05,152.0
699.11,168.0
699.17,148.0
699.24,143.0
699.3,141.0
699.36,182.0
699.43,127.0
699.49,125.0
699.55,149.0
699.61,120.0
699.68,128.0
699.74,123.0
699.8,83.0
699.87,94.0
699.93,117.0
699.99,101.0
700.06,94.0
700.12,112.0
700.18,87.0
700.24,95.0
700.31,58.0
700.37,68.0
700.43,83.0
700.5,100.0
700.56,100.0
700.62,91.0
700.69,124.0
700.75,120.0
700.81,92.0
700.87,119.0
700.94,76.0
701.0,118.0
701.06,90.0
701.13,105.0
701.19,106.0
701.25,115.0
701.32,109.0
701.38,92.0
701.44,125.0
701.5,127.0
701.57,171.0
701.63,138.0
701.69,131.0
701.76,130.0
701.82,122.0
701.88,90.0
701.95,105.0
702.01,76.0
702.07,87.0
702.13,109.0
702.2,120.0
702.26,135.0
702.32,105.0
702.39,105.0
702.45,107.0
702.51,85.0
702.58,118.0
702.64,88.0
702.7,100.0
702.76,120.0
702.83,128.0
702.89,119.0
702.95,88.0
703.02,129.0
703.08,114.0
703.14,121.0
703.21,116.0
703.27,112.0
703.33,109.0
703.39,89.0
703.46,67.0
703.52,27.0
703.58,68.0
703.65,80.0
703.71,82.0
703.77,96.0
703.84,70.0
703.9,87.0
703.96,83.0
704.02,73.0
704.09,60.0
704.15,95.0
704.21,82.0
704.28,79.0
704.34,92.0
704.4,95.0
704.47,94.0
704.53,100.0
704.59,83.0
704.65,73.0
704.72,50.0
704.78,87.0
704.84,46.0
704.91,71.0
704.97,83.0
705.03,98.0
705.1,142.0
705.16,87.0
705.22,91.0
705.28,125.0
705.35,119.0
705.41,104.0
705.47,94.0
705.54,104.0
705.6,81.0
705.66,105.0
705.73,98.0
705.79,102.0
705.85,67.0
705.91,62.0
705.98,94.0
706.04,66.0
706.1,55.0
706.17,46.0
706.23,80.0
706.29,27.0
706.36,24.0
706.42,58.0
706.48,63.0
706.54,72.0
706.61,53.0
706.67,62.0
706.73,72.0
706.8,65.0
706.86,54.0
706.92,53.0
706.99,78.0
707.05,61.0
707.11,64.0
707.17,76.0
707.24,68.0
707.3,81.0
707.36,84.0
707.43,122.0
707.49,130.0
707.55,80.0
707.62,87.0
707.68,85.0
707.74,94.0
707.8,103.0
707.87,101.0
707.93,139.0
707.99,121.0
708.06,126.0
708.12,119.0
708.18,127.0
708.25,109.0
708.31,114.0
708.37,111.0
708.43,100.0
708.5,99.0
708.56,105.0
708.62,81.0
708.69,74.0
708.75,87.0
708.81,75.0
708.88,108.0
708.94,92.0
709.0,96.0
709.06,106.0
709.13,100.0
709.19,95.0
709.25,96.0
709.32,114.0
709.38,116.0
709.44,157.0
709.51,140.0
709.57,168.0
709.63,188.0
709.69,205.0
709.76,172.0
709.82,166.0
709.88,147.0
709.95,176.0
710.01,219.0
710.07,246.0
710.14,238.0
710.2,232.0
710.26,230.0
710.32,231.0
710.39,229.0
710.45,232.0
710.51,233.0
710.58,228.0
710.64,213.0
710.7,214.0
710.77,205.0
710.83,178.0
710.89,177.0
710.95,179.0
711.02,155.0
711.08,164.0
711.14,164.0
711.21,148.0
711.27,131.0
711.33,129.0
711.4,136.0
711.46,139.0
711.52,142.0
711.58,149.0
711.65,171.0
711.71,186.0
711.77,146.0
711.84,172.0
711.9,167.0
711.96,171.0
712.03,175.0
712.09,187.0
712.15,200.0
712.21,169.0
712.28,180.0
712.34,185.0
712.4,161.0
712.47,198.0
712.53,212.0
712.59,209.0
712.66,204.0
712.72,205.0
712.78,189.0
712.84,224.0
712.91,204.0
712.97,152.0
713.03,185.0
713.1,177.0
713.16,185.0
713.22,193.0
713.29,172.0
713.35,149.0
713.41,166.0
713.47,199.0
713.54,180.0
713.6,183.0
713.66,195.0
713.73,186.0
713.79,147.0
713.85,132.0
713.92,170.0
713.98,125.0
714.04,127.0
714.1,131.0
714.17,152.0
714.23,161.0
714.29,117.0
714.36,120.0
714.42,110.0
714.48,98.0
714.55,97.0
714.61,86.0
714.67,67.0
714.73,104.0
714.8,111.0
714.86,109.0
714.92,136.0
714.99,119.0
715.05,142.0
715.11,145.0
715.18,127.0
715.24,109.0
715.3,102.0
715.36,130.0
715.43,147.0
715.49,135.0
715.55,131.0
715.62,153.0
715.68,137.0
715.74,153.0
715.81,139.0
715.87,105.0
715.93,114.0
715.99,97.0
716.06,108.0
716.12,92.0
716.18,88.0
716.25,84.0
716.31,91.0
716.37,91.0
716.44,100.0
716.5,116.0
716.56,145.0
716.62,147.0
716.69,114.0
716.75,117.0
716.81,104.0
716.88,114.0
716.94,103.0
717.0,110.0
717.07,120.0
717.13,153.0
717.19,160.0
717.25,193.0
717.32,168.0
717.38,165.0
717.44,172.0
717.51,191.0
717.57,146.0
717.63,126.0
717.7,127.0
717.76,153.0
717.82,171.0
717.88,158.0
717.95,167.0
718.01,146.0
718.07,180.0
718.14,184.0
718.2,171.0
718.26,186.0
718.33,194.0
718.39,193.0
718.45,196.0
718.51,196.0
718.58,193.0
718.64,189.0
718.7,219.0
718.77,181.0
718.83,169.0
718.89,189.0
718.96,203.0
719.02,200.0
719.08,189.0
719.14,183.0
719.21,204.0
719.27,221.0
719.33,217.0
719.4,255.0
719.46,219.0
719.52,204.0
719.59,193.0
719.65,195.0
719.71,204.0
719.77,200.0
719.84,218.0
719.9,230.0
719.96,241.0
720.03,235.0
720.09,224.0
720.15,220.0
720.22,226.0
720.28,224.0
720.34,222.0
720.4,216.0
720.47,230.0
720.53,196.0
720.59,210.0
720.66,213.0
720.72,212.0
720.78,218.0
720.85,200.0
720.91,196.0
720.97,220.0
721.03,228.0
721.1,225.0
721.16,249.0
721.22,209.0
721.29,226.0
721.35,232.0
721.41,215.0
721.48,227.0
721.54,196.0
721.6,191.0
721.66,186.0
721.73,171.0
721.79,193.0
721.85,167.0
721.92,174.0
721.98,170.0
722.04,158.0
722.11,154.0
722.17,178.0
722.23,177.0
722.29,168.0
722.36,177.0
722.42,164.0
722.48,171.0
722.55,160.0
722.61,147.0
722.67,156.0
722.74,178.0
722.8,166.0
722.86,181.0
722.92,179.0
722.99,160.0
723.05,157.0
723.11,179.0
723.18,190.0
723.24,145.0
723.3,134.0
723.37,160.0
723.43,158.0
723.49,167.0
723.55,178.0
723.62,155.0
723.68,195.0
723.74,186.0
723.81,165.0
723.87,179.0
723.93,169.0
724.0,185.0
724.06,163.0
724.12,156.0
724.18,154.0
724.25,168.0
724.31,165.0
724.37,159.0
724.44,175.0
724.5,160.0
724.56,193.0
724.63,199.0
724.69,171.0
724.75,181.0
724.81,185.0
724.88,177.0
724.94,178.0
725.0,188.0
725.07,175.0
725.13,186.0
725.19,182.0
725.26,159.0
725.32,175.0
725.38,175.0
725.44,162.0
725.51,169.0
725.57,186.0
725.63,177.0
725.7,201.0
725.76,182.0
725.82,160.0
725.89,152.0
725.95,156.0
726.01,161.0
726.07,147.0
726.14,160.0
726.2,191.0
726.26,204.0
726.33,187.0
726.39,194.0
726.45,199.0
726.52,195.0
726.58,212.0
726.64,232.0
726.7,227.0
726.77,237.0
726.83,257.0
726.89,237.0
726.96,241.0
727.02,238.0
727.08,267.0
727.15,284.0
727.21,241.0
727.27,232.0
727.33,241.0
727.4,215.0
727.46,223.0
727.52,219.0
727.59,234.0
727.65,224.0
727.71,248.0
727.78,230.0
727.84,227.0
727.9,219.0
727.96,200.0
728.03,212.0
728.09,197.0
728.15,202.0
728.22,201.0
728.28,175.0
728.34,162.0
728.41,156.0
728.47,147.0
728.53,131.0
728.59,109.0
728.66,99.0
728.72,94.0
728.78,83.0
728.85,97.0
728.91,104.0
728.97,80.0
729.04,62.0
729.1,66.0
729.16,61.0
729.22,64.0
729.29,43.0
729.35,64.0
729.41,59.0
729.48,54.0
729.54,69.0
729.6,62.0
729.67,70.0
729.73,56.0
729.79,63.0
729.85,66.0
729.92,73.0
729.98,85.0
730.04,77.0
730.11,76.0
730.17,54.0
730.23,70.0
730.3,49.0
730.36,26.0
730.42,45.0
730.48,37.0
730.55,18.0
730.61,6.0
730.67,-10.0
730.74,4.0
730.8,14.0
730.86,40.0
730.93,22.0
730.99,18.0
731.05,-4.0
731.11,-18.0
731.18,3.0
731.24,-4.0
731.3,11.0
731.37,17.0
731.43,5.0
731.49,25.0
731.56,20.0
731.62,43.0
731.68,33.0
731.74,18.0
731.81,28.0
731.87,17.0
731.93,25.0
732.0,7.0
732.06,4.0
732.12,28.0
732.19,56.0
732.25,55.0
732.31,28.0
732.37,11.0
732.44,23.0
732.5,15.0
732.56,18.0
732.63,29.0
732.69,29.0
732.75,27.0
732.82,56.0
732.88,36.0
732.94,33.0
733.0,76.0
733.07,66.0
733.13,55.0
733.19,64.0
733.26,66.0
733.32,83.0
733.38,92.0
733.45,88.0
733.51,92.0
733.57,93.0
733.63,80.0
733.7,109.0
733.76,95.0
733.82,102.0
733.89,114.0
733.95,106.0
734.01,106.0
734.08,95.0
734.14,97.0
734.2,106.0
734.26,108.0
734.33,106.0
734.39,115.0
734.45,131.0
734.52,96.0
734.58,126.0
734.64,156.0
734.71,159.0
734.77,170.0
734.83,163.0
734.89,158.0
734.96,185.0
735.02,196.0
735.08,191.0
735.15,221.0
735.21,228.0
735.27,235.0
735.34,261.0
735.4,258.0
735.46,232.0
735.52,237.0
735.59,230.0
735.65,227.0
735.71,217.0
735.78,209.0
735.84,224.0
735.9,216.0
735.97,202.0
736.03,215.0
736.09,224.0
736.15,197.0
736.22,200.0
736.28,208.0
736.34,178.0
736.41,161.0
736.47,157.0
736.53,140.0
736.6,148.0
736.66,153.0
736.72,154.0
736.78,182.0
736.85,163.0
736.91,147.0
736.97,191.0
737.04,175.0
737.1,200.0
737.16,209.0
737.23,190.0
737.29,185.0
737.35,188.0
737.41,196.0
737.48,189.0
737.54,194.0
737.6,191.0
737.67,195.0
737.73,191.0
737.79,189.0
737.86,156.0
737.92,179.0
737.98,182.0
738.04,192.0
738.11,178.0
738.17,167.0
738.23,202.0
738.3,193.0
738.36,193.0
738.42,170.0
738.49,157.0
738.55,124.0
738.61,124.0
738.67,132.0
738.74,155.0
738.8,157.0
738.86,149.0
738.93,154.0
738.99,113.0
739.05,115.0
739.12,118.0
739.18,99.0
739.24,102.0
739.3,91.0
739.37,101.0
739.43,77.0
739.49,62.0
739.56,67.0
739.62,81.0
739.68,88.0
739.75,76.0
739.81,69.0
739.87,76.0
739.93,49.0
740.0,59.0
740.06,54.0
740.12,68.0
740.19,74.0
740.25,60.0
740.31,77.0
740.38,81.0
740.44,77.0
740.5,77.0
740.56,92.0
740.63,107.0
740.69,115.0
740.75,101.0
740.82,118.0
740.88,129.0
740.94,126.0
741.01,107.0
741.07,132.0
741.13,132.0
741.19,129.0
741.26,121.0
741.32,105.0
741.38,114.0
741.45,108.0
741.51,144.0
741.57,132.0
741.64,166.0
741.7,162.0
741.76,136.0
741.82,147.0
741.89,152.0
741.95,184.0
742.01,188.0
742.08,201.0
742.14,198.0
742.2,204.0
742.27,214.0
742.33,198.0
742.39,208.0
742.45,211.0
742.52,217.0
742.58,250.0
742.64,217.0
742.71,246.0
742.77,245.0
742.83,249.0
742.9,240.0
742.96,254.0
743.02,269.0
743.08,266.0
743.15,263.0
743.21,276.0
743.27,277.0
743.34,291.0
743.4,300.0
743.46,274.0
743.53,288.0
743.59,257.0
743.65,266.0
743.71,301.0
743.78,311.0
743.84,313.0
743.9,338.0
743.97,334.0
744.03,319.0
744.09,299.0
744.16,332.0
744.22,313.0
744.28,311.0
744.34,319.0
744.41,291.0
744.47,268.0
744.53,264.0
744.6,269.0
744.66,253.0
744.72,272.0
744.79,250.0
744.85,241.0
744.91,241.0
744.97,244.0
745.04,230.0
745.1,256.0
745.16,227.0
745.23,229.0
745.29,234.0
745.35,228.0
745.42,242.0
745.48,239.0
745.54,260.0
745.6,258.0
745.67,275.0
745.73,266.0
745.79,261.0
745.86,269.0
745.92,266.0
745.98,272.0
746.05,275.0
746.11,257.0
746.17,213.0
746.23,233.0
746.3,247.0
746.36,260.0
746.42,255.0
746.49,264.0
746.55,236.0
746.61,221.0
746.68,207.0
746.74,214.0
746.8,196.0
746.86,202.0
746.93,196.0
746.99,204.0
747.05,205.0
747.12,194.0
747.18,191.0
747.24,196.0
747.31,191.0
747.37,179.0
747.43,206.0
747.49,187.0
747.56,194.0
747.62,192.0
747.68,183.0
747.75,174.0
747.81,159.0
747.87,172.0
747.94,180.0
748.0,176.0
748.06,146.0
748.12,164.0
748.19,136.0
748.25,161.0
748.31,148.0
748.38,150.0
748.44,154.0
748.5,165.0
748.57,165.0
748.63,157.0
748.69,145.0
748.75,175.0
748.82,184.0
748.88,181.0
748.94,182.0
749.01,183.0
749.07,195.0
749.13,200.0
749.2,191.0
749.26,197.0
749.32,182.0
749.38,191.0
749.45,191.0
749.51,182.0
749.57,191.0
749.64,198.0
749.7,178.0
749.76,197.0
749.83,168.0
749.89,211.0
749.95,181.0
750.01,190.0
750.08,190.0
750.14,202.0
750.2,166.0
750.27,144.0
750.33,162.0
750.39,152.0
750.46,150.0
750.52,142.0
750.58,163.0
750.64,150.0
750.71,153.0
750.77,167.0
750.83,174.0
750.9,183.0
750.96,151.0
751.02,136.0
751.09,147.0
751.15,141.0
751.21,141.0
751.27,158.0
751.34,163.0
751.4,176.0
751.46,187.0
751.53,182.0
751.59,199.0
751.65,184.0
751.72,177.0
751.78,214.0
751.84,213.0
751.9,198.0
751.97,192.0
752.03,207.0
752.09,198.0
752.16,223.0
752.22,197.0
752.28,185.0
752.35,223.0
752.41,203.0
752.47,217.0
752.53,191.0
752.6,209.0
752.66,187.0
752.72,191.0
752.79,203.0
752.85,189.0
752.91,192.0
752.98,195.0
753.04,187.0
753.1,190.0
753.16,191.0
753.23,174.0
753.29,168.0
753.35,156.0
753.42,181.0
753.48,181.0
753.54,175.0
753.61,176.0
753.67,187.0
753.73,180.0
753.79,166.0
753.86,156.0
753.92,140.0
753.98,169.0
754.05,157.0
754.11,154.0
754.17,176.0
754.24,156.0
754.3,161.0
754.36,156.0
754.42,150.0
754.49,135.0
754.55,156.0
754.61,128.0
754.68,144.0
754.74,139.0
754.8,134.0
754.87,124.0
754.93,122.0
754.99,132.0
755.05,119.0
755.12,97.0
755.18,88.0
755.24,124.0
755.31,107.0
755.37,113.0
755.43,94.0
755.5,91.0
755.56,79.0
755.62,47.0
755.68,70.0
755.75,62.0
755.81,53.0
755.87,40.0
755.94,29.0
756.0,58.0
756.06,52.0
756.13,55.0
756.19,53.0
756.25,57.0
756.31,48.0
756.38,54.0
756.44,62.0
756.5,38.0
756.57,33.0
756.63,33.0
756.69,36.0
756.76,21.0
756.82,34.0
756.88,46.0
756.94,31.0
757.01,37.0
757.07,44.0
757.13,57.0
757.2,58.0
757.26,57.0
757.32,66.0
757.39,57.0
757.45,50.0
757.51,40.0
757.57,39.0
757.64,57.0
757.7,45.0
757.76,51.0
757.83,35.0
757.89,49.0
757.95,56.0
758.02,63.0
758.08,73.0
758.14,77.0
758.2,80.0
758.27,72.0
758.33,70.0
758.39,85.0
758.46,68.0
758.52,91.0
758.58,74.0
758.65,60.0
758.71,69.0
758.77,54.0
758.83,64.0
758.9,99.0
758.96,86.0
759.02,95.0
759.09,103.0
759.15,91.0
759.21,109.0
759.28,81.0
759.34,73.0
759.4,58.0
759.46,60.0
759.53,92.0
759.59,90.0
759.65,96.0
759.72,113.0
759.78,110.0
759.84,119.0
759.91,143.0
759.97,138.0
760.03,159.0
760.09,177.0
760.16,156.0
760.22,158.0
760.28,151.0
760.35,165.0
760.41,145.0
760.47,165.0
760.54,163.0
760.6,176.0
760.66,162.0
760.72,148.0
760.79,158.0
760.85,156.0
760.91,137.0
760.98,161.0
761.04,144.0
761.1,138.0
761.17,172.0
761.23,143.0
761.29,155.0
761.35,143.0
761.42,153.0
761.48,135.0
761.54,146.0
761.61,145.0
761.67,142.0
761.73,149.0
761.8,137.0
761.86,153.0
761.92,137.0
761.98,143.0
762.05,158.0
762.11,154.0
762.17,150.0
762.24,141.0
762.3,147.0
762.36,161.0
762.43,172.0
762.49,172.0
762.55,184.0
762.61,160.0
762.68,148.0
762.74,165.0
762.8,160.0
762.87,181.0
762.93,175.0
762.99,162.0
763.06,180.0
763.12,167.0
763.18,167.0
763.24,154.0
763.31,138.0
763.37,144.0
763.43,148.0
763.5,147.0
763.56,130.0
763.62,132.0
763.69,146.0
763.75,126.0
763.81,99.0
763.87,112.0
763.94,115.0
764.0,114.0
764.06,135.0
764.13,142.0
764.19,129.0
764.25,109.0
764.32,117.0
764.38,129.0
764.44,103.0
764.5,97.0
764.57,128.0
764.63,121.0
764.69,124.0
764.76,131.0
764.82,118.0
764.88,131.0
764.95,107.0
765.01,103.0
765.07,104.0
765.13,84.0
765.2,80.0
765.26,91.0
765.32,78.0
765.39,79.0
765.45,72.0
765.51,79.0
765.58,111.0
765.64,83.0
765.7,68.0
765.76,80.0
765.83,86.0
765.89,102.0
765.95,69.0
766.02,92.0
766.08,99.0
766.14,89.0
766.21,121.0
766.27,115.0
766.33,124.0
766.39,123.0
766.46,117.0
766.52,106.0
766.58,100.0
766.65,100.0
766.71,94.0
766.77,108.0
766.84,106.0
766.9,113.0
766.96,130.0
767.02,129.0
767.09,106.0
767.15,88.0
767.21,106.0
767.28,120.0
767.34,123.0
767.4,118.0
767.47,130.0
767.53,151.0
767.59,139.0
767.65,133.0
767.72,143.0
767.78,155.0
767.84,145.0
767.91,142.0
767.97,141.0
768.03,131.0
768.1,128.0
768.16,117.0
768.22,139.0
768.28,150.0
768.35,139.0
768.41,125.0
768.47,139.0
768.54,143.0
768.6,127.0
768.66,138.0
768.73,122.0
768.79,118.0
768.85,120.0
768.91,126.0
768.98,127.0
769.04,113.0
769.1,123.0
769.17,121.0
769.23,135.0
769.29,148.0
769.36,152.0
769.42,150.0
769.48,161.0
769.54,133.0
769.61,140.0
769.67,152.0
769.73,178.0
769.8,175.0
769.86,158.0
769.92,161.0
769.99,170.0
770.05,181.0
770.11,153.0
770.17,154.0
770.24,157.0
770.3,173.0
770.36,174.0
770.43,164.0
770.49,183.0
770.55,164.0
770.62,160.0
770.68,174.0
770.74,194.0
770.8,172.0
770.87,165.0
770.93,161.0
770.99,161.0
771.06,184.0
771.12,167.0
771.18,169.0
771.25,161.0
771.31,154.0
771.37,171.0
771.43,172.0
771.5,181.0
771.56,178.0
771.62,185.0
771.69,170.0
771.75,151.0
771.81,153.0
771.88,159.0
771.94,158.0
772.0,129.0
772.06,135.0
772.13,146.0
772.19,144.0
772.25,143.0
772.32,137.0
772.38,136.0
772.44,137.0
772.51,152.0
772.57,131.0
772.63,136.0
772.69,130.0
772.76,128.0
772.82,110.0
772.88,126.0
772.95,128.0
773.01,113.0
773.07,101.0
773.14,106.0
773.2,84.0
773.26,97.0
773.32,110.0
773.39,119.0
773.45,102.0
773.51,125.0
773.58,120.0
773.64,105.0
773.7,125.0
773.77,134.0
773.83,117.0
773.89,129.0
773.95,145.0
774.02,159.0
774.08,141.0
774.14,135.0
774.21,155.0
774.27,148.0
774.33,155.0
774.4,143.0
774.46,125.0
774.52,117.0
774.58,136.0
774.65,150.0
774.71,130.0
774.77,133.0
774.84,166.0
774.9,154.0
774.96,168.0
775.03,167.0
775.09,173.0
775.15,183.0
775.21,194.0
775.28,178.0
775.34,169.0
775.4,169.0
775.47,157.0
775.53,162.0
775.59,180.0
775.66,158.0
775.72,164.0
775.78,164.0
775.84,161.0
775.91,148.0
775.97,151.0
776.03,181.0
776.1,181.0
776.16,178.0
776.22,179.0
776.29,184.0
776.35,190.0
776.41,192.0
776.47,172.0
776.54,165.0
776.6,179.0
776.66,177.0
776.73,192.0
776.79,198.0
776.85,181.0
776.92,194.0
776.98,198.0
777.04,196.0
777.1,209.0
777.17,198.0
777.23,195.0
777.29,199.0
777.36,182.0
777.42,187.0
777.48,191.0
777.55,186.0
777.61,184.0
777.67,168.0
777.73,196.0
777.8,177.0
777.86,178.0
777.92,170.0
777.99,180.0
778.05,191.0
778.11,163.0
778.18,169.0
778.24,179.0
778.3,155.0
778.36,159.0
778.43,140.0
778.49,164.0
778.55,179.0
778.62,180.0
778.68,185.0
778.74,172.0
778.81,178.0
778.87,166.0
778.93,164.0
778.99,165.0
779.06,150.0
779.12,145.0
779.18,148.0
779.25,148.0
779.31,156.0
779.37,166.0
779.44,159.0
779.5,161.0
779.56,152.0
779.62,132.0
779.69,129.0
779.75,127.0
779.81,134.0
779.88,135.0
779.94,135.0
780.0,135.0
780.07,121.0
780.13,129.0
780.19,130.0
780.25,110.0
780.32,119.0
780.38,137.0
780.44,119.0
780.51,107.0
780.57,104.0
780.63,93.0
780.7,103.0
780.76,79.0
780.82,72.0
780.88,78.0
780.95,71.0
781.01,52.0
781.07,44.0
781.14,42.0
781.2,58.0
781.26,83.0
781.33,73.0
781.39,76.0
781.45,82.0
781.51,85.0
781.58,81.0
781.64,73.0
781.7,98.0
781.77,70.0
781.83,63.0
781.89,82.0
781.96,96.0
782.02,73.0
782.08,62.0
782.14,82.0
782.21,71.0
782.27,79.0
782.33,89.0
782.4,78.0
782.46,85.0
782.52,82.0
782.59,73.0
782.65,91.0
782.71,87.0
782.77,77.0
782.84,55.0
782.9,73.0
782.96,85.0
783.03,93.0
783.09,91.0
783.15,66.0
783.22,63.0
783.28,59.0
783.34,55.0
783.4,53.0
783.47,70.0
783.53,81.0
783.59,97.0
783.66,92.0
783.72,78.0
783.78,73.0
783.85,88.0
783.91,80.0
783.97,75.0
784.03,56.0
784.1,85.0
784.16,103.0
784.22,106.0
784.29,114.0
784.35,109.0
784.41,117.0
784.48,117.0
784.54,136.0
784.6,132.0
784.66,127.0
784.73,107.0
784.79,116.0
784.85,103.0
784.92,110.0
784.98,95.0
785.04,109.0
785.11,118.0
785.17,99.0
785.23,117.0
785.29,138.0
785.36,119.0
785.42,123.0
785.48,135.0
785.55,151.0
785.61,151.0
785.67,142.0
785.74,154.0
785.8,171.0
785.86,174.0
785.92,174.0
785.99,165.0
786.05,146.0
786.11,143.0
786.18,157.0
786.24,154.0
786.3,152.0
786.37,170.0
786.43,160.0
786.49,156.0
786.55,150.0
786.62,143.0
786.68,155.0
786.74,158.0
786.81,156.0
786.87,136.0
786.93,150.0
787.0,149.0
787.06,169.0
787.12,162.0
787.18,164.0
787.25,178.0
787.31,165.0
787.37,173.0
787.44,169.0
787.5,183.0
787.56,196.0
787.63,178.0
787.69,176.0
787.75,175.0
787.81,165.0
787.88,188.0
787.94,176.0
788.0,181.0
788.07,178.0
788.13,167.0
788.19,210.0
788.26,183.0
788.32,194.0
788.38,177.0
788.44,173.0
788.51,186.0
788.57,193.0
788.63,189.0
788.7,193.0
788.76,174.0
788.82,169.0
788.89,152.0
788.95,131.0
789.01,150.0
789.07,147.0
789.14,146.0
789.2,153.0
789.26,146.0
789.33,172.0
789.39,151.0
789.45,138.0
789.52,156.0
789.58,129.0
789.64,128.0
789.7,132.0
789.77,123.0
789.83,134.0
789.89,134.0
789.96,125.0
790.02,119.0
790.08,124.0
790.15,127.0
790.21,123.0
790.27,134.0
790.33,137.0
790.4,137.0
790.46,155.0
790.52,165.0
790.59,161.0
790.65,165.0
790.71,172.0
790.78,159.0
790.84,166.0
790.9,154.0
790.96,140.0
791.03,156.0
791.09,140.0
791.15,128.0
791.22,150.0
791.28,139.0
791.34,131.0
791.41,149.0
791.47,132.0
791.53,128.0
791.59,138.0
791.66,169.0
791.72,166.0
791.78,131.0
791.85,134.0
791.91,146.0
791.97,159.0
792.04,159.0
792.1,140.0
792.16,154.0
792.22,174.0
792.29,165.0
792.35,174.0
792.41,171.0
792.48,175.0
792.54,178.0
792.6,166.0
792.67,161.0
792.73,162.0
792.79,171.0
792.85,171.0
792.92,173.0
792.98,197.0
793.04,190.0
793.11,190.0
793.17,192.0
793.23,186.0
793.3,211.0
793.36,223.0
793.42,205.0
793.48,198.0
793.55,205.0
793.61,192.0
793.67,207.0
793.74,200.0
793.8,205.0
793.86,221.0
793.93,205.0
793.99,205.0
794.05,228.0
794.11,243.0
794.18,220.0
794.24,238.0
794.3,236.0
794.37,230.0
794.43,240.0
794.49,241.0
794.56,205.0
794.62,213.0
794.68,228.0
794.74,228.0
794.81,229.0
794.87,224.0
794.93,230.0
795.0,236.0
795.06,249.0
795.12,234.0
795.19,234.0
795.25,250.0
795.31,249.0
795.37,233.0
795.44,233.0
795.5,252.0
795.56,250.0
795.63,243.0
795.69,225.0
795.75,245.0
795.82,237.0
795.88,228.0
795.94,248.0
796.0,258.0
796.07,264.0
796.13,264.0
796.19,240.0
796.26,242.0
796.32,222.0
796.38,220.0
796.45,210.0
796.51,198.0
796.57,221.0
796.63,216.0
796.7,230.0
796.76,232.0
796.82,216.0
796.89,226.0
796.95,210.0
797.01,212.0
797.08,205.0
797.14,194.0
797.2,192.0
797.26,190.0
797.33,210.0
797.39,190.0
797.45,169.0
797.52,165.0
797.58,161.0
797.64,170.0
797.71,166.0
797.77,164.0
797.83,155.0
797.89,166.0
797.96,169.0
798.02,162.0
798.08,157.0
798.15,182.0
798.21,175.0
798.27,192.0
798.34,196.0
798.4,196.0
798.46,202.0
798.52,181.0
798.59,184.0
798.65,177.0
798.71,150.0
798.78,151.0
798.84,167.0
798.9,169.0
798.97,154.0
799.03,156.0
799.09,162.0
799.15,175.0
799.22,154.0
799.28,161.0
799.34,165.0
799.41,156.0
799.47,161.0
799.53,146.0
799.6,133.0
799.66,130.0
799.72,164.0
799.78,152.0
799.85,149.0
799.91,150.0
799.97,131.0
800.04,127.0
800.1,131.0
800.16,134.0
800.23,141.0
800.29,129.0
800.35,150.0
800.41,121.0
800.48,99.0
800.54,117.0
800.6,134.0
800.67,140.0
800.73,123.0
800.79,136.0
800.86,136.0
800.92,132.0
800.98,109.0
801.04,99.0
801.11,109.0
801.17,136.0
801.23,112.0
801.3,120.0
801.36,130.0
801.42,127.0
801.49,142.0
801.55,140.0
801.61,150.0
801.67,146.0
801.74,137.0
801.8,113.0
801.86,115.0
801.93,125.0
801.99,123.0
802.05,138.0
802.12,137.0
802.18,165.0
802.24,139.0
802.3,133.0
802.37,176.0
802.43,146.0
802.49,132.0
802.56,128.0
802.62,143.0
802.68,138.0
802.75,135.0
802.81,146.0
802.87,147.0
802.93,147.0
803.0,150.0
803.06,132.0
803.12,134.0
803.19,155.0
803.25,140.0
803.31,161.0
803.38,175.0
803.44,170.0
803.5,167.0
803.56,174.0
803.63,165.0
803.69,161.0
803.75,164.0
803.82,181.0
803.88,172.0
803.94,173.0
804.01,176.0
804.07,176.0
804.13,186.0
804.19,177.0
804.26,174.0
804.32,170.0
804.38,176.0
804.45,175.0
804.51,161.0
804.57,152.0
804.64,141.0
804.7,149.0
804.76,136.0
804.82,145.0
804.89,137.0
804.95,126.0
805.01,129.0
805.08,134.0
805.14,121.0
805.2,106.0
805.27,111.0
805.33,96.0
805.39,108.0
805.45,94.0
805.52,129.0
805.58,98.0
805.64,99.0
805.71,113.0
805.77,80.0
805.83,113.0
805.9,97.0
805.96,103.0
806.02,105.0
806.08,101.0
806.15,106.0
806.21,108.0
806.27,87.0
806.34,91.0
806.4,106.0
806.46,108.0
806.53,105.0
806.59,112.0
806.65,110.0
806.71,118.0
806.78,101.0
806.84,99.0
806.9,95.0
806.97,62.0
807.03,88.0
807.09,87.0
807.16,74.0
807.22,86.0
807.28,77.0
807.34,73.0
807.41,60.0
807.47,73.0
807.53,65.0
807.6,71.0
807.66,65.0
807.72,66.0
807.79,73.0
807.85,73.0
807.91,76.0
807.97,89.0
808.04,73.0
808.1,54.0
808.16,63.0
808.23,67.0
808.29,77.0
808.35,76.0
808.42,89.0
808.48,110.0
808.54,93.0
808.6,82.0
808.67,96.0
808.73,110.0
808.79,106.0
808.86,106.0
808.92,102.0
808.98,102.0
809.05,106.0
809.11,109.0
809.17,102.0
809.23,129.0
809.3,115.0
809.36,118.0
809.42,145.0
809.49,125.0
809.55,140.0
809.61,112.0
809.68,118.0
809.74,126.0
809.8,123.0
809.86,132.0
809.93,126.0
809.99,113.0
810.05,100.0
810.12,143.0
810.18,135.0
810.24,113.0
810.31,133.0
810.37,123.0
810.43,125.0
810.49,141.0
810.56,141.0
810.62,140.0
810.68,138.0
810.75,147.0
810.81,173.0
810.87,161.0
810.94,162.0
811.0,167.0
811.06,187.0
811.12,165.0
811.19,172.0
811.25,161.0
811.31,170.0
811.38,166.0
811.44,171.0
811.5,191.0
811.57,188.0
811.63,186.0
811.69,185.0
811.75,202.0
811.82,201.0
811.88,197.0
811.94,211.0
812.01,202.0
812.07,211.0
812.13,193.0
812.2,172.0
812.26,182.0
812.32,188.0
812.38,169.0
812.45,194.0
812.51,173.0
812.57,192.0
812.64,186.0
812.7,167.0
812.76,160.0
812.83,168.0
812.89,165.0
812.95,174.0
813.01,173.0
813.08,175.0
813.14,172.0
813.2,159.0
813.27,147.0
813.33,153.0
813.39,132.0
813.46,127.0
813.52,145.0
813.58,129.0
813.64,137.0
813.71,150.0
813.77,153.0
813.83,136.0
813.9,142.0
813.96,143.0
814.02,132.0
814.09,123.0
814.15,109.0
814.21,110.0
814.27,117.0
814.34,122.0
814.4,121.0
814.46,123.0
814.53,114.0
814.59,141.0
814.65,140.0
814.72,147.0
814.78,165.0
814.84,158.0
814.9,141.0
814.97,153.0
815.03,157.0
815.09,146.0
815.16,137.0
815.22,139.0
815.28,150.0
815.35,154.0
815.41,137.0
815.47,143.0
815.53,124.0
815.6,120.0
815.66,153.0
815.72,143.0
815.79,131.0
815.85,128.0
815.91,151.0
815.98,142.0
816.04,135.0
816.1,140.0
816.16,131.0
816.23,130.0
816.29,112.0
816.35,120.0
816.42,134.0
816.48,140.0
816.54,115.0
816.61,102.0
816.67,104.0
816.73,126.0
816.79,117.0
816.86,93.0
816.92,104.0
816.98,93.0
817.05,106.0
817.11,91.0
817.17,92.0
817.24,92.0
817.3,106.0
817.36,110.0
817.42,95.0
817.49,128.0
817.55,128.0
817.61,152.0
817.68,109.0
817.74,115.0
817.8,125.0
817.87,140.0
817.93,146.0
817.99,145.0
818.05,149.0
818.12,143.0
818.18,129.0
818.24,119.0
818.31,137.0
818.37,142.0
818.43,156.0
818.5,158.0
818.56,143.0
818.62,119.0
818.68,105.0
818.75,121.0
818.81,117.0
818.87,102.0
818.94,98.0
819.0,105.0
819.06,106.0
819.13,107.0
819.19,110.0
819.25,104.0
819.31,115.0
819.38,111.0
819.44,120.0
819.5,108.0
819.57,122.0
819.63,110.0
819.69,125.0
819.76,124.0
819.82,132.0
819.88,138.0
819.94,145.0
820.01,143.0
820.07,165.0
820.13,199.0
820.2,177.0
820.26,175.0
820.32,159.0
820.39,163.0
820.45,165.0
820.51,175.0
820.57,186.0
820.64,184.0
820.7,204.0
820.76,176.0
820.83,161.0
820.89,169.0
820.95,171.0
821.02,151.0
821.08,158.0
821.14,209.0
821.2,199.0
821.27,198.0
821.33,185.0
821.39,183.0
821.46,191.0
821.52,184.0
821.58,173.0
821.65,189.0
821.71,181.0
821.77,190.0
821.83,197.0
821.9,188.0
821.96,176.0
822.02,182.0
822.09,180.0
822.15,190.0
822.21,183.0
822.28,187.0
822.34,184.0
822.4,162.0
822.46,165.0
822.53,166.0
822.59,170.0
822.65,161.0
822.72,164.0
822.78,169.0
822.84,154.0
822.91,143.0
822.97,162.0
823.03,154.0
823.09,133.0
823.16,154.0
823.22,165.0
823.28,154.0
823.35,143.0
823.41,142.0
823.47,135.0
823.54,166.0
823.6,169.0
823.66,168.0
823.72,154.0
823.79,135.0
823.85,154.0
823.91,172.0
823.98,172.0
824.04,170.0
824.1,172.0
824.17,168.0
824.23,171.0
824.29,165.0
824.35,170.0
824.42,154.0
824.48,155.0
824.54,148.0
824.61,146.0
824.67,167.0
824.73,142.0
824.8,164.0
824.86,170.0
824.92,178.0
824.98,167.0
825.05,194.0
825.11,194.0
825.17,181.0
825.24,165.0
825.3,151.0
825.36,162.0
825.43,141.0
825.49,131.0
825.55,131.0
825.61,146.0
825.68,145.0
825.74,146.0
825.8,154.0
825.87,135.0
825.93,173.0
825.99,163.0
826.06,132.0
826.12,148.0
826.18,126.0
826.24,151.0
826.31,174.0
826.37,150.0
826.43,144.0
826.5,168.0
826.56,165.0
826.62,181.0
826.69,183.0
826.75,189.0
826.81,193.0
826.87,202.0
826.94,226.0
827.0,238.0
827.06,238.0
827.13,235.0
827.19,233.0
827.25,242.0
827.32,239.0
827.38,236.0
827.44,223.0
827.5,227.0
827.57,225.0
827.63,232.0
827.69,233.0
827.76,239.0
827.82,236.0
827.88,230.0
827.95,236.0
828.01,260.0
828.07,249.0
828.13,244.0
828.2,227.0
828.26,226.0
828.32,229.0
828.39,238.0
828.45,245.0
828.51,233.0
828.58,251.0
828.64,263.0
828.7,239.0
828.76,242.0
828.83,263.0
828.89,253.0
828.95,243.0
829.02,249.0
829.08,239.0
829.14,230.0
829.21,220.0
829.27,227.0
829.33,197.0
829.39,201.0
829.46,209.0
829.52,192.0
829.58,190.0
829.65,173.0
829.71,174.0
829.77,180.0
829.84,157.0
829.9,154.0
829.96,142.0
830.02,150.0
830.09,131.0
830.15,133.0
830.21,132.0
830.28,145.0
830.34,166.0
830.4,164.0
830.47,151.0
830.53,156.0
830.59,161.0
830.65,169.0
830.72,148.0
830.78,166.0
830.84,174.0
830.91,171.0
830.97,185.0
831.03,172.0
831.1,176.0
831.16,183.0
831.22,169.0
831.28,165.0
831.35,151.0
831.41,169.0
831.47,159.0
831.54,154.0
831.6,159.0
831.66,166.0
831.73,153.0
831.79,148.0
831.85,143.0
831.91,135.0
831.98,139.0
832.04,132.0
832.1,124.0
832.17,112.0
832.23,87.0
832.29,96.0
832.36,84.0
832.42,103.0
832.48,96.0
832.54,79.0
832.61,80.0
832.67,87.0
832.73,86.0
832.8,95.0
832.86,118.0
832.92,97.0
832.99,99.0
833.05,120.0
833.11,105.0
833.17,88.0
833.24,75.0
833.3,73.0
833.36,82.0
833.43,81.0
833.49,62.0
833.55,46.0
833.62,75.0
833.68,61.0
833.74,59.0
833.8,56.0
833.87,70.0
833.93,58.0
833.99,43.0
834.06,60.0
834.12,61.0
834.18,73.0
834.25,88.0
834.31,74.0
834.37,82.0
834.43,75.0
834.5,78.0
834.56,107.0
834.62,118.0
834.69,99.0
834.75,115.0
834.81,122.0
834.88,109.0
834.94,125.0
835.0,125.0
835.06,121.0
835.13,132.0
835.19,122.0
835.25,134.0
835.32,129.0
835.38,126.0
835.44,126.0
835.51,137.0
835.57,139.0
835.63,122.0
835.69,113.0
835.76,103.0
835.82,98.0
835.88,74.0
835.95,87.0
836.01,95.0
836.07,113.0
836.14,104.0
836.2,117.0
836.26,117.0
836.32,102.0
836.39,111.0
836.45,128.0
836.51,134.0
836.58,113.0
836.64,122.0
836.7,116.0
836.77,107.0
836.83,110.0
836.89,122.0
836.95,117.0
837.02,118.0
837.08,118.0
837.14,125.0
837.21,117.0
837.27,137.0
837.33,116.0
837.4,115.0
837.46,107.0
837.52,106.0
837.58,128.0
837.65,135.0
837.71,121.0
837.77,139.0
837.84,123.0
837.9,136.0
837.96,138.0
838.03,148.0
838.09,150.0
838.15,162.0
838.21,163.0
838.28,151.0
838.34,138.0
838.4,131.0
838.47,154.0
838.53,164.0
838.59,165.0
838.66,153.0
838.72,170.0
838.78,177.0
838.84,157.0
838.91,155.0
838.97,157.0
839.03,146.0
839.1,143.0
839.16,137.0
839.22,154.0
839.29,170.0
839.35,166.0
839.41,148.0
839.47,143.0
839.54,135.0
839.6,113.0
839.66,111.0
839.73,132.0
839.79,118.0
839.85,93.0
839.92,77.0
839.98,84.0
840.04,88.0
840.1,77.0
840.17,73.0
840.23,51.0
840.29,31.0
840.36,37.0
840.42,40.0
840.48,59.0
840.55,58.0
840.61,51.0
840.67,24.0
840.73,30.0
840.8,47.0
840.86,49.0
840.92,61.0
840.99,58.0
841.05,61.0
841.11,66.0
841.18,61.0
841.24,70.0
841.3,71.0
841.36,67.0
841.43,61.0
841.49,48.0
841.55,58.0
841.62,50.0
841.68,68.0
841.74,78.0
841.81,72.0
841.87,62.0
841.93,41.0
841.99,51.0
842.06,55.0
842.12,51.0
842.18,65.0
842.25,43.0
842.31,32.0
842.37,54.0
842.44,66.0
842.5,69.0
842.56,57.0
842.62,73.0
842.69,73.0
842.75,68.0
842.81,63.0
842.88,66.0
842.94,84.0
843.0,65.0
843.07,62.0
843.13,72.0
843.19,82.0
843.25,95.0
843.32,97.0
843.38,101.0
843.44,100.0
843.51,126.0
843.57,98.0
843.63,116.0
843.7,136.0
843.76,121.0
843.82,118.0
843.88,131.0
843.95,122.0
844.01,103.0
844.07,132.0
844.14,113.0
844.2,124.0
844.26,135.0
844.33,134.0
844.39,152.0
844.45,141.0
844.51,165.0
844.58,152.0
844.64,146.0
844.7,178.0
844.77,180.0
844.83,194.0
844.89,165.0
844.96,156.0
845.02,161.0
845.08,156.0
845.14,159.0
845.21,168.0
845.27,175.0
845.33,170.0
845.4,176.0
845.46,188.0
845.52,194.0
845.59,200.0
845.65,201.0
845.71,195.0
845.77,200.0
845.84,206.0
845.9,208.0
845.96,218.0
846.03,235.0
846.09,241.0
846.15,238.0
846.22,235.0
846.28,231.0
846.34,245.0
846.4,249.0
846.47,244.0
846.53,235.0
846.59,234.0
846.66,220.0
846.72,239.0
846.78,251.0
846.85,254.0
846.91,258.0
846.97,238.0
847.03,253.0
847.1,267.0
847.16,273.0
847.22,256.0
847.29,262.0
847.35,269.0
847.41,277.0
847.48,274.0
847.54,271.0
847.6,291.0
847.66,262.0
847.73,253.0
847.79,275.0
847.85,256.0
847.92,255.0
847.98,265.0
848.04,271.0
848.11,256.0
848.17,275.0
848.23,263.0
848.29,270.0
848.36,270.0
848.42,256.0
848.48,243.0
848.55,250.0
848.61,283.0
848.67,260.0
848.74,257.0
848.8,248.0
848.86,246.0
848.92,254.0
848.99,244.0
849.05,244.0
849.11,242.0
849.18,254.0
849.24,265.0
849.3,251.0
849.37,252.0
849.43,264.0
849.49,260.0
849.55,264.0
849.62,224.0
849.68,233.0
849.74,224.0
849.81,228.0
849.87,235.0
849.93,247.0
850.0,258.0
850.06,229.0
850.12,255.0
850.18,257.0
850.25,249.0
850.31,242.0
850.37,228.0
850.44,238.0
850.5,221.0
850.56,219.0
850.63,231.0
850.69,229.0
850.75,236.0
850.81,231.0
850.88,222.0
850.94,231.0
851.0,244.0
851.07,220.0
851.13,207.0
851.19,219.0
851.26,227.0
851.32,208.0
851.38,218.0
851.44,216.0
851.51,195.0
851.57,214.0
851.63,201.0
851.7,205.0
851.76,198.0
851.82,189.0
851.89,194.0
851.95,175.0
852.01,176.0
852.07,186.0
852.14,186.0
852.2,168.0
852.26,175.0
852.33,183.0
852.39,195.0
852.45,203.0
852.52,167.0
852.58,180.0
852.64,170.0
852.7,188.0
852.77,198.0
852.83,211.0
852.89,192.0
852.96,183.0
853.02,192.0
853.08,209.0
853.15,215.0
853.21,211.0
853.27,223.0
853.33,228.0
853.4,231.0
853.46,229.0
853.52,251.0
853.59,266.0
853.65,269.0
853.71,261.0
853.78,249.0
853.84,249.0
853.9,239.0
853.96,236.0
854.03,253.0
854.09,252.0
854.15,247.0
854.22,243.0
854.28,235.0
854.34,233.0
854.41,242.0
854.47,257.0
854.53,242.0
854.59,228.0
854.66,209.0
854.72,212.0
854.78,218.0
854.85,226.0
854.91,229.0
854.97,218.0
855.04,223.0
855.1,235.0
855.16,234.0
855.22,224.0
855.29,239.0
855.35,231.0
855.41,206.0
855.48,208.0
855.54,186.0
855.6,195.0
855.67,201.0
855.73,196.0
855.79,188.0
855.85,186.0
855.92,191.0
855.98,202.0
856.04,214.0
856.11,181.0
856.17,164.0
856.23,183.0
856.3,194.0
856.36,184.0
856.42,157.0
856.48,169.0
856.55,158.0
856.61,151.0
856.67,156.0
856.74,148.0
856.8,158.0
856.86,145.0
856.93,166.0
856.99,148.0
857.05,127.0
857.11,149.0
857.18,123.0
857.24,110.0
857.3,107.0
857.37,108.0
857.43,99.0
857.49,104.0
857.56,102.0
857.62,105.0
857.68,113.0
857.74,92.0
857.81,104.0
857.87,114.0
857.93,90.0
858.0,91.0
858.06,103.0
858.12,93.0
858.19,82.0
858.25,90.0
858.31,84.0
858.37,87.0
858.44,88.0
858.5,100.0
858.56,97.0
858.63,84.0
858.69,98.0
858.75,66.0
858.82,79.0
858.88,85.0
858.94,88.0
859.0,96.0
859.07,91.0
859.13,96.0
859.19,95.0
859.26,102.0
859.32,92.0
859.38,107.0
859.45,93.0
859.51,108.0
859.57,109.0
859.63,137.0
859.7,129.0
859.76,99.0
859.82,118.0
859.89,140.0
859.95,113.0
860.01,114.0
860.08,126.0
860.14,111.0
860.2,101.0
860.26,131.0
860.33,136.0
860.39,133.0
860.45,118.0
860.52,117.0
860.58,112.0
860.64,128.0
860.71,140.0
860.77,114.0
860.83,136.0
860.89,132.0
860.96,124.0
861.02,114.0
861.08,126.0
861.15,143.0
861.21,135.0
861.27,141.0
861.34,129.0
861.4,132.0
861.46,122.0
861.52,126.0
861.59,137.0
861.65,166.0
861.71,176.0
861.78,153.0
861.84,163.0
861.9,157.0
861.97,169.0
862.03,165.0
862.09,161.0
862.15,145.0
862.22,159.0
862.28,133.0
862.34,139.0
862.41,153.0
862.47,155.0
862.53,168.0
862.6,140.0
862.66,164.0
862.72,164.0
862.78,149.0
862.85,154.0
862.91,157.0
862.97,179.0
863.04,169.0
863.1,156.0
863.16,172.0
863.23,178.0
863.29,187.0
863.35,176.0
863.41,167.0
863.48,156.0
863.54,151.0
863.6,161.0
863.67,142.0
863.73,145.0
863.79,160.0
863.86,153.0
863.92,152.0
863.98,151.0
864.04,153.0
864.11,169.0
864.17,168.0
864.23,147.0
864.3,161.0
864.36,140.0
864.42,138.0
864.49,162.0
864.55,124.0
864.61,112.0
864.67,122.0
864.74,98.0
864.8,106.0
864.86,109.0
864.93,91.0
864.99,75.0
865.05,100.0
865.12,86.0
865.18,85.0
865.24,80.0
865.3,80.0
865.37,78.0
865.43,66.0
865.49,49.0
865.56,41.0
865.62,44.0
865.68,49.0
865.75,47.0
865.81,51.0
865.87,18.0
865.93,30.0
866.0,22.0
866.06,28.0
866.12,29.0
866.19,43.0
866.25,59.0
866.31,52.0
866.38,51.0
866.44,23.0
866.5,18.0
866.56,25.0
866.63,19.0
866.69,7.0
866.75,9.0
866.82,-2.0
866.88,4.0
866.94,15.0
867.01,29.0
867.07,18.0
867.13,18.0
867.19,7.0
867.26,6.0
867.32,-2.0
867.38,-7.0
867.45,23.0
867.51,20.0
867.57,19.0
867.64,22.0
867.7,36.0
867.76,32.0
867.82,28.0
867.89,26.0
867.95,37.0
868.01,38.0
868.08,21.0
868.14,33.0
868.2,57.0
868.27,42.0
868.33,49.0
868.39,35.0
868.45,33.0
868.52,62.0
868.58,55.0
868.64,47.0
868.71,59.0
868.77,44.0
868.83,55.0
868.9,65.0
868.96,58.0
869.02,69.0
869.08,63.0
869.15,51.0
869.21,74.0
869.27,56.0
869.34,53.0
869.4,75.0
869.46,74.0
869.53,91.0
869.59,77.0
869.65,77.0
869.71,92.0
869.78,83.0
869.84,83.0
869.9,82.0
869.97,72.0
870.03,82.0
870.09,82.0
870.16,86.0
870.22,99.0
870.28,75.0
870.34,103.0
870.41,113.0
870.47,109.0
870.53,102.0
870.6,123.0
870.66,109.0
870.72,107.0
870.79,107.0
870.85,114.0
870.91,137.0
870.97,135.0
871.04,152.0
871.1,154.0
871.16,162.0
871.23,169.0
871.29,139.0
871.35,148.0
871.42,166.0
871.48,145.0
871.54,149.0
871.6,139.0
871.67,140.0
871.73,159.0
871.79,137.0
871.86,124.0
871.92,131.0
871.98,158.0
872.05,136.0
872.11,135.0
872.17,141.0
872.23,141.0
872.3,143.0
872.36,139.0
872.42,145.0
872.49,148.0
872.55,153.0
872.61,144.0
872.68,121.0
872.74,128.0
872.8,140.0
872.86,134.0
872.93,140.0
872.99,132.0
873.05,131.0
873.12,129.0
873.18,138.0
873.24,142.0
873.31,134.0
873.37,146.0
873.43,131.0
873.49,137.0
873.56,133.0
873.62,127.0
873.68,124.0
873.75,134.0
873.81,152.0
873.87,134.0
873.94,133.0
874.0,143.0
874.06,139.0
874.12,122.0
874.19,117.0
874.25,144.0
874.31,137.0
874.38,137.0
874.44,135.0
874.5,124.0
874.57,140.0
874.63,148.0
874.69,146.0
874.75,139.0
874.82,146.0
874.88,147.0
874.94,157.0
875.01,133.0
875.07,145.0
875.13,141.0
875.2,148.0
875.26,167.0
875.32,149.0
875.38,172.0
875.45,176.0
875.51,174.0
875.57,187.0
875.64,198.0
875.7,166.0
875.76,181.0
875.83,179.0
875.89,159.0
875.95,163.0
876.01,135.0
876.08,162.0
876.14,176.0
876.2,195.0
876.27,187.0
876.33,182.0
876.39,175.0
876.46,178.0
876.52,172.0
876.58,162.0
876.64,167.0
876.71,175.0
876.77,175.0
876.83,181.0
876.9,190.0
876.96,172.0
877.02,174.0
877.09,176.0
877.15,188.0
877.21,193.0
877.27,212.0
877.34,195.0
877.4,205.0
877.46,204.0
877.53,198.0
877.59,192.0
877.65,206.0
877.72,207.0
877.78,215.0
877.84,218.0
877.9,203.0
877.97,211.0
878.03,202.0
878.09,214.0
878.16,215.0
878.22,218.0
878.28,215.0
878.35,213.0
878.41,211.0
878.47,223.0
878.53,195.0
878.6,187.0
878.66,212.0
878.72,204.0
878.79,215.0
878.85,199.0
878.91,207.0
878.98,203.0
879.04,212.0
879.1,203.0
879.16,198.0
879.23,212.0
879.29,188.0
879.35,183.0
879.42,195.0
879.48,193.0
879.54,181.0
879.61,181.0
879.67,198.0
879.73,174.0
879.79,177.0
879.86,181.0
879.92,175.0
879.98,174.0
880.05,185.0
880.11,181.0
880.17,176.0
880.24,168.0
880.3,176.0
880.36,164.0
880.42,145.0
880.49,156.0
880.55,152.0
880.61,158.0
880.68,148.0
880.74,149.0
880.8,163.0
880.87,155.0
880.93,166.0
880.99,138.0
881.05,154.0
881.12,170.0
881.18,164.0
881.24,184.0
881.31,180.0
881.37,173.0
881.43,179.0
881.5,170.0
881.56,164.0
881.62,171.0
881.68,183.0
881.75,171.0
881.81,182.0
881.87,158.0
881.94,148.0
882.0,156.0
882.06,162.0
882.13,163.0
882.19,170.0
882.25,145.0
882.31,159.0
882.38,151.0
882.44,160.0
882.5,162.0
882.57,151.0
882.63,184.0
882.69,173.0
882.76,176.0
882.82,166.0
882.88,159.0
882.94,177.0
883.01,167.0
883.07,158.0
883.13,161.0
883.2,168.0
883.26,166.0
883.32,175.0
883.39,156.0
883.45,164.0
883.51,170.0
883.57,159.0
883.64,154.0
883.7,134.0
883.76,146.0
883.83,157.0
883.89,143.0
883.95,154.0
884.02,157.0
884.08,174.0
884.14,168.0
884.2,170.0
884.27,168.0
884.33,182.0
884.39,157.0
884.46,160.0
884.52,151.0
884.58,150.0
884.65,181.0
884.71,181.0
884.77,174.0
884.83,204.0
884.9,212.0
884.96,183.0
885.02,207.0
885.09,196.0
885.15,210.0
885.21,207.0
885.28,208.0
885.34,199.0
885.4,196.0
885.46,202.0
885.53,214.0
885.59,220.0
885.65,216.0
885.72,227.0
885.78,214.0
885.84,225.0
885.91,227.0
885.97,225.0
886.03,210.0
886.09,202.0
886.16,219.0
886.22,221.0
886.28,204.0
886.35,223.0
886.41,215.0
886.47,228.0
886.54,220.0
886.6,216.0
886.66,219.0
886.72,227.0
886.79,222.0
886.85,258.0
886.91,250.0
886.98,247.0
887.04,251.0
887.1,255.0
887.17,252.0
887.23,257.0
887.29,250.0
887.35,237.0
887.42,271.0
887.48,262.0
887.54,232.0
887.61,233.0
887.67,230.0
887.73,246.0
887.8,229.0
887.86,231.0
887.92,206.0
887.98,214.0
888.05,227.0
888.11,235.0
888.17,232.0
888.24,233.0
888.3,264.0
888.36,236.0
888.43,219.0
888.49,221.0
888.55,238.0
888.61,258.0
888.68,236.0
888.74,219.0
888.8,196.0
888.87,189.0
888.93,190.0
888.99,165.0
889.06,192.0
889.12,167.0
889.18,173.0
889.24,180.0
889.31,194.0
889.37,192.0
889.43,179.0
889.5,146.0
889.56,148.0
889.62,161.0
889.69,148.0
889.75,155.0
889.81,126.0
889.87,141.0
889.94,135.0
890.0,121.0
890.06,135.0
890.13,127.0
890.19,119.0
890.25,114.0
890.32,90.0
890.38,82.0
890.44,99.0
890.5,88.0
890.57,114.0
890.63,100.0
890.69,91.0
890.76,93.0
890.82,85.0
890.88,70.0
890.95,64.0
891.01,83.0
891.07,67.0
891.13,41.0
891.2,44.0
891.26,48.0
891.32,79.0
891.39,96.0
891.45,72.0
891.51,41.0
891.58,23.0
891.64,37.0
891.7,60.0
891.76,83.0
891.83,76.0
891.89,82.0
891.95,65.0
892.02,66.0
892.08,63.0
892.14,82.0
892.21,80.0
892.27,91.0
892.33,81.0
892.39,86.0
892.46,60.0
892.52,52.0
892.58,76.0
892.65,77.0
892.71,64.0
892.77,55.0
892.84,45.0
892.9,64.0
892.96,55.0
893.02,65.0
893.09,80.0
893.15,88.0
893.21,61.0
893.28,53.0
893.34,56.0
893.4,43.0
893.47,39.0
893.53,35.0
893.59,34.0
893.65,13.0
893.72,39.0
893.78,45.0
893.84,61.0
893.91,67.0
893.97,67.0
894.03,48.0
894.1,54.0
894.16,64.0
894.22,62.0
894.28,51.0
894.35,56.0
894.41,48.0
894.47,56.0
894.54,51.0
894.6,70.0
894.66,66.0
894.73,56.0
894.79,50.0
894.85,48.0
894.91,34.0
894.98,47.0
895.04,58.0
895.1,44.0
895.17,50.0
895.23,62.0
895.29,50.0
895.36,58.0
895.42,66.0
895.48,72.0
895.54,85.0
895.61,84.0
895.67,82.0
895.73,74.0
895.8,84.0
895.86,63.0
895.92,86.0
895.99,98.0
896.05,104.0
896.11,110.0
896.17,114.0
896.24,112.0
896.3,102.0
896.36,116.0
896.43,121.0
896.49,120.0
896.55,113.0
896.62,129.0
896.68,135.0
896.74,141.0
896.8,143.0
896.87,151.0
896.93,144.0
896.99,127.0
897.06,146.0
897.12,140.0
897.18,162.0
897.25,157.0
897.31,148.0
897.37,158.0
897.43,156.0
897.5,176.0
897.56,156.0
897.62,152.0
897.69,176.0
897.75,170.0
897.81,173.0
897.88,176.0
897.94,190.0
898.0,173.0
898.06,195.0
898.13,178.0
898.19,165.0
898.25,184.0
898.32,168.0
898.38,179.0
898.44,173.0
898.51,163.0
898.57,188.0
898.63,199.0
898.69,179.0
898.76,205.0
898.82,223.0
898.88,218.0
898.95,209.0
899.01,207.0
899.07,203.0
899.14,210.0
899.2,208.0
899.26,228.0
899.32,222.0
899.39,218.0
899.45,214.0
899.51,225.0
899.58,196.0
899.64,208.0
899.7,194.0
899.77,185.0
899.83,173.0
899.89,173.0
899.95,178.0
900.02,177.0
900.08,181.0
900.14,182.0
900.21,176.0
900.27,175.0
900.33,161.0
900.4,171.0
900.46,170.0
900.52,177.0
900.58,172.0
900.65,177.0
900.71,166.0
900.77,182.0
900.84,163.0
900.9,172.0
900.96,176.0
901.03,169.0
901.09,187.0
901.15,201.0
901.21,187.0
901.28,193.0
901.34,185.0
901.4,178.0
901.47,184.0
901.53,188.0
901.59,184.0
901.66,172.0
901.72,190.0
901.78,181.0
901.84,169.0
901.91,170.0
901.97,181.0
902.03,214.0
902.1,185.0
902.16,203.0
902.22,204.0
902.29,211.0
902.35,188.0
902.41,160.0
902.47,166.0
902.54,187.0
902.6,173.0
902.66,182.0
902.73,176.0
902.79,163.0
902.85,160.0
902.92,167.0
902.98,152.0
903.04,164.0
903.1,155.0
903.17,168.0
903.23,171.0
903.29,153.0
903.36,164.0
903.42,167.0
903.48,166.0
903.55,186.0
903.61,160.0
903.67,170.0
903.73,187.0
903.8,178.0
903.86,167.0
903.92,151.0
903.99,161.0
904.05,156.0
904.11,168.0
904.18,172.0
904.24,162.0
904.3,152.0
904.36,185.0
904.43,159.0
904.49,173.0
904.55,206.0
904.62,196.0
904.68,206.0
904.74,217.0
904.81,213.0
904.87,209.0
904.93,210.0
904.99,215.0
905.06,216.0
905.12,197.0
905.18,209.0
905.25,214.0
905.31,208.0
905.37,197.0
905.44,182.0
905.5,192.0
905.56,211.0
905.62,186.0
905.69,191.0
905.75,204.0
905.81,200.0
905.88,221.0
905.94,234.0
906.0,228.0
906.07,232.0
906.13,216.0
906.19,234.0
906.25,229.0
906.32,228.0
906.38,198.0
906.44,207.0
906.51,234.0
906.57,238.0
906.63,250.0
906.7,269.0
906.76,239.0
906.82,211.0
906.88,225.0
906.95,226.0
907.01,246.0
907.07,228.0
907.14,190.0
907.2,206.0
907.26,214.0
907.33,202.0
907.39,182.0
907.45,185.0
907.51,197.0
907.58,221.0
907.64,214.0
907.7,215.0
907.77,209.0
907.83,194.0
907.89,197.0
907.96,203.0
908.02,195.0
908.08,204.0
908.14,196.0
908.21,174.0
908.27,185.0
908.33,173.0
908.4,203.0
908.46,183.0
908.52,173.0
908.59,190.0
908.65,197.0
908.71,196.0
908.77,190.0
908.84,177.0
908.9,173.0
908.96,182.0
909.03,179.0
909.09,172.0
909.15,195.0
909.22,188.0
909.28,190.0
909.34,187.0
909.4,185.0
909.47,196.0
909.53,189.0
909.59,199.0
909.66,185.0
909.72,185.0
909.78,180.0
909.85,187.0
909.91,186.0
909.97,190.0
910.03,220.0
910.1,202.0
910.16,181.0
910.22,192.0
910.29,182.0
910.35,170.0
910.41,179.0
910.48,192.0
910.54,182.0
910.6,193.0
910.66,192.0
910.73,196.0
910.79,211.0
910.85,199.0
910.92,188.0
910.98,204.0
911.04,196.0
911.11,218.0
911.17,227.0
911.23,234.0
911.29,232.0
911.36,246.0
911.42,241.0
911.48,236.0
911.55,242.0
911.61,251.0
911.67,238.0
911.74,231.0
911.8,233.0
911.86,210.0
911.92,209.0
911.99,203.0
912.05,195.0
912.11,200.0
912.18,176.0
912.24,187.0
912.3,190.0
912.37,189.0
912.43,183.0
912.49,180.0
912.55,174.0
912.62,175.0
912.68,208.0
912.74,220.0
912.81,210.0
912.87,190.0
912.93,184.0
913.0,181.0
913.06,188.0
913.12,203.0
913.18,201.0
913.25,198.0
913.31,196.0
913.37,195.0
913.44,189.0
913.5,202.0
913.56,200.0
913.63,212.0
913.69,213.0
913.75,207.0
913.81,225.0
913.88,203.0
913.94,202.0
914.0,182.0
914.07,185.0
914.13,178.0
914.19,186.0
914.26,175.0
914.32,160.0
914.38,182.0
914.44,145.0
914.51,154.0
914.57,163.0
914.63,196.0
914.7,201.0
914.76,174.0
914.82,159.0
914.89,154.0
914.95,137.0
915.01,130.0
915.07,147.0
915.14,155.0
915.2,149.0
915.26,157.0
915.33,156.0
915.39,129.0
915.45,143.0
915.52,135.0
915.58,135.0
915.64,149.0
915.7,139.0
915.77,150.0
915.83,153.0
915.89,152.0
915.96,154.0
916.02,151.0
916.08,162.0
916.15,148.0
916.21,118.0
916.27,152.0
916.33,153.0
916.4,167.0
916.46,177.0
916.52,144.0
916.59,143.0
916.65,123.0
916.71,138.0
916.78,148.0
916.84,148.0
916.9,167.0
916.96,130.0
917.03,103.0
917.09,104.0
917.15,113.0
917.22,131.0
917.28,100.0
917.34,87.0
917.41,95.0
917.47,83.0
917.53,83.0
917.59,86.0
917.66,91.0
917.72,86.0
917.78,88.0
917.85,74.0
917.91,77.0
917.97,86.0
918.04,75.0
918.1,79.0
918.16,69.0
918.22,79.0
918.29,79.0
918.35,72.0
918.41,92.0
918.48,93.0
918.54,69.0
918.6,56.0
918.67,86.0
918.73,71.0
918.79,43.0
918.85,51.0
918.92,70.0
918.98,76.0
919.04,53.0
919.11,68.0
919.17,88.0
919.23,79.0
919.3,83.0
919.36,75.0
919.42,80.0
919.48,72.0
919.55,62.0
919.61,69.0
919.67,61.0
919.74,62.0
919.8,48.0
919.86,64.0
919.93,58.0
919.99,55.0
920.05,55.0
920.11,59.0
920.18,63.0
920.24,63.0
920.3,71.0
920.37,86.0
920.43,84.0
920.49,63.0
920.56,47.0
920.62,57.0
920.68,47.0
920.74,64.0
920.81,58.0
920.87,59.0
920.93,62.0
921.0,50.0
921.06,64.0
921.12,68.0
921.19,60.0
921.25,65.0
921.31,94.0
921.37,97.0
921.44,104.0
921.5,93.0
921.56,97.0
921.63,80.0
921.69,90.0
921.75,97.0
921.82,103.0
921.88,84.0
921.94,89.0
922.0,99.0
922.07,85.0
922.13,100.0
922.19,121.0
922.26,102.0
922.32,100.0
922.38,91.0
922.45,95.0
922.51,119.0
922.57,132.0
922.63,130.0
922.7,133.0
922.76,126.0
922.82,151.0
922.89,144.0
922.95,133.0
923.01,138.0
923.08,100.0
923.14,114.0
923.2,96.0
923.26,87.0
923.33,123.0
923.39,106.0
923.45,119.0
923.52,124.0
923.58,141.0
923.64,136.0
923.71,143.0
923.77,118.0
923.83,119.0
923.89,118.0
923.96,137.0
924.02,121.0
924.08,119.0
924.15,128.0
924.21,99.0
924.27,97.0
924.34,89.0
924.4,78.0
924.46,60.0
924.52,90.0
924.59,73.0
924.65,79.0
924.71,62.0
924.78,85.0
924.84,96.0
924.9,74.0
924.97,104.0
925.03,107.0
925.09,87.0
925.15,97.0
925.22,107.0
925.28,114.0
925.34,107.0
925.41,120.0
925.47,109.0
925.53,100.0
925.6,119.0
925.66,116.0
925.72,97.0
925.78,116.0
925.85,111.0
925.91,93.0
925.97,109.0
926.04,105.0
926.1,105.0
926.16,116.0
926.23,125.0
926.29,119.0
926.35,115.0
926.41,112.0
926.48,104.0
926.54,96.0
926.6,103.0
926.67,104.0
926.73,102.0
926.79,112.0
926.86,130.0
926.92,116.0
926.98,101.0
927.04,114.0
927.11,102.0
927.17,138.0
927.23,126.0
927.3,134.0
927.36,139.0
927.42,159.0
927.49,162.0
927.55,162.0
927.61,157.0
927.67,138.0
927.74,154.0
927.8,184.0
927.86,175.0
927.93,153.0
927.99,159.0
928.05,176.0
928.12,163.0
928.18,156.0
928.24,166.0
928.3,197.0
928.37,155.0
928.43,179.0
928.49,164.0
928.56,168.0
928.62,190.0
928.68,185.0
928.75,191.0
928.81,169.0
928.87,174.0
928.93,190.0
929.0,177.0
929.06,153.0
929.12,152.0
929.19,145.0
929.25,160.0
929.31,176.0
929.38,178.0
929.44,151.0
929.5,164.0
929.56,152.0
929.63,155.0
929.69,162.0
929.75,178.0
929.82,195.0
929.88,163.0
929.94,174.0
930.01,170.0
930.07,179.0
930.13,197.0
930.19,181.0
930.26,181.0
930.32,192.0
930.38,170.0
930.45,173.0
930.51,176.0
930.57,168.0
930.64,173.0
930.7,152.0
930.76,174.0
930.82,188.0
930.89,181.0
930.95,165.0
931.01,185.0
931.08,167.0
931.14,163.0
931.2,183.0
931.27,181.0
931.33,183.0
931.39,157.0
931.45,176.0
931.52,185.0
931.58,180.0
931.64,166.0
931.71,175.0
931.77,167.0
931.83,164.0
931.9,154.0
931.96,152.0
932.02,152.0
932.08,138.0
932.15,145.0
932.21,177.0
932.27,153.0
932.34,142.0
932.4,147.0
932.46,161.0
932.53,170.0
932.59,166.0
932.65,156.0
932.71,142.0
932.78,173.0
932.84,152.0
932.9,170.0
932.97,134.0
933.03,145.0
933.09,153.0
933.16,127.0
933.22,141.0
933.28,128.0
933.34,121.0
933.41,104.0
933.47,116.0
933.53,125.0
933.6,121.0
933.66,124.0
933.72,110.0
933.79,110.0
933.85,113.0
933.91,110.0
933.97,115.0
934.04,131.0
934.1,126.0
934.16,152.0
934.23,137.0
934.29,112.0
934.35,123.0
934.42,136.0
934.48,141.0
934.54,138.0
934.6,147.0
934.67,138.0
934.73,137.0
934.79,152.0
934.86,149.0
934.92,145.0
934.98,144.0
935.05,158.0
935.11,157.0
935.17,155.0
935.23,174.0
935.3,182.0
935.36,167.0
935.42,158.0
935.49,165.0
935.55,181.0
935.61,194.0
935.68,188.0
935.74,181.0
935.8,211.0
935.86,204.0
935.93,179.0
935.99,165.0
936.05,168.0
936.12,163.0
936.18,187.0
936.24,168.0
936.31,178.0
936.37,186.0
936.43,156.0
936.49,164.0
936.56,178.0
936.62,179.0
936.68,176.0
936.75,199.0
936.81,204.0
936.87,195.0
936.94,178.0
937.0,190.0
937.06,203.0
937.12,201.0
937.19,198.0
937.25,170.0
937.31,186.0
937.38,192.0
937.44,174.0
937.5,174.0
937.57,179.0
937.63,192.0
937.69,209.0
937.75,201.0
937.82,187.0
937.88,200.0
937.94,197.0
938.01,185.0
938.07,178.0
938.13,205.0
938.2,250.0
938.26,223.0
938.32,198.0
938.38,198.0
938.45,195.0
938.51,191.0
938.57,212.0
938.64,212.0
938.7,206.0
938.76,206.0
938.83,185.0
938.89,195.0
938.95,191.0
939.01,203.0
939.08,231.0
939.14,240.0
939.2,229.0
939.27,232.0
939.33,213.0
939.39,204.0
939.46,202.0
939.52,206.0
939.58,187.0
939.64,190.0
939.71,186.0
939.77,188.0
939.83,186.0
939.9,153.0
939.96,150.0
940.02,143.0
940.09,128.0
940.15,134.0
940.21,137.0
940.27,118.0
940.34,104.0
940.4,112.0
940.46,116.0
940.53,117.0
940.59,131.0
940.65,129.0
940.72,104.0
940.78,111.0
940.84,108.0
940.9,86.0
940.97,80.0
941.03,78.0
941.09,87.0
941.16,101.0
941.22,82.0
941.28,86.0
941.35,66.0
941.41,76.0
941.47,75.0
941.53,52.0
941.6,67.0
941.66,48.0
941.72,64.0
941.79,42.0
941.85,62.0
941.91,64.0
941.98,71.0
942.04,77.0
942.1,41.0
942.16,34.0
942.23,32.0
942.29,29.0
942.35,33.0
942.42,43.0
942.48,43.0
942.54,44.0
942.61,69.0
942.67,56.0
942.73,47.0
942.79,45.0
942.86,33.0
942.92,38.0
942.98,36.0
943.05,30.0
943.11,32.0
943.17,39.0
943.24,54.0
943.3,61.0
943.36,55.0
943.42,56.0
943.49,68.0
943.55,56.0
943.61,42.0
943.68,50.0
943.74,39.0
943.8,20.0
943.87,10.0
943.93,25.0
943.99,33.0
944.05,21.0
944.12,20.0
944.18,11.0
944.24,17.0
944.31,-2.0
944.37,5.0
944.43,12.0
944.5,26.0
944.56,30.0
944.62,38.0
944.68,47.0
944.75,48.0
944.81,40.0
944.87,50.0
944.94,63.0
945.0,73.0
945.06,85.0
945.13,80.0
945.19,75.0
945.25,81.0
945.31,50.0
945.38,70.0
945.44,100.0
945.5,89.0
945.57,90.0
945.63,81.0
945.69,103.0
945.76,100.0
945.82,97.0
945.88,92.0
945.94,113.0
946.01,87.0
946.07,89.0
946.13,107.0
946.2,100.0
946.26,111.0
946.32,119.0
946.39,108.0
946.45,102.0
946.51,120.0
946.57,129.0
946.64,138.0
946.7,131.0
946.76,136.0
946.83,136.0
946.89,152.0
946.95,137.0
947.02,143.0
947.08,151.0
947.14,151.0
947.2,155.0
947.27,150.0
947.33,147.0
947.39,155.0
947.46,150.0
947.52,152.0
947.58,144.0
947.65,156.0
947.71,162.0
947.77,141.0
947.83,155.0
947.9,152.0
947.96,173.0
948.02,179.0
948.09,168.0
948.15,158.0
948.21,157.0
948.28,152.0
948.34,177.0
948.4,175.0
948.46,188.0
948.53,198.0
948.59,162.0
948.65,160.0
948.72,152.0
948.78,142.0
948.84,154.0
948.91,137.0
948.97,137.0
949.03,130.0
949.09,124.0
949.16,111.0
949.22,110.0
949.28,129.0
949.35,149.0
949.41,161.0
949.47,127.0
949.54,130.0
949.6,152.0
949.66,147.0
949.72,165.0
949.79,127.0
949.85,148.0
949.91,173.0
949.98,165.0
950.04,164.0
950.1,152.0
950.17,140.0
950.23,147.0
950.29,176.0
950.35,152.0
950.42,150.0
950.48,161.0
950.54,163.0
950.61,173.0
950.67,157.0
950.73,187.0
950.8,187.0
950.86,193.0
950.92,199.0
950.98,170.0
951.05,177.0
951.11,177.0
951.17,179.0
951.24,195.0
951.3,170.0
951.36,157.0
951.43,163.0
951.49,168.0
951.55,146.0
951.61,119.0
951.68,138.0
951.74,141.0
951.8,125.0
951.87,137.0
951.93,147.0
951.99,125.0
952.06,128.0
952.12,138.0
952.18,138.0
952.24,126.0
952.31,137.0
952.37,150.0
952.43,143.0
952.5,155.0
952.56,165.0
952.62,167.0
952.69,169.0
952.75,155.0
952.81,161.0
952.87,168.0
952.94,177.0
953.0,196.0
953.06,182.0
953.13,177.0
953.19,169.0
953.25,166.0
953.32,174.0
953.38,159.0
953.44,170.0
953.5,163.0
953.57,147.0
953.63,158.0
953.69,150.0
953.76,157.0
953.82,180.0
953.88,175.0
953.95,171.0
954.01,176.0
954.07,176.0
954.13,191.0
954.2,191.0
954.26,194.0
954.32,207.0
954.39,204.0
954.45,190.0
954.51,198.0
954.58,187.0
954.64,168.0
954.7,175.0
954.76,191.0
954.83,175.0
954.89,170.0
954.95,177.0
955.02,183.0
955.08,168.0
955.14,204.0
955.21,196.0
955.27,202.0
955.33,184.0
955.39,180.0
955.46,195.0
955.52,203.0
955.58,221.0
955.65,217.0
955.71,217.0
955.77,201.0
955.84,197.0
955.9,203.0
955.96,160.0
956.02,181.0
956.09,191.0
956.15,179.0
956.21,183.0
956.28,185.0
956.34,177.0
956.4,190.0
956.47,192.0
956.53,172.0
956.59,166.0
956.65,168.0
956.72,163.0
956.78,171.0
956.84,198.0
956.91,188.0
956.97,176.0
957.03,166.0
957.1,162.0
957.16,178.0
957.22,181.0
957.28,176.0
957.35,177.0
957.41,180.0
957.47,176.0
957.54,162.0
957.6,191.0
957.66,186.0
957.73,188.0
957.79,191.0
957.85,183.0
957.91,196.0
957.98,206.0
958.04,218.0
958.1,211.0
958.17,201.0
958.23,184.0
958.29,184.0
958.36,197.0
958.42,176.0
958.48,186.0
958.54,188.0
958.61,190.0
958.67,182.0
958.73,187.0
958.8,189.0
958.86,215.0
958.92,221.0
958.99,204.0
959.05,212.0
959.11,203.0
959.17,217.0
959.24,207.0
959.3,206.0
959.36,210.0
959.43,210.0
959.49,221.0
959.55,221.0
959.62,215.0
959.68,231.0
959.74,226.0
959.8,214.0
959.87,223.0
959.93,210.0
959.99,201.0
960.06,212.0
960.12,220.0
960.18,236.0
960.25,226.0
960.31,218.0
960.37,216.0
960.43,224.0
960.5,241.0
960.56,235.0
960.62,234.0
960.69,241.0
960.75,239.0
960.81,242.0
960.88,251.0
960.94,277.0
961.0,268.0
961.06,268.0
961.13,265.0
961.19,266.0
961.25,275.0
961.32,266.0
961.38,261.0
961.44,257.0
961.51,259.0
961.57,267.0
961.63,292.0
961.69,290.0
961.76,274.0
961.82,286.0
961.88,273.0
961.95,278.0
962.01,281.0
962.07,274.0
962.14,283.0
962.2,277.0
962.26,292.0
962.32,303.0
962.39,265.0
962.45,234.0
962.51,235.0
962.58,235.0
962.64,250.0
962.7,245.0
962.77,243.0
962.83,213.0
962.89,214.0
962.95,210.0
963.02,209.0
963.08,204.0
963.14,208.0
963.21,206.0
963.27,206.0
963.33,212.0
963.4,196.0
963.46,188.0
963.52,202.0
963.58,189.0
963.65,210.0
963.71,203.0
963.77,202.0
963.84,212.0
963.9,214.0
963.96,226.0
964.03,245.0
964.09,242.0
964.15,243.0
964.21,225.0
964.28,208.0
964.34,214.0
964.4,201.0
964.47,205.0
964.53,215.0
964.59,206.0
964.66,212.0
964.72,197.0
964.78,197.0
964.84,189.0
964.91,195.0
964.97,199.0
965.03,189.0
965.1,200.0
965.16,193.0
965.22,184.0
965.29,199.0
965.35,193.0
965.41,193.0
965.47,203.0
965.54,210.0
965.6,189.0
965.66,189.0
965.73,191.0
965.79,189.0
965.85,179.0
965.92,175.0
965.98,187.0
966.04,184.0
966.1,169.0
966.17,166.0
966.23,168.0
966.29,187.0
966.36,184.0
966.42,184.0
966.48,181.0
966.55,157.0
966.61,140.0
966.67,150.0
966.73,151.0
966.8,146.0
966.86,147.0
966.92,120.0
966.99,104.0
967.05,95.0
967.11,91.0
967.18,96.0
967.24,114.0
967.3,124.0
967.36,117.0
967.43,112.0
967.49,107.0
967.55,115.0
967.62,91.0
967.68,96.0
967.74,113.0
967.81,111.0
967.87,124.0
967.93,116.0
967.99,108.0
968.06,105.0
968.12,90.0
968.18,93.0
968.25,95.0
968.31,95.0
968.37,90.0
968.44,85.0
968.5,100.0
968.56,104.0
968.62,104.0
968.69,100.0
968.75,123.0
968.81,125.0
968.88,128.0
968.94,103.0
969.0,112.0
969.07,74.0
969.13,92.0
969.19,80.0
969.25,86.0
969.32,80.0
969.38,94.0
969.44,82.0
969.51,67.0
969.57,94.0
969.63,81.0
969.7,102.0
969.76,91.0
969.82,100.0
969.88,97.0
969.95,76.0
970.01,102.0
970.07,96.0
970.14,101.0
970.2,99.0
970.26,115.0
970.33,125.0
970.39,110.0
970.45,104.0
970.51,71.0
970.58,69.0
970.64,89.0
970.7,60.0
970.77,80.0
970.83,69.0
970.89,71.0
970.96,69.0
971.02,67.0
971.08,106.0
971.14,102.0
971.21,103.0
971.27,108.0
971.33,116.0
971.4,109.0
971.46,118.0
971.52,123.0
971.59,96.0
971.65,118.0
971.71,104.0
971.77,106.0
971.84,106.0
971.9,109.0
971.96,113.0
972.03,115.0
972.09,102.0
972.15,111.0
972.22,144.0
972.28,135.0
972.34,140.0
972.4,152.0
972.47,131.0
972.53,156.0
972.59,143.0
972.66,143.0
972.72,130.0
972.78,147.0
972.85,139.0
972.91,157.0
972.97,149.0
973.03,140.0
973.1,147.0
973.16,122.0
973.22,137.0
973.29,138.0
973.35,138.0
973.41,174.0
973.48,167.0
973.54,144.0
973.6,173.0
973.66,131.0
973.73,128.0
973.79,153.0
973.85,131.0
973.92,147.0
973.98,141.0
974.04,130.0
974.11,102.0
974.17,88.0
974.23,100.0
974.29,82.0
974.36,93.0
974.42,107.0
974.48,103.0
974.55,119.0
974.61,104.0
974.67,85.0
974.74,74.0
974.8,80.0
974.86,78.0
974.92,101.0
974.99,114.0
975.05,79.0
975.11,82.0
975.18,66.0
975.24,60.0
975.3,82.0
975.37,107.0
975.43,109.0
975.49,103.0
975.55,106.0
975.62,101.0
975.68,93.0
975.74,125.0
975.81,119.0
975.87,119.0
975.93,113.0
976.0,136.0
976.06,91.0
976.12,107.0
976.18,123.0
976.25,113.0
976.31,119.0
976.37,101.0
976.44,105.0
976.5,100.0
976.56,131.0
976.63,149.0
976.69,138.0
976.75,91.0
976.81,87.0
976.88,97.0
976.94,96.0
977.0,105.0
977.07,129.0
977.13,137.0
977.19,135.0
977.26,118.0
977.32,149.0
977.38,163.0
977.44,140.0
977.51,143.0
977.57,128.0
977.63,150.0
977.7,151.0
977.76,140.0
977.82,119.0
977.89,133.0
977.95,137.0
978.01,141.0
978.07,148.0
978.14,133.0
978.2,151.0
978.26,143.0
978.33,139.0
978.39,129.0
978.45,143.0
978.52,147.0
978.58,137.0
978.64,122.0
978.7,97.0
978.77,113.0
978.83,119.0
978.89,130.0
978.96,113.0
979.02,93.0
979.08,107.0
979.15,90.0
979.21,124.0
979.27,137.0
979.33,142.0
979.4,145.0
979.46,137.0
979.52,124.0
979.59,127.0
979.65,112.0
979.71,103.0
979.78,103.0
979.84,99.0
979.9,133.0
979.96,145.0
980.03,139.0
980.09,137.0
980.15,139.0
980.22,155.0
980.28,163.0
980.34,159.0
980.41,166.0
980.47,163.0
980.53,149.0
980.59,151.0
980.66,164.0
980.72,139.0
980.78,161.0
980.85,169.0
980.91,166.0
980.97,171.0
981.04,177.0
981.1,174.0
981.16,172.0
981.22,150.0
981.29,168.0
981.35,169.0
981.41,167.0
981.48,173.0
981.54,184.0
981.6,170.0
981.67,171.0
981.73,159.0
981.79,144.0
981.85,134.0
981.92,125.0
981.98,125.0
982.04,145.0
982.11,140.0
982.17,111.0
982.23,89.0
982.3,107.0
982.36,117.0
982.42,103.0
982.48,124.0
982.55,91.0
982.61,77.0
982.67,96.0
982.74,93.0
982.8,109.0
982.86,112.0
982.93,110.0
982.99,107.0
983.05,94.0
983.11,127.0
983.18,93.0
983.24,100.0
983.3,112.0
983.37,93.0
983.43,111.0
983.49,93.0
983.56,92.0
983.62,97.0
983.68,93.0
983.74,92.0
983.81,89.0
983.87,122.0
983.93,92.0
984.0,81.0
984.06,100.0
984.12,102.0
984.19,85.0
984.25,108.0
984.31,98.0
984.37,75.0
984.44,101.0
984.5,99.0
984.56,80.0
984.63,72.0
984.69,86.0
984.75,108.0
984.82,103.0
984.88,85.0
984.94,102.0
985.0,116.0
985.07,107.0
985.13,111.0
985.19,110.0
985.26,101.0
985.32,122.0
985.38,111.0
985.45,101.0
985.51,115.0
985.57,112.0
985.63,110.0
985.7,115.0
985.76,105.0
985.82,126.0
985.89,128.0
985.95,124.0
986.01,148.0
986.08,139.0
986.14,167.0
986.2,148.0
986.26,147.0
986.33,147.0
986.39,174.0
986.45,170.0
986.52,177.0
986.58,188.0
986.64,184.0
986.71,177.0
986.77,166.0
986.83,180.0
986.89,174.0
986.96,196.0
987.02,198.0
987.08,177.0
987.15,192.0
987.21,193.0
987.27,210.0
987.34,217.0
987.4,211.0
987.46,203.0
987.52,207.0
987.59,206.0
987.65,217.0
987.71,232.0
987.78,236.0
987.84,222.0
987.9,232.0
987.97,266.0
988.03,224.0
988.09,215.0
988.15,231.0
988.22,212.0
988.28,211.0
988.34,194.0
988.41,211.0
988.47,202.0
988.53,202.0
988.6,204.0
988.66,215.0
988.72,214.0
988.78,214.0
988.85,225.0
988.91,232.0
988.97,231.0
989.04,220.0
989.1,240.0
989.16,243.0
989.23,204.0
989.29,217.0
989.35,222.0
989.41,223.0
989.48,224.0
989.54,206.0
989.6,202.0
989.67,211.0
989.73,220.0
989.79,223.0
989.86,218.0
989.92,217.0
989.98,204.0
990.04,210.0
990.11,198.0
990.17,206.0
990.23,213.0
990.3,209.0
990.36,196.0
990.42,177.0
990.49,190.0
990.55,192.0
990.61,184.0
990.67,193.0
990.74,192.0
990.8,179.0
990.86,187.0
990.93,187.0
990.99,171.0
991.05,159.0
991.12,146.0
991.18,164.0
991.24,169.0
991.3,173.0
991.37,156.0
991.43,165.0
991.49,154.0
991.56,144.0
991.62,157.0
991.68,137.0
991.75,147.0
991.81,129.0
991.87,134.0
991.93,141.0
992.0,128.0
992.06,133.0
992.12,132.0
992.19,121.0
992.25,124.0
992.31,119.0
992.38,127.0
992.44,102.0
992.5,88.0
992.56,78.0
992.63,89.0
992.69,84.0
992.75,107.0
992.82,100.0
992.88,80.0
992.94,100.0
993.01,81.0
993.07,74.0
993.13,73.0
993.19,76.0
993.26,82.0
993.32,55.0
993.38,39.0
993.45,58.0
993.51,78.0
993.57,78.0
993.64,74.0
993.7,69.0
993.76,47.0
993.82,45.0
993.89,63.0
993.95,70.0
994.01,76.0
994.08,87.0
994.14,86.0
994.2,80.0
994.27,93.0
994.33,84.0
994.39,83.0
994.45,59.0
994.52,70.0
994.58,64.0
994.64,63.0
994.71,70.0
994.77,81.0
994.83,71.0
994.9,90.0
994.96,83.0
995.02,67.0
995.08,74.0
995.15,77.0
995.21,107.0
995.27,89.0
995.34,71.0
995.4,67.0
995.46,76.0
995.53,85.0
995.59,85.0
995.65,85.0
995.71,79.0
995.78,96.0
995.84,103.0
995.9,96.0
995.97,87.0
996.03,73.0
996.09,79.0
996.16,89.0
996.22,70.0
996.28,77.0
996.34,69.0
996.41,74.0
996.47,63.0
996.53,58.0
996.6,76.0
996.66,59.0
996.72,75.0
996.79,66.0
996.85,46.0
996.91,37.0
996.97,38.0
997.04,60.0
997.1,70.0
997.16,52.0
997.23,55.0
997.29,58.0
997.35,54.0
997.42,56.0
997.48,55.0
997.54,75.0
997.6,52.0
997.67,55.0
997.73,59.0
997.79,66.0
997.86,51.0
997.92,74.0
997.98,79.0
998.05,54.0
998.11,57.0
998.17,55.0
998.23,66.0
998.3,63.0
998.36,63.0
998.42,72.0
998.49,66.0
998.55,89.0
998.61,91.0
998.68,110.0
998.74,94.0
998.8,88.0
998.86,87.0
998.93,45.0
998.99,73.0
999.05,73.0
999.12,79.0
999.18,64.0
999.24,70.0
999.31,109.0
999.37,103.0
999.43,101.0
999.49,124.0
999.56,103.0
999.62,94.0
999.68,106.0
999.75,112.0
999.81,108.0
999.87,96.0
