timestamp,intensity
0,-208.0
0.06,-210.0
0.13,-224.0
0.19,-230.0
0.25,-210.0
0.32,-220.0
0.38,-221.0
0.44,-208.0
0.5,-191.0
0.57,-210.0
0.63,-233.0
0.69,-237.0
0.76,-243.0
0.82,-240.0
0.88,-236.0
0.94,-267.0
1.01,-264.0
1.07,-250.0
1.13,-273.0
1.2,-233.0
1.26,-265.0
1.32,-261.0
1.39,-229.0
1.45,-241.0
1.51,-210.0
1.57,-224.0
1.64,-217.0
1.7,-230.0
1.76,-223.0
1.83,-222.0
1.89,-214.0
1.95,-223.0
2.02,-222.0
2.08,-213.0
2.14,-230.0
2.2,-201.0
2.27,-231.0
2.33,-220.0
2.39,-230.0
2.46,-224.0
2.52,-245.0
2.58,-232.0
2.65,-247.0
2.71,-255.0
2.77,-250.0
2.84,-252.0
2.9,-249.0
2.96,-254.0
3.02,-275.0
3.09,-284.0
3.15,-277.0
3.21,-286.0
3.28,-275.0
3.34,-277.0
3.4,-247.0
3.47,-244.0
3.53,-263.0
3.59,-268.0
3.65,-254.0
3.72,-257.0
3.78,-264.0
3.84,-275.0
3.91,-270.0
3.97,-281.0
4.03,-261.0
4.1,-256.0
4.16,-280.0
4.22,-273.0
4.28,-261.0
4.35,-267.0
4.41,-258.0
4.47,-267.0
4.54,-269.0
4.6,-268.0
4.66,-265.0
4.73,-264.0
4.79,-267.0
4.85,-273.0
4.91,-257.0
4.98,-277.0
5.04,-257.0
5.1,-262.0
5.17,-263.0
5.23,-263.0
5.29,-275.0
5.35,-258.0
5.42,-264.0
5.48,-266.0
5.54,-271.0
5.61,-259.0
5.67,-254.0
5.73,-273.0
5.8,-266.0
5.86,-283.0
5.92,-272.0
5.98,-270.0
6.05,-267.0
6.11,-259.0
6.17,-245.0
6.24,-253.0
6.3,-277.0
6.36,-263.0
6.43,-280.0
6.49,-269.0
6.55,-262.0
6.61,-251.0
6.68,-250.0
6.74,-266.0
6.8,-271.0
6.87,-264.0
6.93,-256.0
6.99,-263.0
7.06,-262.0
7.12,-267.0
7.18,-279.0
7.24,-261.0
7.31,-240.0
7.37,-261.0
7.43,-259.0
7.5,-247.0
7.56,-258.0
7.62,-257.0
7.69,-258.0
7.75,-239.0
7.81,-240.0
7.87,-247.0
7.94,-243.0
8.0,-239.0
8.06,-237.0
8.13,-232.0
8.19,-236.0
8.25,-240.0
8.32,-241.0
8.38,-256.0
8.44,-247.0
8.5,-238.0
8.57,-246.0
8.63,-256.0
8.69,-248.0
8.76,-254.0
8.82,-255.0
8.88,-231.0
8.95,-231.0
9.01,-245.0
9.07,-243.0
9.13,-243.0
9.2,-257.0
9.26,-254.0
9.32,-253.0
9.39,-251.0
9.45,-250.0
9.51,-228.0
9.58,-257.0
9.64,-250.0
9.7,-268.0
9.77,-252.0
9.83,-241.0
9.89,-259.0
9.95,-251.0
10.02,-253.0
10.08,-242.0
10.14,-258.0
10.21,-254.0
10.27,-247.0
10.33,-281.0
10.4,-268.0
10.46,-252.0
10.52,-247.0
10.58,-239.0
10.65,-242.0
10.71,-238.0
10.77,-244.0
10.84,-238.0
10.9,-222.0
10.96,-221.0
11.03,-221.0
11.09,-239.0
11.15,-213.0
11.21,-215.0
11.28,-230.0
11.34,-237.0
11.4,-229.0
11.47,-243.0
11.53,-249.0
11.59,-237.0
11.66,-237.0
11.72,-233.0
11.78,-241.0
11.84,-249.0
11.91,-232.0
11.97,-244.0
12.03,-251.0
12.1,-235.0
12.16,-235.0
12.22,-225.0
12.29,-236.0
12.35,-238.0
12.41,-220.0
12.47,-219.0
12.54,-219.0
12.6,-230.0
12.66,-218.0
12.73,-219.0
12.79,-235.0
12.85,-241.0
12.92,-236.0
12.98,-244.0
13.04,-220.0
13.1,-226.0
13.17,-213.0
13.23,-210.0
13.29,-223.0
13.36,-225.0
13.42,-217.0
13.48,-209.0
13.55,-215.0
13.61,-226.0
13.67,-209.0
13.73,-193.0
13.8,-179.0
13.86,-181.0
13.92,-178.0
13.99,-189.0
14.05,-213.0
14.11,-197.0
14.18,-209.0
14.24,-197.0
14.3,-187.0
14.36,-181.0
14.43,-196.0
14.49,-198.0
14.55,-191.0
14.62,-195.0
14.68,-210.0
14.74,-221.0
14.81,-213.0
14.87,-217.0
14.93,-207.0
14.99,-218.0
15.06,-218.0
15.12,-212.0
15.18,-207.0
15.25,-187.0
15.31,-178.0
15.37,-159.0
15.44,-152.0
15.5,-163.0
15.56,-141.0
15.62,-170.0
15.69,-151.0
15.75,-163.0
15.81,-173.0
15.88,-163.0
15.94,-163.0
16.0,-159.0
16.07,-150.0
16.13,-163.0
16.19,-162.0
16.25,-167.0
16.32,-188.0
16.38,-187.0
16.44,-170.0
16.51,-173.0
16.57,-156.0
16.63,-167.0
16.7,-177.0
16.76,-182.0
16.82,-170.0
16.88,-176.0
16.95,-183.0
17.01,-166.0
17.07,-185.0
17.14,-177.0
17.2,-164.0
17.26,-173.0
17.33,-167.0
17.39,-154.0
17.45,-151.0
17.51,-152.0
17.58,-160.0
17.64,-170.0
17.7,-163.0
17.77,-138.0
17.83,-163.0
17.89,-170.0
17.96,-157.0
18.02,-163.0
18.08,-159.0
18.14,-147.0
18.21,-160.0
18.27,-183.0
18.33,-176.0
18.4,-167.0
18.46,-169.0
18.52,-176.0
18.59,-172.0
18.65,-158.0
18.71,-158.0
18.77,-153.0
18.84,-153.0
18.9,-165.0
18.96,-157.0
19.03,-162.0
19.09,-148.0
19.15,-165.0
19.22,-146.0
19.28,-149.0
19.34,-138.0
19.4,-141.0
19.47,-165.0
19.53,-149.0
19.59,-157.0
19.66,-141.0
19.72,-129.0
19.78,-142.0
19.84,-144.0
19.91,-144.0
19.97,-131.0
20.03,-135.0
20.1,-144.0
20.16,-144.0
20.22,-149.0
20.29,-120.0
20.35,-131.0
20.41,-135.0
20.47,-137.0
20.54,-145.0
20.6,-146.0
20.66,-144.0
20.73,-158.0
20.79,-166.0
20.85,-160.0
20.92,-149.0
20.98,-137.0
21.04,-135.0
21.1,-141.0
21.17,-129.0
21.23,-141.0
21.29,-159.0
21.36,-136.0
21.42,-128.0
21.48,-136.0
21.55,-157.0
21.61,-169.0
21.67,-171.0
21.73,-161.0
21.8,-161.0
21.86,-146.0
21.92,-142.0
21.99,-135.0
22.05,-133.0
22.11,-167.0
22.18,-160.0
22.24,-153.0
22.3,-134.0
22.36,-139.0
22.43,-124.0
22.49,-138.0
22.55,-143.0
22.62,-118.0
22.68,-128.0
22.74,-126.0
22.81,-112.0
22.87,-111.0
22.93,-128.0
22.99,-145.0
23.06,-145.0
23.12,-142.0
23.18,-119.0
23.25,-136.0
23.31,-129.0
23.37,-114.0
23.44,-129.0
23.5,-102.0
23.56,-100.0
23.62,-102.0
23.69,-83.0
23.75,-111.0
23.81,-101.0
23.88,-79.0
23.94,-100.0
24.0,-81.0
24.07,-68.0
24.13,-69.0
24.19,-49.0
24.25,-59.0
24.32,-74.0
24.38,-79.0
24.44,-85.0
24.51,-65.0
24.57,-86.0
24.63,-82.0
24.7,-95.0
24.76,-105.0
24.82,-98.0
24.88,-94.0
24.95,-72.0
25.01,-84.0
25.07,-103.0
25.14,-89.0
25.2,-58.0
25.26,-57.0
25.33,-71.0
25.39,-90.0
25.45,-83.0
25.51,-68.0
25.58,-66.0
25.64,-80.0
25.7,-96.0
25.77,-101.0
25.83,-100.0
25.89,-102.0
25.96,-110.0
26.02,-107.0
26.08,-104.0
26.14,-113.0
26.21,-90.0
26.27,-95.0
26.33,-109.0
26.4,-90.0
26.46,-108.0
26.52,-106.0
26.59,-93.0
26.65,-122.0
26.71,-107.0
26.77,-88.0
26.84,-94.0
26.9,-118.0
26.96,-119.0
27.03,-115.0
27.09,-121.0
27.15,-134.0
27.22,-125.0
27.28,-125.0
27.34,-126.0
27.4,-124.0
27.47,-107.0
27.53,-84.0
27.59,-87.0
27.66,-110.0
27.72,-117.0
27.78,-114.0
27.85,-118.0
27.91,-114.0
27.97,-114.0
28.03,-88.0
28.1,-92.0
28.16,-99.0
28.22,-101.0
28.29,-106.0
28.35,-91.0
28.41,-98.0
28.48,-89.0
28.54,-102.0
28.6,-97.0
28.66,-102.0
28.73,-94.0
28.79,-73.0
28.85,-75.0
28.92,-84.0
28.98,-90.0
29.04,-69.0
29.11,-78.0
29.17,-77.0
29.23,-71.0
29.29,-86.0
29.36,-99.0
29.42,-117.0
29.48,-108.0
29.55,-85.0
29.61,-83.0
29.67,-91.0
29.74,-97.0
29.8,-112.0
29.86,-99.0
29.92,-105.0
29.99,-112.0
30.05,-99.0
30.11,-106.0
30.18,-113.0
30.24,-113.0
30.3,-131.0
30.37,-135.0
30.43,-129.0
30.49,-137.0
30.55,-132.0
30.62,-140.0
30.68,-160.0
30.74,-171.0
30.81,-169.0
30.87,-159.0
30.93,-152.0
31.0,-150.0
31.06,-168.0
31.12,-164.0
31.18,-175.0
31.25,-159.0
31.31,-147.0
31.37,-159.0
31.44,-121.0
31.5,-124.0
31.56,-138.0
31.63,-140.0
31.69,-146.0
31.75,-157.0
31.81,-136.0
31.88,-157.0
31.94,-156.0
32.0,-141.0
32.07,-141.0
32.13,-147.0
32.19,-149.0
32.26,-155.0
32.32,-144.0
32.38,-151.0
32.44,-133.0
32.51,-109.0
32.57,-125.0
32.63,-126.0
32.7,-142.0
32.76,-129.0
32.82,-133.0
32.89,-142.0
32.95,-122.0
33.01,-125.0
33.07,-126.0
33.14,-129.0
33.2,-128.0
33.26,-128.0
33.33,-125.0
33.39,-126.0
33.45,-128.0
33.52,-130.0
33.58,-130.0
33.64,-124.0
33.7,-140.0
33.77,-126.0
33.83,-151.0
33.89,-135.0
33.96,-129.0
34.02,-129.0
34.08,-123.0
34.15,-126.0
34.21,-128.0
34.27,-133.0
34.33,-102.0
34.4,-119.0
34.46,-132.0
34.52,-140.0
34.59,-132.0
34.65,-126.0
34.71,-146.0
34.78,-147.0
34.84,-137.0
34.9,-144.0
34.96,-121.0
35.03,-127.0
35.09,-129.0
35.15,-145.0
35.22,-124.0
35.28,-124.0
35.34,-128.0
35.41,-111.0
35.47,-106.0
35.53,-110.0
35.59,-114.0
35.66,-97.0
35.72,-120.0
35.78,-116.0
35.85,-118.0
35.91,-124.0
35.97,-106.0
36.04,-107.0
36.1,-115.0
36.16,-121.0
36.22,-130.0
36.29,-139.0
36.35,-139.0
36.41,-159.0
36.48,-162.0
36.54,-173.0
36.6,-160.0
36.67,-167.0
36.73,-162.0
36.79,-176.0
36.85,-188.0
36.92,-156.0
36.98,-154.0
37.04,-162.0
37.11,-161.0
37.17,-143.0
37.23,-167.0
37.3,-145.0
37.36,-151.0
37.42,-178.0
37.48,-174.0
37.55,-174.0
37.61,-164.0
37.67,-155.0
37.74,-176.0
37.8,-172.0
37.86,-166.0
37.93,-185.0
37.99,-189.0
38.05,-182.0
38.12,-188.0
38.18,-190.0
38.24,-186.0
38.3,-174.0
38.37,-168.0
38.43,-158.0
38.49,-151.0
38.56,-148.0
38.62,-157.0
38.68,-135.0
38.75,-145.0
38.81,-130.0
38.87,-129.0
38.93,-149.0
39.0,-142.0
39.06,-138.0
39.12,-155.0
39.19,-144.0
39.25,-137.0
39.31,-134.0
39.38,-145.0
39.44,-132.0
39.5,-130.0
39.56,-127.0
39.63,-133.0
39.69,-128.0
39.75,-130.0
39.82,-147.0
39.88,-129.0
39.94,-107.0
40.01,-105.0
40.07,-123.0
40.13,-107.0
40.19,-121.0
40.26,-120.0
40.32,-112.0
40.38,-130.0
40.45,-115.0
40.51,-102.0
40.57,-112.0
40.64,-123.0
40.7,-126.0
40.76,-110.0
40.82,-107.0
40.89,-98.0
40.95,-103.0
41.01,-96.0
41.08,-93.0
41.14,-120.0
41.2,-127.0
41.27,-109.0
41.33,-96.0
41.39,-83.0
41.45,-92.0
41.52,-103.0
41.58,-106.0
41.64,-93.0
41.71,-89.0
41.77,-89.0
41.83,-101.0
41.9,-84.0
41.96,-80.0
42.02,-77.0
42.08,-89.0
42.15,-96.0
42.21,-100.0
42.27,-115.0
42.34,-95.0
42.4,-101.0
42.46,-100.0
42.53,-83.0
42.59,-70.0
42.65,-89.0
42.71,-115.0
42.78,-101.0
42.84,-96.0
42.9,-94.0
42.97,-106.0
43.03,-99.0
43.09,-94.0
43.16,-96.0
43.22,-106.0
43.28,-116.0
43.34,-95.0
43.41,-111.0
43.47,-120.0
43.53,-112.0
43.6,-101.0
43.66,-112.0
43.72,-133.0
43.79,-134.0
43.85,-116.0
43.91,-95.0
43.97,-99.0
44.04,-96.0
44.1,-88.0
44.16,-94.0
44.23,-113.0
44.29,-102.0
44.35,-119.0
44.42,-100.0
44.48,-109.0
44.54,-91.0
44.6,-99.0
44.67,-88.0
44.73,-94.0
44.79,-104.0
44.86,-113.0
44.92,-108.0
44.98,-131.0
45.05,-139.0
45.11,-122.0
45.17,-129.0
45.23,-105.0
45.3,-130.0
45.36,-144.0
45.42,-154.0
45.49,-135.0
45.55,-134.0
45.61,-128.0
45.68,-130.0
45.74,-132.0
45.8,-127.0
45.86,-131.0
45.93,-118.0
45.99,-139.0
46.05,-140.0
46.12,-119.0
46.18,-128.0
46.24,-126.0
46.31,-105.0
46.37,-105.0
46.43,-109.0
46.49,-95.0
46.56,-105.0
46.62,-101.0
46.68,-98.0
46.75,-107.0
46.81,-118.0
46.87,-120.0
46.94,-99.0
47.0,-107.0
47.06,-128.0
47.12,-121.0
47.19,-139.0
47.25,-116.0
47.31,-120.0
47.38,-105.0
47.44,-107.0
47.5,-112.0
47.57,-106.0
47.63,-96.0
47.69,-115.0
47.75,-109.0
47.82,-105.0
47.88,-122.0
47.94,-103.0
48.01,-98.0
48.07,-99.0
48.13,-118.0
48.2,-105.0
48.26,-99.0
48.32,-113.0
48.38,-101.0
48.45,-98.0
48.51,-102.0
48.57,-119.0
48.64,-118.0
48.7,-115.0
48.76,-124.0
48.83,-91.0
48.89,-102.0
48.95,-102.0
49.01,-86.0
49.08,-81.0
49.14,-90.0
49.2,-88.0
49.27,-84.0
49.33,-78.0
49.39,-93.0
49.46,-84.0
49.52,-83.0
49.58,-83.0
49.64,-64.0
49.71,-69.0
49.77,-62.0
49.83,-56.0
49.9,-63.0
49.96,-36.0
50.02,-42.0
50.09,-37.0
50.15,-43.0
50.21,-30.0
50.27,-48.0
50.34,-46.0
50.4,-37.0
50.46,-47.0
50.53,-10.0
50.59,-45.0
50.65,-49.0
50.72,-34.0
50.78,-32.0
50.84,-45.0
50.9,-31.0
50.97,-34.0
51.03,-27.0
51.09,-27.0
51.16,-24.0
51.22,-12.0
51.28,-13.0
51.35,-9.0
51.41,-4.0
51.47,16.0
51.53,-2.0
51.6,-24.0
51.66,-26.0
51.72,-12.0
51.79,-20.0
51.85,-24.0
51.91,-19.0
51.98,-16.0
52.04,-17.0
52.1,-9.0
52.16,-9.0
52.23,-11.0
52.29,2.0
52.35,0.0
52.42,-15.0
52.48,-4.0
52.54,-4.0
52.61,6.0
52.67,9.0
52.73,14.0
52.79,24.0
52.86,45.0
52.92,37.0
52.98,16.0
53.05,8.0
53.11,16.0
53.17,13.0
53.24,8.0
53.3,4.0
53.36,-4.0
53.42,-6.0
53.49,6.0
53.55,-10.0
53.61,-19.0
53.68,-3.0
53.74,4.0
53.8,14.0
53.87,6.0
53.93,-6.0
53.99,-11.0
54.05,-12.0
54.12,-13.0
54.18,-15.0
54.24,-18.0
54.31,-20.0
54.37,-2.0
54.43,-8.0
54.5,-36.0
54.56,-26.0
54.62,-18.0
54.68,-18.0
54.75,-15.0
54.81,-28.0
54.87,-28.0
54.94,-22.0
55.0,-36.0
55.06,-33.0
55.13,-49.0
55.19,-62.0
55.25,-43.0
55.31,-33.0
55.38,-38.0
55.44,-23.0
55.5,-32.0
55.57,-10.0
55.63,-16.0
55.69,-38.0
55.76,-24.0
55.82,-11.0
55.88,-16.0
55.94,-33.0
56.01,-45.0
56.07,-42.0
56.13,-43.0
56.2,-31.0
56.26,-48.0
56.32,-38.0
56.39,-35.0
56.45,-22.0
56.51,-18.0
56.57,-23.0
56.64,-7.0
56.7,-12.0
56.76,0.0
56.83,-16.0
56.89,-13.0
56.95,-9.0
57.02,-9.0
57.08,-18.0
57.14,-27.0
57.2,-18.0
57.27,-18.0
57.33,-5.0
57.39,-21.0
57.46,-17.0
57.52,-27.0
57.58,-34.0
57.65,-34.0
57.71,-37.0
57.77,-23.0
57.83,-29.0
57.9,-33.0
57.96,-28.0
58.02,-18.0
58.09,-29.0
58.15,-21.0
58.21,-21.0
58.28,-25.0
58.34,-24.0
58.4,-42.0
58.46,-37.0
58.53,-49.0
58.59,-47.0
58.65,-31.0
58.72,-43.0
58.78,-37.0
58.84,-49.0
58.91,-38.0
58.97,-40.0
59.03,-40.0
59.09,-18.0
59.16,-23.0
59.22,-24.0
59.28,-37.0
59.35,-25.0
59.41,-16.0
59.47,-33.0
59.54,-14.0
59.6,2.0
59.66,-4.0
59.72,-17.0
59.79,-34.0
59.85,-36.0
59.91,-27.0
59.98,-18.0
60.04,-26.0
60.1,-30.0
60.17,-25.0
60.23,5.0
60.29,-4.0
60.35,-10.0
60.42,-10.0
60.48,-29.0
60.54,-26.0
60.61,-14.0
60.67,-28.0
60.73,-38.0
60.8,-35.0
60.86,-29.0
60.92,-25.0
60.98,-17.0
61.05,-5.0
61.11,-32.0
61.17,-8.0
61.24,11.0
61.3,-8.0
61.36,-23.0
61.43,-17.0
61.49,-4.0
61.55,-19.0
61.61,-18.0
61.68,-10.0
61.74,-13.0
61.8,-4.0
61.87,3.0
61.93,0.0
61.99,2.0
62.06,-25.0
62.12,-28.0
62.18,-21.0
62.24,-23.0
62.31,-23.0
62.37,-35.0
62.43,-16.0
62.5,-20.0
62.56,-36.0
62.62,-33.0
62.69,-52.0
62.75,-48.0
62.81,-37.0
62.87,-37.0
62.94,-56.0
63.0,-49.0
63.06,-55.0
63.13,-54.0
63.19,-58.0
63.25,-49.0
63.32,-42.0
63.38,-47.0
63.44,-38.0
63.5,-33.0
63.57,-45.0
63.63,-70.0
63.69,-63.0
63.76,-64.0
63.82,-57.0
63.88,-66.0
63.95,-77.0
64.01,-74.0
64.07,-55.0
64.13,-60.0
64.2,-39.0
64.26,-36.0
64.32,-37.0
64.39,-28.0
64.45,-38.0
64.51,-53.0
64.58,-34.0
64.64,-38.0
64.7,-30.0
64.76,-45.0
64.83,-29.0
64.89,-16.0
64.95,-24.0
65.02,-28.0
65.08,-38.0
65.14,-7.0
65.21,-13.0
65.27,-46.0
65.33,-41.0
65.39,-20.0
65.46,-26.0
65.52,-12.0
65.58,-23.0
65.65,-5.0
65.71,-16.0
65.77,-11.0
65.84,-1.0
65.9,1.0
65.96,11.0
66.02,11.0
66.09,16.0
66.15,20.0
66.21,22.0
66.28,28.0
66.34,11.0
66.4,8.0
66.47,16.0
66.53,8.0
66.59,5.0
66.65,16.0
66.72,8.0
66.78,-3.0
66.84,-5.0
66.91,-8.0
66.97,-6.0
67.03,-1.0
67.1,-23.0
67.16,-10.0
67.22,-23.0
67.28,-35.0
67.35,-26.0
67.41,-24.0
67.47,-17.0
67.54,-21.0
67.6,-13.0
67.66,-15.0
67.73,-5.0
67.79,0.0
67.85,14.0
67.91,10.0
67.98,-5.0
68.04,18.0
68.1,-7.0
68.17,5.0
68.23,18.0
68.29,21.0
68.36,0.0
68.42,2.0
68.48,14.0
68.54,15.0
68.61,33.0
68.67,38.0
68.73,44.0
68.8,26.0
68.86,26.0
68.92,49.0
68.99,55.0
69.05,72.0
69.11,53.0
69.17,48.0
69.24,53.0
69.3,61.0
69.36,48.0
69.43,41.0
69.49,45.0
69.55,38.0
69.62,53.0
69.68,34.0
69.74,47.0
69.8,38.0
69.87,65.0
69.93,58.0
69.99,44.0
70.06,62.0
70.12,56.0
70.18,49.0
70.25,54.0
70.31,52.0
70.37,59.0
70.43,48.0
70.5,38.0
70.56,57.0
70.62,51.0
70.69,28.0
70.75,17.0
70.81,32.0
70.88,27.0
70.94,26.0
71.0,33.0
71.06,17.0
71.13,15.0
71.19,30.0
71.25,24.0
71.32,37.0
71.38,32.0
71.44,11.0
71.51,24.0
71.57,17.0
71.63,19.0
71.69,12.0
71.76,24.0
71.82,21.0
71.88,18.0
71.95,6.0
72.01,6.0
72.07,23.0
72.14,15.0
72.2,14.0
72.26,20.0
72.32,26.0
72.39,27.0
72.45,30.0
72.51,42.0
72.58,12.0
72.64,17.0
72.7,24.0
72.77,30.0
72.83,33.0
72.89,36.0
72.95,35.0
73.02,35.0
73.08,33.0
73.14,59.0
73.21,38.0
73.27,30.0
73.33,47.0
73.4,48.0
73.46,52.0
73.52,71.0
73.58,63.0
73.65,56.0
73.71,61.0
73.77,73.0
73.84,57.0
73.9,59.0
73.96,68.0
74.03,82.0
74.09,62.0
74.15,63.0
74.21,39.0
74.28,45.0
74.34,58.0
74.4,45.0
74.47,55.0
74.53,62.0
74.59,71.0
74.66,70.0
74.72,65.0
74.78,59.0
74.84,58.0
74.91,87.0
74.97,85.0
75.03,88.0
75.1,89.0
75.16,83.0
75.22,89.0
75.29,76.0
75.35,69.0
75.41,85.0
75.47,84.0
75.54,89.0
75.6,94.0
75.66,83.0
75.73,106.0
75.79,105.0
75.85,113.0
75.92,95.0
75.98,96.0
76.04,99.0
76.1,84.0
76.17,63.0
76.23,61.0
76.29,89.0
76.36,81.0
76.42,74.0
76.48,87.0
76.55,88.0
76.61,84.0
76.67,77.0
76.73,81.0
76.8,102.0
76.86,87.0
76.92,90.0
76.99,93.0
77.05,82.0
77.11,89.0
77.18,73.0
77.24,86.0
77.3,80.0
77.36,97.0
77.43,96.0
77.49,75.0
77.55,92.0
77.62,91.0
77.68,82.0
77.74,90.0
77.81,82.0
77.87,60.0
77.93,74.0
77.99,48.0
78.06,70.0
78.12,61.0
78.18,55.0
78.25,60.0
78.31,45.0
78.37,37.0
78.44,36.0
78.5,51.0
78.56,52.0
78.62,51.0
78.69,46.0
78.75,67.0
78.81,77.0
78.88,73.0
78.94,68.0
79.0,77.0
79.07,74.0
79.13,54.0
79.19,61.0
79.25,79.0
79.32,57.0
79.38,49.0
79.44,68.0
79.51,65.0
79.57,70.0
79.63,59.0
79.7,56.0
79.76,65.0
79.82,60.0
79.88,65.0
79.95,52.0
80.01,48.0
80.07,49.0
80.14,35.0
80.2,42.0
80.26,41.0
80.33,48.0
80.39,41.0
80.45,52.0
80.51,55.0
80.58,33.0
80.64,18.0
80.7,39.0
80.77,38.0
80.83,23.0
80.89,26.0
80.96,31.0
81.02,10.0
81.08,20.0
81.14,19.0
81.21,22.0
81.27,19.0
81.33,22.0
81.4,30.0
81.46,35.0
81.52,15.0
81.59,34.0
81.65,38.0
81.71,35.0
81.77,27.0
81.84,11.0
81.9,25.0
81.96,33.0
82.03,30.0
82.09,12.0
82.15,26.0
82.22,47.0
82.28,19.0
82.34,12.0
82.4,12.0
82.47,7.0
82.53,18.0
82.59,34.0
82.66,14.0
82.72,32.0
82.78,23.0
82.85,37.0
82.91,38.0
82.97,42.0
83.03,25.0
83.1,32.0
83.16,20.0
83.22,17.0
83.29,32.0
83.35,27.0
83.41,35.0
83.48,34.0
83.54,15.0
83.6,18.0
83.66,14.0
83.73,26.0
83.79,43.0
83.85,40.0
83.92,10.0
83.98,28.0
84.04,35.0
84.11,33.0
84.17,41.0
84.23,23.0
84.29,7.0
84.36,22.0
84.42,15.0
84.48,21.0
84.55,14.0
84.61,8.0
84.67,1.0
84.74,10.0
84.8,-7.0
84.86,-5.0
84.92,7.0
84.99,-5.0
85.05,19.0
85.11,24.0
85.18,11.0
85.24,-2.0
85.3,-1.0
85.37,-4.0
85.43,1.0
85.49,-2.0
85.55,-18.0
85.62,-8.0
85.68,-13.0
85.74,-10.0
85.81,-9.0
85.87,-11.0
85.93,-17.0
86.0,2.0
86.06,10.0
86.12,-27.0
86.18,-42.0
86.25,-21.0
86.31,-15.0
86.37,-9.0
86.44,-24.0
86.5,-40.0
86.56,-20.0
86.63,-33.0
86.69,-38.0
86.75,-34.0
86.81,-25.0
86.88,-17.0
86.94,-22.0
87.0,-51.0
87.07,-32.0
87.13,-36.0
87.19,-37.0
87.26,-34.0
87.32,-39.0
87.38,-38.0
87.44,-38.0
87.51,-20.0
87.57,-9.0
87.63,-22.0
87.7,-23.0
87.76,-17.0
87.82,-36.0
87.89,-37.0
87.95,-47.0
88.01,-42.0
88.07,-31.0
88.14,-36.0
88.2,-39.0
88.26,-39.0
88.33,-33.0
88.39,-31.0
88.45,-21.0
88.52,-22.0
88.58,-27.0
88.64,-53.0
88.7,-46.0
88.77,-50.0
88.83,-47.0
88.89,-57.0
88.96,-53.0
89.02,-49.0
89.08,-57.0
89.15,-58.0
89.21,-70.0
89.27,-60.0
89.33,-57.0
89.4,-41.0
89.46,-26.0
89.52,-47.0
89.59,-38.0
89.65,-58.0
89.71,-69.0
89.78,-44.0
89.84,-44.0
89.9,-63.0
89.96,-60.0
90.03,-49.0
90.09,-29.0
90.15,-28.0
90.22,-26.0
90.28,-31.0
90.34,-33.0
90.41,-38.0
90.47,-26.0
90.53,-29.0
90.59,-29.0
90.66,-19.0
90.72,-40.0
90.78,-30.0
90.85,-31.0
90.91,-32.0
90.97,-15.0
91.04,-27.0
91.1,-20.0
91.16,-17.0
91.22,-42.0
91.29,-51.0
91.35,-26.0
91.41,-16.0
91.48,-14.0
91.54,-18.0
91.6,-27.0
91.67,-11.0
91.73,-6.0
91.79,0.0
91.85,-33.0
91.92,2.0
91.98,2.0
92.04,11.0
92.11,9.0
92.17,8.0
92.23,3.0
92.3,-10.0
92.36,-15.0
92.42,1.0
92.48,19.0
92.55,-10.0
92.61,-4.0
92.67,12.0
92.74,6.0
92.8,10.0
92.86,7.0
92.93,-1.0
92.99,-12.0
93.05,-3.0
93.11,-14.0
93.18,-11.0
93.24,-8.0
93.3,-12.0
93.37,-8.0
93.43,-1.0
93.49,-3.0
93.56,-19.0
93.62,-22.0
93.68,-14.0
93.74,-14.0
93.81,-15.0
93.87,7.0
93.93,0.0
94.0,-12.0
94.06,-9.0
94.12,-28.0
94.19,-25.0
94.25,-17.0
94.31,-19.0
94.37,-20.0
94.44,-12.0
94.5,-35.0
94.56,-13.0
94.63,-6.0
94.69,-13.0
94.75,-17.0
94.82,-15.0
94.88,-11.0
94.94,-1.0
95.0,-16.0
95.07,-4.0
95.13,-26.0
95.19,2.0
95.26,7.0
95.32,2.0
95.38,5.0
95.45,25.0
95.51,7.0
95.57,20.0
95.63,8.0
95.7,7.0
95.76,13.0
95.82,4.0
95.89,0.0
95.95,-10.0
96.01,-3.0
96.08,10.0
96.14,21.0
96.2,3.0
96.26,3.0
96.33,6.0
96.39,27.0
96.45,22.0
96.52,6.0
96.58,5.0
96.64,19.0
96.71,24.0
96.77,10.0
96.83,15.0
96.89,15.0
96.96,24.0
97.02,28.0
97.08,18.0
97.15,9.0
97.21,20.0
97.27,19.0
97.34,11.0
97.4,10.0
97.46,3.0
97.52,-10.0
97.59,-7.0
97.65,11.0
97.71,-11.0
97.78,-5.0
97.84,-2.0
97.9,-13.0
97.97,-16.0
98.03,-38.0
98.09,-8.0
98.15,-3.0
98.22,-6.0
98.28,-11.0
98.34,-6.0
98.41,-8.0
98.47,-6.0
98.53,-9.0
98.6,1.0
98.66,10.0
98.72,19.0
98.78,6.0
98.85,-4.0
98.91,13.0
98.97,14.0
99.04,11.0
99.1,20.0
99.16,36.0
99.23,29.0
99.29,36.0
99.35,29.0
99.41,14.0
99.48,19.0
99.54,40.0
99.6,-7.0
99.67,-4.0
99.73,6.0
99.79,10.0
99.86,7.0
99.92,15.0
99.98,18.0
100.04,7.0
100.11,9.0
100.17,26.0
100.23,21.0
100.3,21.0
100.36,23.0
100.42,-5.0
100.49,19.0
100.55,14.0
100.61,10.0
100.67,30.0
100.74,30.0
100.8,21.0
100.86,31.0
100.93,15.0
100.99,29.0
101.05,10.0
101.12,24.0
101.18,18.0
101.24,19.0
101.3,34.0
101.37,24.0
101.43,0.0
101.49,16.0
101.56,21.0
101.62,34.0
101.68,43.0
101.75,33.0
101.81,24.0
101.87,23.0
101.93,29.0
102.0,26.0
102.06,26.0
102.12,27.0
102.19,48.0
102.25,37.0
102.31,31.0
102.38,61.0
102.44,40.0
102.5,33.0
102.56,42.0
102.63,56.0
102.69,49.0
102.75,52.0
102.82,65.0
102.88,50.0
102.94,66.0
103.01,89.0
103.07,66.0
103.13,59.0
103.19,54.0
103.26,58.0
103.32,67.0
103.38,62.0
103.45,44.0
103.51,62.0
103.57,57.0
103.64,50.0
103.7,52.0
103.76,57.0
103.82,60.0
103.89,63.0
103.95,57.0
104.01,34.0
104.08,52.0
104.14,53.0
104.2,49.0
104.27,40.0
104.33,31.0
104.39,32.0
104.45,40.0
104.52,46.0
104.58,46.0
104.64,37.0
104.71,26.0
104.77,20.0
104.83,22.0
104.9,33.0
104.96,22.0
105.02,42.0
105.08,36.0
105.15,22.0
105.21,14.0
105.27,26.0
105.34,12.0
105.4,9.0
105.46,8.0
105.53,22.0
105.59,16.0
105.65,13.0
105.71,21.0
105.78,8.0
105.84,-4.0
105.9,6.0
105.97,9.0
106.03,22.0
106.09,33.0
106.16,29.0
106.22,14.0
106.28,16.0
106.34,24.0
106.41,23.0
106.47,29.0
106.53,30.0
106.6,29.0
106.66,52.0
106.72,41.0
106.79,44.0
106.85,39.0
106.91,50.0
106.97,33.0
107.04,40.0
107.1,42.0
107.16,48.0
107.23,59.0
107.29,44.0
107.35,45.0
107.42,66.0
107.48,53.0
107.54,72.0
107.6,79.0
107.67,67.0
107.73,63.0
107.79,49.0
107.86,72.0
107.92,70.0
107.98,84.0
108.05,68.0
108.11,91.0
108.17,90.0
108.23,87.0
108.3,73.0
108.36,87.0
108.42,88.0
108.49,84.0
108.55,100.0
108.61,85.0
108.68,82.0
108.74,76.0
108.8,55.0
108.86,66.0
108.93,84.0
108.99,58.0
109.05,74.0
109.12,73.0
109.18,81.0
109.24,46.0
109.31,55.0
109.37,71.0
109.43,72.0
109.49,77.0
109.56,62.0
109.62,54.0
109.68,73.0
109.75,92.0
109.81,73.0
109.87,57.0
109.94,73.0
110.0,88.0
110.06,63.0
110.12,61.0
110.19,63.0
110.25,68.0
110.31,64.0
110.38,73.0
110.44,69.0
110.5,57.0
110.57,59.0
110.63,63.0
110.69,63.0
110.75,67.0
110.82,79.0
110.88,80.0
110.94,65.0
111.01,51.0
111.07,68.0
111.13,41.0
111.2,41.0
111.26,47.0
111.32,41.0
111.38,42.0
111.45,46.0
111.51,43.0
111.57,44.0
111.64,31.0
111.7,22.0
111.76,27.0
111.83,21.0
111.89,2.0
111.95,24.0
112.01,27.0
112.08,27.0
112.14,16.0
112.2,24.0
112.27,27.0
112.33,23.0
112.39,27.0
112.46,39.0
112.52,46.0
112.58,52.0
112.64,46.0
112.71,36.0
112.77,34.0
112.83,27.0
112.9,26.0
112.96,26.0
113.02,46.0
113.09,44.0
113.15,24.0
113.21,51.0
113.27,21.0
113.34,15.0
113.4,11.0
113.46,-6.0
113.53,13.0
113.59,13.0
113.65,11.0
113.72,40.0
113.78,24.0
113.84,33.0
113.9,28.0
113.97,17.0
114.03,23.0
114.09,9.0
114.16,-6.0
114.22,4.0
114.28,6.0
114.35,-23.0
114.41,-41.0
114.47,-11.0
114.53,4.0
114.6,-27.0
114.66,-41.0
114.72,-29.0
114.79,-22.0
114.85,-17.0
114.91,-28.0
114.98,-18.0
115.04,-4.0
115.1,-20.0
115.16,-24.0
115.23,-30.0
115.29,-2.0
115.35,-14.0
115.42,-14.0
115.48,16.0
115.54,-14.0
115.61,13.0
115.67,2.0
115.73,-15.0
115.79,2.0
115.86,-4.0
115.92,13.0
115.98,12.0
116.05,4.0
116.11,10.0
116.17,10.0
116.24,-1.0
116.3,21.0
116.36,19.0
116.42,5.0
116.49,7.0
116.55,6.0
116.61,1.0
116.68,1.0
116.74,0.0
116.8,15.0
116.87,24.0
116.93,16.0
116.99,9.0
117.05,18.0
117.12,19.0
117.18,14.0
117.24,21.0
117.31,6.0
117.37,27.0
117.43,20.0
117.5,4.0
117.56,31.0
117.62,32.0
117.68,65.0
117.75,65.0
117.81,54.0
117.87,37.0
117.94,52.0
118.0,47.0
118.06,61.0
118.13,65.0
118.19,73.0
118.25,87.0
118.31,74.0
118.38,83.0
118.44,79.0
118.5,59.0
118.57,89.0
118.63,74.0
118.69,93.0
118.76,91.0
118.82,83.0
118.88,82.0
118.94,78.0
119.01,96.0
119.07,97.0
119.13,96.0
119.2,78.0
119.26,80.0
119.32,79.0
119.39,78.0
119.45,57.0
119.51,60.0
119.57,77.0
119.64,76.0
119.7,76.0
119.76,47.0
119.83,44.0
119.89,53.0
119.95,47.0
120.02,38.0
120.08,37.0
120.14,27.0
120.2,47.0
120.27,73.0
120.33,40.0
120.39,27.0
120.46,52.0
120.52,39.0
120.58,53.0
120.65,57.0
120.71,43.0
120.77,42.0
120.83,14.0
120.9,29.0
120.96,31.0
121.02,43.0
121.09,51.0
121.15,41.0
121.21,48.0
121.28,51.0
121.34,36.0
121.4,68.0
121.46,47.0
121.53,49.0
121.59,52.0
121.65,54.0
121.72,40.0
121.78,65.0
121.84,74.0
121.91,65.0
121.97,49.0
122.03,35.0
122.09,73.0
122.16,47.0
122.22,42.0
122.28,52.0
122.35,35.0
122.41,36.0
122.47,50.0
122.54,45.0
122.6,25.0
122.66,25.0
122.72,32.0
122.79,54.0
122.85,29.0
122.91,40.0
122.98,62.0
123.04,56.0
123.1,47.0
123.17,50.0
123.23,40.0
123.29,39.0
123.35,39.0
123.42,33.0
123.48,36.0
123.54,46.0
123.61,58.0
123.67,41.0
123.73,43.0
123.8,38.0
123.86,69.0
123.92,56.0
123.98,46.0
124.05,73.0
124.11,54.0
124.17,65.0
124.24,36.0
124.3,48.0
124.36,63.0
124.43,59.0
124.49,66.0
124.55,54.0
124.61,71.0
124.68,69.0
124.74,91.0
124.8,98.0
124.87,84.0
124.93,91.0
124.99,87.0
125.06,80.0
125.12,69.0
125.18,77.0
125.24,100.0
125.31,84.0
125.37,88.0
125.43,98.0
125.5,87.0
125.56,72.0
125.62,87.0
125.69,76.0
125.75,88.0
125.81,108.0
125.87,76.0
125.94,74.0
126.0,84.0
126.06,93.0
126.13,97.0
126.19,95.0
126.25,119.0
126.32,108.0
126.38,108.0
126.44,114.0
126.5,117.0
126.57,120.0
126.63,123.0
126.69,110.0
126.76,97.0
126.82,96.0
126.88,95.0
126.95,96.0
127.01,110.0
127.07,86.0
127.13,86.0
127.2,113.0
127.26,74.0
127.32,91.0
127.39,106.0
127.45,90.0
127.51,96.0
127.58,84.0
127.64,99.0
127.7,108.0
127.76,102.0
127.83,99.0
127.89,105.0
127.95,103.0
128.02,98.0
128.08,89.0
128.14,74.0
128.21,87.0
128.27,80.0
128.33,70.0
128.39,66.0
128.46,87.0
128.52,77.0
128.58,65.0
128.65,99.0
128.71,86.0
128.77,81.0
128.84,75.0
128.9,83.0
128.96,90.0
129.02,80.0
129.09,83.0
129.15,115.0
129.21,100.0
129.28,95.0
129.34,95.0
129.4,101.0
129.47,95.0
129.53,85.0
129.59,71.0
129.65,79.0
129.72,84.0
129.78,80.0
129.84,80.0
129.91,80.0
129.97,52.0
130.03,68.0
130.1,48.0
130.16,62.0
130.22,55.0
130.28,42.0
130.35,44.0
130.41,36.0
130.47,43.0
130.54,37.0
130.6,28.0
130.66,42.0
130.73,30.0
130.79,55.0
130.85,61.0
130.91,61.0
130.98,47.0
131.04,51.0
131.1,61.0
131.17,47.0
131.23,52.0
131.29,58.0
131.36,43.0
131.42,72.0
131.48,75.0
131.54,61.0
131.61,63.0
131.67,61.0
131.73,91.0
131.8,75.0
131.86,71.0
131.92,60.0
131.99,57.0
132.05,47.0
132.11,66.0
132.17,69.0
132.24,71.0
132.3,63.0
132.36,76.0
132.43,87.0
132.49,95.0
132.55,82.0
132.62,80.0
132.68,107.0
132.74,99.0
132.8,109.0
132.87,110.0
132.93,121.0
132.99,118.0
133.06,104.0
133.12,93.0
133.18,76.0
133.25,86.0
133.31,82.0
133.37,77.0
133.43,66.0
133.5,77.0
133.56,72.0
133.62,99.0
133.69,85.0
133.75,86.0
133.81,94.0
133.88,111.0
133.94,99.0
134.0,99.0
134.06,88.0
134.13,93.0
134.19,91.0
134.25,113.0
134.32,117.0
134.38,126.0
134.44,109.0
134.51,117.0
134.57,99.0
134.63,104.0
134.69,113.0
134.76,104.0
134.82,90.0
134.88,97.0
134.95,105.0
135.01,77.0
135.07,89.0
135.14,116.0
135.2,112.0
135.26,104.0
135.32,90.0
135.39,114.0
135.45,112.0
135.51,123.0
135.58,118.0
135.64,110.0
135.7,106.0
135.77,108.0
135.83,121.0
135.89,108.0
135.95,112.0
136.02,102.0
136.08,116.0
136.14,122.0
136.21,121.0
136.27,121.0
136.33,134.0
136.4,114.0
136.46,105.0
136.52,107.0
136.58,125.0
136.65,108.0
136.71,102.0
136.77,88.0
136.84,98.0
136.9,105.0
136.96,119.0
137.03,103.0
137.09,101.0
137.15,114.0
137.21,97.0
137.28,95.0
137.34,86.0
137.4,89.0
137.47,75.0
137.53,89.0
137.59,80.0
137.66,74.0
137.72,90.0
137.78,87.0
137.84,109.0
137.91,78.0
137.97,77.0
138.03,82.0
138.1,71.0
138.16,76.0
138.22,60.0
138.29,70.0
138.35,76.0
138.41,73.0
138.47,53.0
138.54,65.0
138.6,47.0
138.66,7.0
138.73,13.0
138.79,6.0
138.85,28.0
138.92,24.0
138.98,28.0
139.04,26.0
139.1,12.0
139.17,27.0
139.23,-2.0
139.29,17.0
139.36,14.0
139.42,20.0
139.48,13.0
139.55,16.0
139.61,2.0
139.67,-2.0
139.73,21.0
139.8,6.0
139.86,25.0
139.92,13.0
139.99,10.0
140.05,15.0
140.11,10.0
140.18,35.0
140.24,16.0
140.3,-2.0
140.36,9.0
140.43,-1.0
140.49,18.0
140.55,19.0
140.62,20.0
140.68,3.0
140.74,9.0
140.81,22.0
140.87,26.0
140.93,15.0
140.99,11.0
141.06,32.0
141.12,17.0
141.18,11.0
141.25,6.0
141.31,9.0
141.37,0.0
141.44,1.0
141.5,-6.0
141.56,-3.0
141.62,-1.0
141.69,-4.0
141.75,-11.0
141.81,8.0
141.88,16.0
141.94,11.0
142.0,12.0
142.07,23.0
142.13,18.0
142.19,-10.0
142.25,6.0
142.32,8.0
142.38,0.0
142.44,19.0
142.51,18.0
142.57,29.0
142.63,25.0
142.7,25.0
142.76,38.0
142.82,11.0
142.88,29.0
142.95,35.0
143.01,0.0
143.07,2.0
143.14,15.0
143.2,16.0
143.26,11.0
143.33,-3.0
143.39,26.0
143.45,49.0
143.51,36.0
143.58,13.0
143.64,30.0
143.7,41.0
143.77,43.0
143.83,48.0
143.89,21.0
143.96,21.0
144.02,65.0
144.08,39.0
144.14,19.0
144.21,28.0
144.27,38.0
144.33,35.0
144.4,11.0
144.46,3.0
144.52,37.0
144.59,28.0
144.65,39.0
144.71,33.0
144.77,32.0
144.84,-2.0
144.9,3.0
144.96,16.0
145.03,21.0
145.09,14.0
145.15,16.0
145.22,17.0
145.28,-2.0
145.34,-21.0
145.4,1.0
145.47,0.0
145.53,1.0
145.59,12.0
145.66,2.0
145.72,-25.0
145.78,-3.0
145.85,-1.0
145.91,-7.0
145.97,-16.0
146.03,-21.0
146.1,-5.0
146.16,7.0
146.22,5.0
146.29,-15.0
146.35,-1.0
146.41,1.0
146.47,6.0
146.54,-20.0
146.6,-11.0
146.66,-9.0
146.73,-11.0
146.79,3.0
146.85,0.0
146.92,2.0
146.98,0.0
147.04,-5.0
147.1,10.0
147.17,1.0
147.23,-18.0
147.29,-22.0
147.36,-9.0
147.42,-18.0
147.48,-29.0
147.55,-31.0
147.61,-34.0
147.67,-20.0
147.73,-36.0
147.8,-27.0
147.86,-18.0
147.92,-17.0
147.99,-20.0
148.05,-47.0
148.11,-30.0
148.18,-29.0
148.24,-27.0
148.3,-22.0
148.36,-17.0
148.43,-22.0
148.49,-23.0
148.55,-14.0
148.62,10.0
148.68,2.0
148.74,-1.0
148.81,6.0
148.87,-9.0
148.93,0.0
148.99,-9.0
149.06,0.0
149.12,-21.0
149.18,2.0
149.25,-1.0
149.31,-8.0
149.37,-24.0
149.44,-2.0
149.5,8.0
149.56,-24.0
149.62,-3.0
149.69,7.0
149.75,18.0
149.81,23.0
149.88,33.0
149.94,7.0
150.0,-1.0
150.07,17.0
150.13,16.0
150.19,17.0
150.25,22.0
150.32,21.0
150.38,17.0
150.44,4.0
150.51,10.0
150.57,9.0
150.63,21.0
150.7,24.0
150.76,16.0
150.82,12.0
150.88,36.0
150.95,32.0
151.01,26.0
151.07,32.0
151.14,54.0
151.2,53.0
151.26,53.0
151.33,60.0
151.39,56.0
151.45,54.0
151.51,63.0
151.58,45.0
151.64,50.0
151.7,36.0
151.77,34.0
151.83,43.0
151.89,56.0
151.96,59.0
152.02,44.0
152.08,46.0
152.14,41.0
152.21,56.0
152.27,48.0
152.33,46.0
152.4,64.0
152.46,45.0
152.52,56.0
152.59,72.0
152.65,69.0
152.71,54.0
152.77,58.0
152.84,84.0
152.9,88.0
152.96,87.0
153.03,82.0
153.09,64.0
153.15,92.0
153.22,74.0
153.28,87.0
153.34,86.0
153.4,64.0
153.47,63.0
153.53,57.0
153.59,75.0
153.66,65.0
153.72,73.0
153.78,69.0
153.85,67.0
153.91,67.0
153.97,56.0
154.03,84.0
154.1,94.0
154.16,74.0
154.22,64.0
154.29,82.0
154.35,76.0
154.41,74.0
154.48,61.0
154.54,75.0
154.6,81.0
154.66,64.0
154.73,65.0
154.79,77.0
154.85,65.0
154.92,57.0
154.98,60.0
155.04,61.0
155.11,72.0
155.17,64.0
155.23,75.0
155.29,71.0
155.36,65.0
155.42,69.0
155.48,58.0
155.55,54.0
155.61,16.0
155.67,26.0
155.74,39.0
155.8,39.0
155.86,36.0
155.92,50.0
155.99,55.0
156.05,40.0
156.11,32.0
156.18,12.0
156.24,17.0
156.3,15.0
156.37,17.0
156.43,36.0
156.49,12.0
156.55,23.0
156.62,26.0
156.68,19.0
156.74,26.0
156.81,21.0
156.87,14.0
156.93,14.0
157.0,15.0
157.06,24.0
157.12,32.0
157.18,38.0
157.25,32.0
157.31,34.0
157.37,33.0
157.44,42.0
157.5,36.0
157.56,39.0
157.63,38.0
157.69,52.0
157.75,51.0
157.81,49.0
157.88,36.0
157.94,44.0
158.0,45.0
158.07,64.0
158.13,61.0
158.19,70.0
158.26,74.0
158.32,76.0
158.38,91.0
158.44,90.0
158.51,91.0
158.57,88.0
158.63,95.0
158.7,90.0
158.76,78.0
158.82,87.0
158.89,90.0
158.95,100.0
159.01,69.0
159.07,81.0
159.14,72.0
159.2,76.0
159.26,103.0
159.33,111.0
159.39,108.0
159.45,87.0
159.52,108.0
159.58,113.0
159.64,87.0
159.7,94.0
159.77,125.0
159.83,104.0
159.89,100.0
159.96,109.0
160.02,120.0
160.08,116.0
160.15,120.0
160.21,118.0
160.27,111.0
160.33,106.0
160.4,95.0
160.46,113.0
160.52,126.0
160.59,100.0
160.65,136.0
160.71,128.0
160.78,111.0
160.84,110.0
160.9,95.0
160.96,126.0
161.03,127.0
161.09,118.0
161.15,124.0
161.22,142.0
161.28,130.0
161.34,112.0
161.41,126.0
161.47,119.0
161.53,130.0
161.59,127.0
161.66,130.0
161.72,142.0
161.78,158.0
161.85,140.0
161.91,152.0
161.97,142.0
162.04,150.0
162.1,142.0
162.16,141.0
162.22,145.0
162.29,137.0
162.35,122.0
162.41,118.0
162.48,116.0
162.54,127.0
162.6,122.0
162.67,113.0
162.73,142.0
162.79,149.0
162.85,133.0
162.92,117.0
162.98,130.0
163.04,132.0
163.11,132.0
163.17,136.0
163.23,143.0
163.3,144.0
163.36,139.0
163.42,143.0
163.48,128.0
163.55,125.0
163.61,131.0
163.67,125.0
163.74,119.0
163.8,115.0
163.86,127.0
163.93,91.0
163.99,74.0
164.05,86.0
164.11,81.0
164.18,86.0
164.24,99.0
164.3,78.0
164.37,68.0
164.43,72.0
164.49,54.0
164.56,55.0
164.62,52.0
164.68,43.0
164.74,45.0
164.81,27.0
164.87,23.0
164.93,53.0
165.0,60.0
165.06,36.0
165.12,29.0
165.19,34.0
165.25,37.0
165.31,40.0
165.37,42.0
165.44,37.0
165.5,39.0
165.56,53.0
165.63,42.0
165.69,35.0
165.75,35.0
165.82,31.0
165.88,62.0
165.94,67.0
166.0,53.0
166.07,66.0
166.13,83.0
166.19,88.0
166.26,81.0
166.32,64.0
166.38,87.0
166.45,87.0
166.51,72.0
166.57,54.0
166.63,75.0
166.7,87.0
166.76,70.0
166.82,80.0
166.89,93.0
166.95,83.0
167.01,72.0
167.08,63.0
167.14,67.0
167.2,86.0
167.26,65.0
167.33,72.0
167.39,73.0
167.45,71.0
167.52,71.0
167.58,37.0
167.64,51.0
167.71,48.0
167.77,46.0
167.83,34.0
167.89,43.0
167.96,41.0
168.02,54.0
168.08,56.0
168.15,65.0
168.21,61.0
168.27,64.0
168.34,52.0
168.4,59.0
168.46,62.0
168.52,48.0
168.59,66.0
168.65,67.0
168.71,54.0
168.78,54.0
168.84,59.0
168.9,84.0
168.97,73.0
169.03,73.0
169.09,80.0
169.15,72.0
169.22,91.0
169.28,85.0
169.34,93.0
169.41,95.0
169.47,78.0
169.53,57.0
169.6,48.0
169.66,50.0
169.72,61.0
169.78,59.0
169.85,56.0
169.91,50.0
169.97,86.0
170.04,86.0
170.1,85.0
170.16,67.0
170.23,67.0
170.29,65.0
170.35,69.0
170.41,76.0
170.48,89.0
170.54,98.0
170.6,104.0
170.67,103.0
170.73,94.0
170.79,73.0
170.86,60.0
170.92,69.0
170.98,73.0
171.04,66.0
171.11,80.0
171.17,61.0
171.23,62.0
171.3,94.0
171.36,81.0
171.42,86.0
171.49,86.0
171.55,77.0
171.61,89.0
171.67,98.0
171.74,87.0
171.8,78.0
171.86,90.0
171.93,93.0
171.99,83.0
172.05,73.0
172.12,73.0
172.18,50.0
172.24,68.0
172.3,60.0
172.37,69.0
172.43,66.0
172.49,64.0
172.56,51.0
172.62,49.0
172.68,51.0
172.75,61.0
172.81,57.0
172.87,57.0
172.93,51.0
173.0,43.0
173.06,36.0
173.12,31.0
173.19,35.0
173.25,60.0
173.31,35.0
173.38,24.0
173.44,30.0
173.5,33.0
173.56,46.0
173.63,43.0
173.69,59.0
173.75,77.0
173.82,64.0
173.88,45.0
173.94,46.0
174.01,37.0
174.07,45.0
174.13,48.0
174.19,54.0
174.26,67.0
174.32,44.0
174.38,42.0
174.45,46.0
174.51,65.0
174.57,64.0
174.64,76.0
174.7,58.0
174.76,72.0
174.82,76.0
174.89,81.0
174.95,91.0
175.01,75.0
175.08,83.0
175.14,68.0
175.2,68.0
175.27,68.0
175.33,52.0
175.39,58.0
175.45,68.0
175.52,54.0
175.58,54.0
175.64,54.0
175.71,101.0
175.77,79.0
175.83,102.0
175.9,92.0
175.96,95.0
176.02,105.0
176.08,86.0
176.15,114.0
176.21,114.0
176.27,93.0
176.34,100.0
176.4,120.0
176.46,123.0
176.53,117.0
176.59,100.0
176.65,104.0
176.71,119.0
176.78,117.0
176.84,131.0
176.9,128.0
176.97,134.0
177.03,135.0
177.09,154.0
177.16,147.0
177.22,138.0
177.28,149.0
177.34,149.0
177.41,147.0
177.47,127.0
177.53,134.0
177.6,117.0
177.66,145.0
177.72,142.0
177.79,136.0
177.85,131.0
177.91,151.0
177.97,133.0
178.04,158.0
178.1,149.0
178.16,142.0
178.23,166.0
178.29,153.0
178.35,177.0
178.42,168.0
178.48,173.0
178.54,161.0
178.6,149.0
178.67,155.0
178.73,159.0
178.79,145.0
178.86,158.0
178.92,156.0
178.98,148.0
179.05,157.0
179.11,164.0
179.17,168.0
179.23,146.0
179.3,145.0
179.36,147.0
179.42,169.0
179.49,160.0
179.55,155.0
179.61,147.0
179.68,157.0
179.74,147.0
179.8,142.0
179.86,122.0
179.93,141.0
179.99,165.0
180.05,174.0
180.12,172.0
180.18,172.0
180.24,167.0
180.31,143.0
180.37,156.0
180.43,161.0
180.49,153.0
180.56,138.0
180.62,140.0
180.68,109.0
180.75,110.0
180.81,128.0
180.87,134.0
180.94,111.0
181.0,116.0
181.06,101.0
181.12,98.0
181.19,100.0
181.25,93.0
181.31,84.0
181.38,89.0
181.44,108.0
181.5,104.0
181.57,89.0
181.63,88.0
181.69,127.0
181.75,114.0
181.82,108.0
181.88,101.0
181.94,113.0
182.01,96.0
182.07,108.0
182.13,113.0
182.2,85.0
182.26,102.0
182.32,99.0
182.38,84.0
182.45,112.0
182.51,102.0
182.57,83.0
182.64,97.0
182.7,117.0
182.76,101.0
182.83,99.0
182.89,102.0
182.95,99.0
183.01,98.0
183.08,105.0
183.14,101.0
183.2,83.0
183.27,79.0
183.33,116.0
183.39,114.0
183.46,94.0
183.52,106.0
183.58,89.0
183.64,94.0
183.71,90.0
183.77,99.0
183.83,78.0
183.9,84.0
183.96,90.0
184.02,99.0
184.09,79.0
184.15,85.0
184.21,78.0
184.27,84.0
184.34,96.0
184.4,80.0
184.46,74.0
184.53,89.0
184.59,99.0
184.65,84.0
184.72,92.0
184.78,97.0
184.84,114.0
184.9,118.0
184.97,109.0
185.03,109.0
185.09,117.0
185.16,127.0
185.22,135.0
185.28,129.0
185.35,115.0
185.41,116.0
185.47,121.0
185.53,132.0
185.6,137.0
185.66,138.0
185.72,116.0
185.79,128.0
185.85,144.0
185.91,142.0
185.98,140.0
186.04,148.0
186.1,117.0
186.16,122.0
186.23,127.0
186.29,136.0
186.35,135.0
186.42,135.0
186.48,142.0
186.54,131.0
186.61,120.0
186.67,120.0
186.73,137.0
186.79,116.0
186.86,114.0
186.92,111.0
186.98,116.0
187.05,122.0
187.11,112.0
187.17,125.0
187.24,105.0
187.3,96.0
187.36,99.0
187.42,78.0
187.49,104.0
187.55,87.0
187.61,83.0
187.68,86.0
187.74,86.0
187.8,105.0
187.87,88.0
187.93,83.0
187.99,75.0
188.05,86.0
188.12,104.0
188.18,82.0
188.24,81.0
188.31,91.0
188.37,91.0
188.43,86.0
188.5,100.0
188.56,113.0
188.62,75.0
188.68,68.0
188.75,109.0
188.81,76.0
188.87,78.0
188.94,81.0
189.0,80.0
189.06,70.0
189.13,62.0
189.19,70.0
189.25,54.0
189.31,54.0
189.38,45.0
189.44,50.0
189.5,61.0
189.57,38.0
189.63,42.0
189.69,36.0
189.76,39.0
189.82,41.0
189.88,25.0
189.94,8.0
190.01,17.0
190.07,18.0
190.13,18.0
190.2,5.0
190.26,15.0
190.32,6.0
190.39,-4.0
190.45,4.0
190.51,17.0
190.57,10.0
190.64,40.0
190.7,17.0
190.76,13.0
190.83,1.0
190.89,5.0
190.95,15.0
191.02,13.0
191.08,2.0
191.14,-4.0
191.2,9.0
191.27,-15.0
191.33,-13.0
191.39,14.0
191.46,14.0
191.52,13.0
191.58,27.0
191.65,15.0
191.71,-1.0
191.77,21.0
191.83,26.0
191.9,16.0
191.96,14.0
192.02,-6.0
192.09,19.0
192.15,19.0
192.21,24.0
192.28,28.0
192.34,16.0
192.4,31.0
192.46,22.0
192.53,27.0
192.59,22.0
192.65,28.0
192.72,10.0
192.78,-1.0
192.84,2.0
192.91,19.0
192.97,11.0
193.03,-5.0
193.09,15.0
193.16,-1.0
193.22,15.0
193.28,14.0
193.35,6.0
193.41,19.0
193.47,25.0
193.54,12.0
193.6,14.0
193.66,15.0
193.72,42.0
193.79,4.0
193.85,3.0
193.91,12.0
193.98,6.0
194.04,4.0
194.1,11.0
194.17,19.0
194.23,37.0
194.29,44.0
194.35,30.0
194.42,45.0
194.48,40.0
194.54,20.0
194.61,25.0
194.67,31.0
194.73,42.0
194.8,60.0
194.86,48.0
194.92,51.0
194.98,49.0
195.05,44.0
195.11,48.0
195.17,74.0
195.24,62.0
195.3,72.0
195.36,70.0
195.43,73.0
195.49,61.0
195.55,73.0
195.61,78.0
195.68,61.0
195.74,65.0
195.8,70.0
195.87,76.0
195.93,75.0
195.99,84.0
196.06,78.0
196.12,60.0
196.18,44.0
196.24,24.0
196.31,50.0
196.37,56.0
196.43,56.0
196.5,57.0
196.56,47.0
196.62,44.0
196.69,36.0
196.75,43.0
196.81,23.0
196.87,19.0
196.94,12.0
197.0,-8.0
197.06,11.0
197.13,36.0
197.19,7.0
197.25,17.0
197.32,0.0
197.38,1.0
197.44,25.0
197.5,13.0
197.57,-5.0
197.63,-1.0
197.69,-16.0
197.76,-24.0
197.82,-39.0
197.88,-9.0
197.95,-28.0
198.01,-55.0
198.07,-46.0
198.13,-41.0
198.2,-42.0
198.26,-38.0
198.32,-34.0
198.39,-39.0
198.45,-43.0
198.51,-26.0
198.58,-33.0
198.64,-36.0
198.7,-35.0
198.76,-31.0
198.83,-44.0
198.89,-30.0
198.95,-19.0
199.02,-21.0
199.08,-18.0
199.14,-10.0
199.21,14.0
199.27,30.0
199.33,29.0
199.39,30.0
199.46,8.0
199.52,19.0
199.58,18.0
199.65,19.0
199.71,29.0
199.77,19.0
199.84,21.0
199.9,22.0
199.96,31.0
200.02,39.0
200.09,19.0
200.15,15.0
200.21,33.0
200.28,30.0
200.34,14.0
200.4,29.0
200.47,40.0
200.53,31.0
200.59,30.0
200.65,22.0
200.72,37.0
200.78,29.0
200.84,18.0
200.91,16.0
200.97,23.0
201.03,16.0
201.1,10.0
201.16,11.0
201.22,2.0
201.28,15.0
201.35,11.0
201.41,-1.0
201.47,23.0
201.54,12.0
201.6,26.0
201.66,31.0
201.73,54.0
201.79,41.0
201.85,29.0
201.91,30.0
201.98,60.0
202.04,66.0
202.1,50.0
202.17,48.0
202.23,69.0
202.29,80.0
202.36,72.0
202.42,73.0
202.48,57.0
202.54,79.0
202.61,63.0
202.67,73.0
202.73,70.0
202.8,52.0
202.86,56.0
202.92,76.0
202.99,61.0
203.05,64.0
203.11,80.0
203.17,66.0
203.24,70.0
203.3,81.0
203.36,67.0
203.43,81.0
203.49,77.0
203.55,77.0
203.62,62.0
203.68,60.0
203.74,68.0
203.8,83.0
203.87,98.0
203.93,77.0
203.99,77.0
204.06,88.0
204.12,72.0
204.18,69.0
204.25,72.0
204.31,69.0
204.37,69.0
204.43,59.0
204.5,50.0
204.56,40.0
204.62,44.0
204.69,52.0
204.75,31.0
204.81,38.0
204.88,54.0
204.94,25.0
205.0,37.0
205.06,42.0
205.13,47.0
205.19,56.0
205.25,64.0
205.32,35.0
205.38,36.0
205.44,42.0
205.51,33.0
205.57,65.0
205.63,44.0
205.69,57.0
205.76,56.0
205.82,25.0
205.88,18.0
205.95,32.0
206.01,17.0
206.07,33.0
206.14,39.0
206.2,63.0
206.26,42.0
206.32,32.0
206.39,66.0
206.45,37.0
206.51,37.0
206.58,37.0
206.64,33.0
206.7,44.0
206.77,37.0
206.83,31.0
206.89,40.0
206.95,38.0
207.02,40.0
207.08,49.0
207.14,29.0
207.21,9.0
207.27,25.0
207.33,19.0
207.4,14.0
207.46,5.0
207.52,8.0
207.58,47.0
207.65,24.0
207.71,21.0
207.77,43.0
207.84,33.0
207.9,23.0
207.96,37.0
208.03,33.0
208.09,27.0
208.15,52.0
208.21,34.0
208.28,29.0
208.34,44.0
208.4,52.0
208.47,39.0
208.53,49.0
208.59,68.0
208.66,66.0
208.72,54.0
208.78,52.0
208.84,64.0
208.91,71.0
208.97,82.0
209.03,97.0
209.1,90.0
209.16,97.0
209.22,96.0
209.29,71.0
209.35,77.0
209.41,79.0
209.47,77.0
209.54,80.0
209.6,85.0
209.66,100.0
209.73,97.0
209.79,88.0
209.85,87.0
209.92,87.0
209.98,114.0
210.04,86.0
210.1,95.0
210.17,91.0
210.23,77.0
210.29,99.0
210.36,104.0
210.42,87.0
210.48,103.0
210.55,112.0
210.61,92.0
210.67,109.0
210.73,104.0
210.8,99.0
210.86,95.0
210.92,103.0
210.99,99.0
211.05,100.0
211.11,93.0
211.18,85.0
211.24,113.0
211.3,117.0
211.36,124.0
211.43,102.0
211.49,126.0
211.55,121.0
211.62,112.0
211.68,111.0
211.74,113.0
211.81,99.0
211.87,88.0
211.93,106.0
211.99,103.0
212.06,92.0
212.12,98.0
212.18,109.0
212.25,125.0
212.31,121.0
212.37,120.0
212.44,95.0
212.5,96.0
212.56,114.0
212.62,123.0
212.69,95.0
212.75,113.0
212.81,104.0
212.88,88.0
212.94,100.0
213.0,101.0
213.07,115.0
213.13,98.0
213.19,93.0
213.25,105.0
213.32,104.0
213.38,110.0
213.44,100.0
213.51,114.0
213.57,101.0
213.63,104.0
213.7,123.0
213.76,109.0
213.82,97.0
213.88,110.0
213.95,136.0
214.01,132.0
214.07,113.0
214.14,123.0
214.2,112.0
214.26,137.0
214.33,118.0
214.39,127.0
214.45,106.0
214.51,113.0
214.58,100.0
214.64,98.0
214.7,105.0
214.77,112.0
214.83,101.0
214.89,93.0
214.96,106.0
215.02,99.0
215.08,107.0
215.14,103.0
215.21,109.0
215.27,88.0
215.33,96.0
215.4,77.0
215.46,70.0
215.52,88.0
215.59,81.0
215.65,77.0
215.71,58.0
215.77,59.0
215.84,74.0
215.9,88.0
215.96,73.0
216.03,65.0
216.09,56.0
216.15,47.0
216.22,75.0
216.28,59.0
216.34,62.0
216.4,70.0
216.47,69.0
216.53,71.0
216.59,82.0
216.66,73.0
216.72,89.0
216.78,77.0
216.85,90.0
216.91,91.0
216.97,74.0
217.03,93.0
217.1,99.0
217.16,81.0
217.22,65.0
217.29,65.0
217.35,65.0
217.41,68.0
217.48,65.0
217.54,70.0
217.6,69.0
217.66,57.0
217.73,68.0
217.79,82.0
217.85,58.0
217.92,55.0
217.98,71.0
218.04,61.0
218.11,58.0
218.17,66.0
218.23,84.0
218.29,85.0
218.36,92.0
218.42,91.0
218.48,87.0
218.55,96.0
218.61,82.0
218.67,96.0
218.74,104.0
218.8,88.0
218.86,67.0
218.92,83.0
218.99,100.0
219.05,80.0
219.11,72.0
219.18,88.0
219.24,89.0
219.3,123.0
219.37,90.0
219.43,87.0
219.49,80.0
219.55,110.0
219.62,112.0
219.68,106.0
219.74,103.0
219.81,88.0
219.87,96.0
219.93,114.0
220.0,119.0
220.06,109.0
220.12,107.0
220.18,104.0
220.25,107.0
220.31,79.0
220.37,84.0
220.44,110.0
220.5,79.0
220.56,99.0
220.63,93.0
220.69,124.0
220.75,109.0
220.81,123.0
220.88,139.0
220.94,125.0
221.0,145.0
221.07,139.0
221.13,137.0
221.19,135.0
221.26,125.0
221.32,131.0
221.38,127.0
221.44,118.0
221.51,133.0
221.57,130.0
221.63,127.0
221.7,132.0
221.76,121.0
221.82,128.0
221.89,123.0
221.95,112.0
222.01,109.0
222.07,100.0
222.14,82.0
222.2,88.0
222.26,91.0
222.33,110.0
222.39,85.0
222.45,81.0
222.52,71.0
222.58,69.0
222.64,56.0
222.7,67.0
222.77,72.0
222.83,62.0
222.89,80.0
222.96,52.0
223.02,70.0
223.08,57.0
223.15,66.0
223.21,72.0
223.27,64.0
223.33,66.0
223.4,55.0
223.46,37.0
223.52,33.0
223.59,45.0
223.65,24.0
223.71,20.0
223.78,25.0
223.84,18.0
223.9,24.0
223.96,32.0
224.03,42.0
224.09,55.0
224.15,63.0
224.22,52.0
224.28,44.0
224.34,33.0
224.41,36.0
224.47,35.0
224.53,57.0
224.59,66.0
224.66,70.0
224.72,66.0
224.78,63.0
224.85,70.0
224.91,62.0
224.97,55.0
225.04,65.0
225.1,71.0
225.16,72.0
225.22,80.0
225.29,78.0
225.35,88.0
225.41,90.0
225.48,80.0
225.54,93.0
225.6,110.0
225.67,105.0
225.73,95.0
225.79,103.0
225.85,99.0
225.92,112.0
225.98,90.0
226.04,72.0
226.11,74.0
226.17,89.0
226.23,88.0
226.3,73.0
226.36,99.0
226.42,92.0
226.48,106.0
226.55,120.0
226.61,133.0
226.67,128.0
226.74,124.0
226.8,117.0
226.86,131.0
226.93,123.0
226.99,110.0
227.05,113.0
227.11,126.0
227.18,116.0
227.24,112.0
227.3,102.0
227.37,118.0
227.43,116.0
227.49,123.0
227.56,119.0
227.62,104.0
227.68,139.0
227.74,120.0
227.81,129.0
227.87,139.0
227.93,125.0
228.0,137.0
228.06,140.0
228.12,153.0
228.19,159.0
228.25,167.0
228.31,163.0
228.37,151.0
228.44,165.0
228.5,175.0
228.56,177.0
228.63,172.0
228.69,187.0
228.75,182.0
228.82,196.0
228.88,174.0
228.94,168.0
229.0,161.0
229.07,158.0
229.13,175.0
229.19,161.0
229.26,180.0
229.32,170.0
229.38,163.0
229.45,167.0
229.51,158.0
229.57,156.0
229.63,142.0
229.7,181.0
229.76,154.0
229.82,144.0
229.89,172.0
229.95,164.0
230.01,165.0
230.08,162.0
230.14,142.0
230.2,141.0
230.26,132.0
230.33,132.0
230.39,119.0
230.45,140.0
230.52,131.0
230.58,129.0
230.64,155.0
230.71,143.0
230.77,129.0
230.83,135.0
230.89,137.0
230.96,127.0
231.02,127.0
231.08,135.0
231.15,120.0
231.21,98.0
231.27,117.0
231.34,99.0
231.4,101.0
231.46,101.0
231.52,116.0
231.59,100.0
231.65,112.0
231.71,95.0
231.78,93.0
231.84,101.0
231.9,113.0
231.97,102.0
232.03,66.0
232.09,73.0
232.15,87.0
232.22,81.0
232.28,70.0
232.34,71.0
232.41,79.0
232.47,91.0
232.53,68.0
232.6,74.0
232.66,69.0
232.72,77.0
232.78,81.0
232.85,78.0
232.91,95.0
232.97,78.0
233.04,95.0
233.1,102.0
233.16,102.0
233.23,110.0
233.29,113.0
233.35,110.0
233.41,109.0
233.48,124.0
233.54,95.0
233.6,99.0
233.67,77.0
233.73,81.0
233.79,85.0
233.86,87.0
233.92,85.0
233.98,79.0
234.04,69.0
234.11,66.0
234.17,69.0
234.23,56.0
234.3,73.0
234.36,76.0
234.42,99.0
234.49,77.0
234.55,103.0
234.61,89.0
234.67,93.0
234.74,97.0
234.8,85.0
234.86,89.0
234.93,106.0
234.99,124.0
235.05,103.0
235.12,105.0
235.18,130.0
235.24,129.0
235.3,140.0
235.37,139.0
235.43,134.0
235.49,123.0
235.56,119.0
235.62,125.0
235.68,122.0
235.75,122.0
235.81,127.0
235.87,124.0
235.93,108.0
236.0,105.0
236.06,125.0
236.12,137.0
236.19,139.0
236.25,134.0
236.31,146.0
236.38,119.0
236.44,122.0
236.5,116.0
236.56,103.0
236.63,115.0
236.69,113.0
236.75,142.0
236.82,121.0
236.88,133.0
236.94,119.0
237.01,112.0
237.07,124.0
237.13,84.0
237.19,104.0
237.26,106.0
237.32,100.0
237.38,110.0
237.45,91.0
237.51,92.0
237.57,90.0
237.64,85.0
237.7,101.0
237.76,87.0
237.82,92.0
237.89,95.0
237.95,84.0
238.01,75.0
238.08,56.0
238.14,63.0
238.2,63.0
238.27,60.0
238.33,76.0
238.39,62.0
238.45,67.0
238.52,71.0
238.58,70.0
238.64,70.0
238.71,67.0
238.77,48.0
238.83,49.0
238.9,44.0
238.96,39.0
239.02,52.0
239.08,41.0
239.15,26.0
239.21,37.0
239.27,45.0
239.34,48.0
239.4,53.0
239.46,55.0
239.53,45.0
239.59,60.0
239.65,35.0
239.71,52.0
239.78,40.0
239.84,21.0
239.9,24.0
239.97,32.0
240.03,33.0
240.09,38.0
240.16,38.0
240.22,40.0
240.28,38.0
240.34,54.0
240.41,49.0
240.47,36.0
240.53,52.0
240.6,59.0
240.66,52.0
240.72,51.0
240.79,52.0
240.85,57.0
240.91,50.0
240.97,69.0
241.04,65.0
241.1,63.0
241.16,68.0
241.23,57.0
241.29,48.0
241.35,44.0
241.42,60.0
241.48,68.0
241.54,57.0
241.6,58.0
241.67,52.0
241.73,39.0
241.79,54.0
241.86,65.0
241.92,43.0
241.98,51.0
242.05,33.0
242.11,40.0
242.17,46.0
242.23,29.0
242.3,45.0
242.36,35.0
242.42,53.0
242.49,44.0
242.55,33.0
242.61,31.0
242.68,42.0
242.74,59.0
242.8,67.0
242.86,59.0
242.93,83.0
242.99,69.0
243.05,62.0
243.12,64.0
243.18,70.0
243.24,77.0
243.31,46.0
243.37,66.0
243.43,71.0
243.49,68.0
243.56,62.0
243.62,74.0
243.68,65.0
243.75,62.0
243.81,74.0
243.87,66.0
243.94,54.0
244.0,51.0
244.06,55.0
244.12,68.0
244.19,86.0
244.25,97.0
244.31,92.0
244.38,89.0
244.44,86.0
244.5,95.0
244.57,70.0
244.63,78.0
244.69,89.0
244.75,93.0
244.82,106.0
244.88,90.0
244.94,100.0
245.01,81.0
245.07,78.0
245.13,76.0
245.2,94.0
245.26,91.0
245.32,93.0
245.38,95.0
245.45,99.0
245.51,94.0
245.57,93.0
245.64,106.0
245.7,87.0
245.76,77.0
245.83,73.0
245.89,66.0
245.95,77.0
246.01,70.0
246.08,63.0
246.14,67.0
246.2,79.0
246.27,66.0
246.33,85.0
246.39,101.0
246.46,100.0
246.52,88.0
246.58,99.0
246.64,104.0
246.71,106.0
246.77,101.0
246.83,116.0
246.9,98.0
246.96,88.0
247.02,110.0
247.09,93.0
247.15,92.0
247.21,92.0
247.27,95.0
247.34,99.0
247.4,76.0
247.46,82.0
247.53,79.0
247.59,78.0
247.65,83.0
247.72,80.0
247.78,84.0
247.84,76.0
247.9,76.0
247.97,75.0
248.03,41.0
248.09,57.0
248.16,52.0
248.22,52.0
248.28,54.0
248.35,38.0
248.41,54.0
248.47,40.0
248.53,15.0
248.6,12.0
248.66,7.0
248.72,-3.0
248.79,1.0
248.85,-4.0
248.91,2.0
248.98,16.0
249.04,-6.0
249.1,2.0
249.16,10.0
249.23,3.0
249.29,8.0
249.35,2.0
249.42,-14.0
249.48,7.0
249.54,34.0
249.61,32.0
249.67,9.0
249.73,16.0
249.79,8.0
249.86,27.0
249.92,16.0
249.98,19.0
250.05,19.0
250.11,12.0
250.17,12.0
250.24,23.0
250.3,34.0
250.36,38.0
250.42,53.0
250.49,34.0
250.55,26.0
250.61,14.0
250.68,8.0
250.74,5.0
250.8,24.0
250.87,28.0
250.93,45.0
250.99,37.0
251.05,40.0
251.12,38.0
251.18,46.0
251.24,50.0
251.31,49.0
251.37,38.0
251.43,35.0
251.5,76.0
251.56,47.0
251.62,49.0
251.68,67.0
251.75,58.0
251.81,48.0
251.87,45.0
251.94,36.0
252.0,55.0
252.06,61.0
252.13,53.0
252.19,40.0
252.25,63.0
252.31,64.0
252.38,39.0
252.44,39.0
252.5,45.0
252.57,53.0
252.63,41.0
252.69,40.0
252.76,50.0
252.82,55.0
252.88,41.0
252.94,49.0
253.01,52.0
253.07,58.0
253.13,64.0
253.2,62.0
253.26,59.0
253.32,73.0
253.39,78.0
253.45,83.0
253.51,60.0
253.57,60.0
253.64,63.0
253.7,68.0
253.76,50.0
253.83,53.0
253.89,70.0
253.95,73.0
254.02,78.0
254.08,59.0
254.14,50.0
254.2,71.0
254.27,51.0
254.33,51.0
254.39,52.0
254.46,45.0
254.52,56.0
254.58,41.0
254.65,54.0
254.71,67.0
254.77,61.0
254.83,52.0
254.9,54.0
254.96,49.0
255.02,45.0
255.09,42.0
255.15,31.0
255.21,37.0
255.28,52.0
255.34,60.0
255.4,74.0
255.46,67.0
255.53,54.0
255.59,53.0
255.65,59.0
255.72,65.0
255.78,48.0
255.84,50.0
255.91,34.0
255.97,34.0
256.03,30.0
256.09,33.0
256.16,41.0
256.22,48.0
256.28,50.0
256.35,50.0
256.41,38.0
256.47,63.0
256.54,42.0
256.6,36.0
256.66,48.0
256.72,44.0
256.79,42.0
256.85,18.0
256.91,11.0
256.98,18.0
257.04,31.0
257.1,20.0
257.17,28.0
257.23,16.0
257.29,19.0
257.35,26.0
257.42,31.0
257.48,35.0
257.54,19.0
257.61,33.0
257.67,11.0
257.73,28.0
257.8,18.0
257.86,3.0
257.92,20.0
257.98,21.0
258.05,48.0
258.11,43.0
258.17,26.0
258.24,47.0
258.3,53.0
258.36,56.0
258.43,55.0
258.49,57.0
258.55,56.0
258.61,58.0
258.68,61.0
258.74,60.0
258.8,36.0
258.87,52.0
258.93,49.0
258.99,67.0
259.06,46.0
259.12,32.0
259.18,38.0
259.24,45.0
259.31,23.0
259.37,30.0
259.43,49.0
259.5,33.0
259.56,38.0
259.62,25.0
259.69,32.0
259.75,12.0
259.81,26.0
259.87,29.0
259.94,28.0
260.0,38.0
260.06,14.0
260.13,29.0
260.19,14.0
260.25,25.0
260.32,23.0
260.38,18.0
260.44,15.0
260.5,16.0
260.57,34.0
260.63,34.0
260.69,18.0
260.76,18.0
260.82,40.0
260.88,37.0
260.95,37.0
261.01,60.0
261.07,47.0
261.13,44.0
261.2,30.0
261.26,56.0
261.32,53.0
261.39,30.0
261.45,45.0
261.51,62.0
261.58,56.0
261.64,39.0
261.7,67.0
261.76,74.0
261.83,67.0
261.89,73.0
261.95,83.0
262.02,58.0
262.08,67.0
262.14,72.0
262.21,80.0
262.27,63.0
262.33,60.0
262.39,69.0
262.46,64.0
262.52,74.0
262.58,56.0
262.65,67.0
262.71,66.0
262.77,58.0
262.84,54.0
262.9,61.0
262.96,84.0
263.02,66.0
263.09,67.0
263.15,71.0
263.21,64.0
263.28,83.0
263.34,86.0
263.4,91.0
263.47,74.0
263.53,92.0
263.59,64.0
263.65,61.0
263.72,77.0
263.78,79.0
263.84,78.0
263.91,88.0
263.97,93.0
264.03,92.0
264.1,99.0
264.16,88.0
264.22,107.0
264.28,92.0
264.35,81.0
264.41,70.0
264.47,72.0
264.54,81.0
264.6,70.0
264.66,68.0
264.73,57.0
264.79,67.0
264.85,71.0
264.91,55.0
264.98,56.0
265.04,37.0
265.1,42.0
265.17,40.0
265.23,35.0
265.29,31.0
265.36,37.0
265.42,54.0
265.48,56.0
265.54,45.0
265.61,52.0
265.67,56.0
265.73,61.0
265.8,44.0
265.86,62.0
265.92,63.0
265.99,63.0
266.05,35.0
266.11,27.0
266.17,29.0
266.24,36.0
266.3,40.0
266.36,28.0
266.43,37.0
266.49,20.0
266.55,37.0
266.62,48.0
266.68,58.0
266.74,42.0
266.8,52.0
266.87,75.0
266.93,62.0
266.99,47.0
267.06,55.0
267.12,52.0
267.18,67.0
267.25,83.0
267.31,78.0
267.37,75.0
267.43,81.0
267.5,65.0
267.56,67.0
267.62,60.0
267.69,81.0
267.75,93.0
267.81,84.0
267.88,67.0
267.94,76.0
268.0,76.0
268.06,81.0
268.13,81.0
268.19,78.0
268.25,71.0
268.32,71.0
268.38,74.0
268.44,70.0
268.51,83.0
268.57,90.0
268.63,118.0
268.69,100.0
268.76,78.0
268.82,104.0
268.88,105.0
268.95,107.0
269.01,99.0
269.07,100.0
269.14,106.0
269.2,90.0
269.26,82.0
269.32,103.0
269.39,102.0
269.45,88.0
269.51,89.0
269.58,93.0
269.64,102.0
269.7,119.0
269.77,115.0
269.83,121.0
269.89,100.0
269.95,110.0
270.02,94.0
270.08,113.0
270.14,119.0
270.21,125.0
270.27,127.0
270.33,95.0
270.4,111.0
270.46,95.0
270.52,108.0
270.58,114.0
270.65,121.0
270.71,125.0
270.77,116.0
270.84,123.0
270.9,146.0
270.96,138.0
271.03,152.0
271.09,143.0
271.15,143.0
271.21,141.0
271.28,132.0
271.34,139.0
271.4,129.0
271.47,134.0
271.53,138.0
271.59,161.0
271.66,140.0
271.72,154.0
271.78,130.0
271.84,110.0
271.91,147.0
271.97,156.0
272.03,136.0
272.1,137.0
272.16,103.0
272.22,102.0
272.29,129.0
272.35,130.0
272.41,122.0
272.47,102.0
272.54,102.0
272.6,122.0
272.66,104.0
272.73,135.0
272.79,113.0
272.85,102.0
272.92,114.0
272.98,118.0
273.04,114.0
273.1,118.0
273.17,106.0
273.23,103.0
273.29,99.0
273.36,106.0
273.42,107.0
273.48,100.0
273.55,91.0
273.61,106.0
273.67,99.0
273.73,82.0
273.8,79.0
273.86,77.0
273.92,75.0
273.99,58.0
274.05,89.0
274.11,89.0
274.18,85.0
274.24,74.0
274.3,81.0
274.36,90.0
274.43,99.0
274.49,104.0
274.55,95.0
274.62,93.0
274.68,84.0
274.74,76.0
274.81,96.0
274.87,111.0
274.93,124.0
274.99,88.0
275.06,81.0
275.12,70.0
275.18,82.0
275.25,63.0
275.31,70.0
275.37,71.0
275.44,64.0
275.5,83.0
275.56,89.0
275.62,91.0
275.69,91.0
275.75,89.0
275.81,84.0
275.88,78.0
275.94,94.0
276.0,82.0
276.07,92.0
276.13,85.0
276.19,80.0
276.25,75.0
276.32,74.0
276.38,78.0
276.44,71.0
276.51,92.0
276.57,87.0
276.63,81.0
276.7,90.0
276.76,88.0
276.82,80.0
276.88,88.0
276.95,109.0
277.01,104.0
277.07,102.0
277.14,104.0
277.2,110.0
277.26,98.0
277.33,87.0
277.39,80.0
277.45,107.0
277.51,103.0
277.58,102.0
277.64,103.0
277.7,111.0
277.77,141.0
277.83,110.0
277.89,100.0
277.96,105.0
278.02,107.0
278.08,92.0
278.14,89.0
278.21,93.0
278.27,91.0
278.33,89.0
278.4,77.0
278.46,85.0
278.52,89.0
278.59,97.0
278.65,99.0
278.71,75.0
278.77,95.0
278.84,91.0
278.9,104.0
278.96,100.0
279.03,100.0
279.09,81.0
279.15,85.0
279.22,78.0
279.28,80.0
279.34,100.0
279.4,115.0
279.47,93.0
279.53,96.0
279.59,74.0
279.66,80.0
279.72,86.0
279.78,87.0
279.85,82.0
279.91,81.0
279.97,89.0
280.03,85.0
280.1,92.0
280.16,83.0
280.22,100.0
280.29,97.0
280.35,110.0
280.41,107.0
280.48,88.0
280.54,91.0
280.6,98.0
280.66,102.0
280.73,110.0
280.79,107.0
280.85,111.0
280.92,115.0
280.98,90.0
281.04,96.0
281.11,105.0
281.17,77.0
281.23,67.0
281.29,87.0
281.36,80.0
281.42,67.0
281.48,66.0
281.55,61.0
281.61,70.0
281.67,68.0
281.74,80.0
281.8,48.0
281.86,52.0
281.92,58.0
281.99,41.0
282.05,37.0
282.11,37.0
282.18,47.0
282.24,52.0
282.3,71.0
282.37,49.0
282.43,48.0
282.49,72.0
282.55,57.0
282.62,68.0
282.68,61.0
282.74,63.0
282.81,72.0
282.87,76.0
282.93,73.0
283.0,65.0
283.06,64.0
283.12,50.0
283.18,53.0
283.25,21.0
283.31,45.0
283.37,60.0
283.44,49.0
283.5,52.0
283.56,59.0
283.63,49.0
283.69,55.0
283.75,69.0
283.81,67.0
283.88,81.0
283.94,70.0
284.0,86.0
284.07,69.0
284.13,73.0
284.19,84.0
284.26,71.0
284.32,77.0
284.38,82.0
284.44,90.0
284.51,85.0
284.57,96.0
284.63,111.0
284.7,101.0
284.76,80.0
284.82,80.0
284.89,83.0
284.95,83.0
285.01,89.0
285.07,85.0
285.14,89.0
285.2,90.0
285.26,111.0
285.33,99.0
285.39,99.0
285.45,105.0
285.52,100.0
285.58,103.0
285.64,76.0
285.7,90.0
285.77,102.0
285.83,92.0
285.89,109.0
285.96,111.0
286.02,96.0
286.08,105.0
286.15,99.0
286.21,116.0
286.27,112.0
286.33,115.0
286.4,99.0
286.46,85.0
286.52,107.0
286.59,94.0
286.65,89.0
286.71,81.0
286.78,82.0
286.84,117.0
286.9,98.0
286.96,122.0
287.03,115.0
287.09,110.0
287.15,108.0
287.22,132.0
287.28,130.0
287.34,102.0
287.41,132.0
287.47,120.0
287.53,105.0
287.59,114.0
287.66,116.0
287.72,107.0
287.78,107.0
287.85,115.0
287.91,110.0
287.97,117.0
288.04,119.0
288.1,100.0
288.16,127.0
288.22,116.0
288.29,122.0
288.35,121.0
288.41,86.0
288.48,116.0
288.54,122.0
288.6,113.0
288.67,96.0
288.73,78.0
288.79,77.0
288.85,91.0
288.92,79.0
288.98,87.0
289.04,66.0
289.11,73.0
289.17,81.0
289.23,74.0
289.3,74.0
289.36,79.0
289.42,84.0
289.48,85.0
289.55,100.0
289.61,96.0
289.67,98.0
289.74,103.0
289.8,82.0
289.86,93.0
289.93,89.0
289.99,74.0
290.05,85.0
290.11,79.0
290.18,82.0
290.24,86.0
290.3,92.0
290.37,88.0
290.43,98.0
290.49,86.0
290.56,76.0
290.62,74.0
290.68,80.0
290.74,78.0
290.81,54.0
290.87,75.0
290.93,64.0
291.0,70.0
291.06,68.0
291.12,99.0
291.19,102.0
291.25,106.0
291.31,108.0
291.37,98.0
291.44,99.0
291.5,93.0
291.56,81.0
291.63,89.0
291.69,94.0
291.75,99.0
291.82,103.0
291.88,92.0
291.94,103.0
292.0,90.0
292.07,86.0
292.13,93.0
292.19,104.0
292.26,101.0
292.32,115.0
292.38,103.0
292.45,94.0
292.51,93.0
292.57,83.0
292.63,82.0
292.7,93.0
292.76,109.0
292.82,102.0
292.89,91.0
292.95,93.0
293.01,119.0
293.08,107.0
293.14,111.0
293.2,103.0
293.26,110.0
293.33,133.0
293.39,138.0
293.45,141.0
293.52,126.0
293.58,125.0
293.64,121.0
293.71,133.0
293.77,132.0
293.83,140.0
293.89,134.0
293.96,119.0
294.02,104.0
294.08,100.0
294.15,118.0
294.21,117.0
294.27,110.0
294.34,118.0
294.4,121.0
294.46,107.0
294.52,118.0
294.59,128.0
294.65,109.0
294.71,113.0
294.78,116.0
294.84,98.0
294.9,118.0
294.97,124.0
295.03,118.0
295.09,125.0
295.15,105.0
295.22,130.0
295.28,125.0
295.34,119.0
295.41,113.0
295.47,96.0
295.53,100.0
295.6,126.0
295.66,122.0
295.72,124.0
295.78,126.0
295.85,128.0
295.91,118.0
295.97,110.0
296.04,108.0
296.1,118.0
296.16,139.0
296.23,132.0
296.29,132.0
296.35,133.0
296.41,127.0
296.48,145.0
296.54,140.0
296.6,128.0
296.67,145.0
296.73,131.0
296.79,129.0
296.86,152.0
296.92,144.0
296.98,114.0
297.04,154.0
297.11,149.0
297.17,150.0
297.23,155.0
297.3,126.0
297.36,140.0
297.42,136.0
297.49,133.0
297.55,130.0
297.61,126.0
297.67,130.0
297.74,107.0
297.8,122.0
297.86,117.0
297.93,119.0
297.99,137.0
298.05,112.0
298.12,108.0
298.18,118.0
298.24,114.0
298.3,126.0
298.37,107.0
298.43,100.0
298.49,97.0
298.56,120.0
298.62,122.0
298.68,110.0
298.75,96.0
298.81,110.0
298.87,102.0
298.93,100.0
299.0,132.0
299.06,94.0
299.12,100.0
299.19,93.0
299.25,73.0
299.31,58.0
299.38,65.0
299.44,62.0
299.5,54.0
299.56,72.0
299.63,63.0
299.69,78.0
299.75,71.0
299.82,62.0
299.88,85.0
299.94,85.0
300.01,57.0
300.07,49.0
300.13,55.0
300.19,73.0
300.26,82.0
300.32,69.0
300.38,92.0
300.45,92.0
300.51,86.0
300.57,95.0
300.64,88.0
300.7,80.0
300.76,64.0
300.82,56.0
300.89,66.0
300.95,52.0
301.01,60.0
301.08,37.0
301.14,39.0
301.2,56.0
301.27,32.0
301.33,22.0
301.39,12.0
301.45,29.0
301.52,12.0
301.58,26.0
301.64,28.0
301.71,29.0
301.77,42.0
301.83,28.0
301.9,35.0
301.96,34.0
302.02,15.0
302.08,42.0
302.15,53.0
302.21,50.0
302.27,70.0
302.34,39.0
302.4,33.0
302.46,32.0
302.53,40.0
302.59,37.0
302.65,31.0
302.71,31.0
302.78,33.0
302.84,35.0
302.9,27.0
302.97,26.0
303.03,51.0
303.09,38.0
303.16,24.0
303.22,42.0
303.28,38.0
303.34,50.0
303.41,30.0
303.47,47.0
303.53,39.0
303.6,24.0
303.66,24.0
303.72,41.0
303.79,44.0
303.85,38.0
303.91,13.0
303.97,12.0
304.04,-1.0
304.1,3.0
304.16,-2.0
304.23,6.0
304.29,13.0
304.35,3.0
304.42,-5.0
304.48,-13.0
304.54,-20.0
304.6,-4.0
304.67,-3.0
304.73,-19.0
304.79,-12.0
304.86,-11.0
304.92,-11.0
304.98,-15.0
305.05,-19.0
305.11,6.0
305.17,-4.0
305.23,3.0
305.3,6.0
305.36,-1.0
305.42,2.0
305.49,-16.0
305.55,-7.0
305.61,6.0
305.68,-10.0
305.74,-11.0
305.8,-10.0
305.86,2.0
305.93,18.0
305.99,5.0
306.05,-11.0
306.12,-14.0
306.18,2.0
306.24,-1.0
306.31,-4.0
306.37,-14.0
306.43,-10.0
306.49,-5.0
306.56,-15.0
306.62,-3.0
306.68,11.0
306.75,5.0
306.81,-6.0
306.87,10.0
306.94,6.0
307.0,22.0
307.06,10.0
307.12,-3.0
307.19,-9.0
307.25,-5.0
307.31,-5.0
307.38,17.0
307.44,31.0
307.5,35.0
307.57,29.0
307.63,13.0
307.69,1.0
307.75,15.0
307.82,10.0
307.88,7.0
307.94,16.0
308.01,18.0
308.07,5.0
308.13,11.0
308.2,-3.0
308.26,21.0
308.32,5.0
308.38,9.0
308.45,14.0
308.51,9.0
308.57,17.0
308.64,31.0
308.7,14.0
308.76,12.0
308.83,9.0
308.89,15.0
308.95,14.0
309.01,20.0
309.08,31.0
309.14,36.0
309.2,40.0
309.27,7.0
309.33,7.0
309.39,-6.0
309.46,7.0
309.52,-1.0
309.58,23.0
309.64,9.0
309.71,-4.0
309.77,-8.0
309.83,-11.0
309.9,-4.0
309.96,-9.0
310.02,2.0
310.09,-25.0
310.15,-17.0
310.21,13.0
310.27,-3.0
310.34,-7.0
310.4,-1.0
310.46,-1.0
310.53,7.0
310.59,23.0
310.65,19.0
310.72,1.0
310.78,20.0
310.84,23.0
310.9,27.0
310.97,46.0
311.03,54.0
311.09,43.0
311.16,45.0
311.22,62.0
311.28,52.0
311.35,51.0
311.41,43.0
311.47,85.0
311.53,70.0
311.6,79.0
311.66,74.0
311.72,72.0
311.79,79.0
311.85,80.0
311.91,92.0
311.98,72.0
312.04,72.0
312.1,78.0
312.16,79.0
312.23,69.0
312.29,64.0
312.35,66.0
312.42,56.0
312.48,42.0
312.54,60.0
312.61,68.0
312.67,60.0
312.73,66.0
312.79,48.0
312.86,47.0
312.92,65.0
312.98,82.0
313.05,79.0
313.11,70.0
313.17,96.0
313.24,98.0
313.3,89.0
313.36,102.0
313.42,112.0
313.49,120.0
313.55,109.0
313.61,98.0
313.68,98.0
313.74,98.0
313.8,94.0
313.87,97.0
313.93,115.0
313.99,114.0
314.05,123.0
314.12,114.0
314.18,119.0
314.24,129.0
314.31,117.0
314.37,120.0
314.43,123.0
314.5,128.0
314.56,101.0
314.62,83.0
314.68,86.0
314.75,93.0
314.81,92.0
314.87,72.0
314.94,93.0
315.0,76.0
315.06,79.0
315.13,82.0
315.19,77.0
315.25,65.0
315.31,49.0
315.38,70.0
315.44,75.0
315.5,83.0
315.57,64.0
315.63,83.0
315.69,85.0
315.76,57.0
315.82,49.0
315.88,68.0
315.94,59.0
316.01,57.0
316.07,75.0
316.13,86.0
316.2,67.0
316.26,46.0
316.32,56.0
316.39,61.0
316.45,57.0
316.51,54.0
316.57,64.0
316.64,47.0
316.7,33.0
316.76,46.0
316.83,69.0
316.89,65.0
316.95,68.0
317.02,63.0
317.08,68.0
317.14,74.0
317.2,84.0
317.27,71.0
317.33,92.0
317.39,91.0
317.46,98.0
317.52,113.0
317.58,101.0
317.65,123.0
317.71,138.0
317.77,131.0
317.83,129.0
317.9,114.0
317.96,138.0
318.02,134.0
318.09,108.0
318.15,123.0
318.21,130.0
318.28,119.0
318.34,117.0
318.4,135.0
318.46,128.0
318.53,144.0
318.59,139.0
318.65,142.0
318.72,137.0
318.78,154.0
318.84,175.0
318.91,156.0
318.97,139.0
319.03,141.0
319.09,106.0
319.16,123.0
319.22,120.0
319.28,112.0
319.35,107.0
319.41,111.0
319.47,105.0
319.54,105.0
319.6,106.0
319.66,108.0
319.72,106.0
319.79,119.0
319.85,128.0
319.91,122.0
319.98,105.0
320.04,129.0
320.1,122.0
320.17,141.0
320.23,123.0
320.29,145.0
320.35,132.0
320.42,140.0
320.48,144.0
320.54,143.0
320.61,141.0
320.67,134.0
320.73,125.0
320.8,125.0
320.86,144.0
320.92,133.0
320.98,125.0
321.05,121.0
321.11,117.0
321.17,122.0
321.24,138.0
321.3,144.0
321.36,141.0
321.43,123.0
321.49,121.0
321.55,128.0
321.61,131.0
321.68,104.0
321.74,112.0
321.8,133.0
321.87,150.0
321.93,139.0
321.99,119.0
322.06,148.0
322.12,143.0
322.18,160.0
322.24,145.0
322.31,141.0
322.37,141.0
322.43,131.0
322.5,125.0
322.56,123.0
322.62,125.0
322.69,130.0
322.75,127.0
322.81,142.0
322.87,134.0
322.94,158.0
323.0,163.0
323.06,148.0
323.13,140.0
323.19,131.0
323.25,131.0
323.32,121.0
323.38,120.0
323.44,139.0
323.5,120.0
323.57,120.0
323.63,128.0
323.69,126.0
323.76,106.0
323.82,96.0
323.88,100.0
323.95,101.0
324.01,106.0
324.07,90.0
324.13,106.0
324.2,97.0
324.26,95.0
324.32,95.0
324.39,98.0
324.45,118.0
324.51,109.0
324.58,100.0
324.64,145.0
324.7,125.0
324.76,112.0
324.83,126.0
324.89,126.0
324.95,128.0
325.02,139.0
325.08,116.0
325.14,119.0
325.21,113.0
325.27,106.0
325.33,137.0
325.39,120.0
325.46,108.0
325.52,123.0
325.58,129.0
325.65,147.0
325.71,139.0
325.77,145.0
325.84,120.0
325.9,130.0
325.96,137.0
326.02,126.0
326.09,119.0
326.15,135.0
326.21,112.0
326.28,114.0
326.34,130.0
326.4,132.0
326.47,131.0
326.53,138.0
326.59,140.0
326.65,108.0
326.72,105.0
326.78,108.0
326.84,117.0
326.91,102.0
326.97,114.0
327.03,122.0
327.1,135.0
327.16,130.0
327.22,105.0
327.28,125.0
327.35,133.0
327.41,127.0
327.47,141.0
327.54,137.0
327.6,116.0
327.66,141.0
327.73,126.0
327.79,115.0
327.85,130.0
327.91,112.0
327.98,108.0
328.04,114.0
328.1,104.0
328.17,115.0
328.23,116.0
328.29,113.0
328.36,129.0
328.42,127.0
328.48,126.0
328.54,142.0
328.61,120.0
328.67,109.0
328.73,113.0
328.8,123.0
328.86,117.0
328.92,123.0
328.99,134.0
329.05,118.0
329.11,119.0
329.17,129.0
329.24,109.0
329.3,89.0
329.36,116.0
329.43,124.0
329.49,103.0
329.55,103.0
329.62,87.0
329.68,114.0
329.74,115.0
329.8,125.0
329.87,112.0
329.93,102.0
329.99,87.0
330.06,98.0
330.12,96.0
330.18,108.0
330.25,104.0
330.31,112.0
330.37,126.0
330.43,125.0
330.5,117.0
330.56,119.0
330.62,126.0
330.69,113.0
330.75,106.0
330.81,100.0
330.88,111.0
330.94,112.0
331.0,112.0
331.06,112.0
331.13,117.0
331.19,108.0
331.25,115.0
331.32,97.0
331.38,92.0
331.44,108.0
331.51,108.0
331.57,105.0
331.63,97.0
331.69,103.0
331.76,103.0
331.82,104.0
331.88,95.0
331.95,100.0
332.01,97.0
332.07,104.0
332.14,109.0
332.2,99.0
332.26,95.0
332.32,97.0
332.39,96.0
332.45,111.0
332.51,110.0
332.58,95.0
332.64,97.0
332.7,110.0
332.77,101.0
332.83,95.0
332.89,116.0
332.95,87.0
333.02,90.0
333.08,99.0
333.14,87.0
333.21,108.0
333.27,103.0
333.33,98.0
333.4,95.0
333.46,93.0
333.52,93.0
333.58,97.0
333.65,90.0
333.71,72.0
333.77,89.0
333.84,101.0
333.9,100.0
333.96,87.0
334.03,100.0
334.09,98.0
334.15,83.0
334.21,102.0
334.28,74.0
334.34,90.0
334.4,114.0
334.47,108.0
334.53,117.0
334.59,93.0
334.66,108.0
334.72,107.0
334.78,108.0
334.84,103.0
334.91,107.0
334.97,117.0
335.03,106.0
335.1,133.0
335.16,111.0
335.22,114.0
335.29,123.0
335.35,123.0
335.41,129.0
335.47,127.0
335.54,127.0
335.6,122.0
335.66,121.0
335.73,116.0
335.79,130.0
335.85,152.0
335.92,121.0
335.98,138.0
336.04,140.0
336.1,138.0
336.17,139.0
336.23,140.0
336.29,151.0
336.36,139.0
336.42,139.0
336.48,138.0
336.55,152.0
336.61,143.0
336.67,134.0
336.73,141.0
336.8,145.0
336.86,132.0
336.92,138.0
336.99,138.0
337.05,145.0
337.11,134.0
337.18,101.0
337.24,109.0
337.3,115.0
337.36,99.0
337.43,106.0
337.49,112.0
337.55,128.0
337.62,91.0
337.68,108.0
337.74,115.0
337.81,104.0
337.87,79.0
337.93,93.0
337.99,114.0
338.06,106.0
338.12,97.0
338.18,86.0
338.25,96.0
338.31,112.0
338.37,110.0
338.44,105.0
338.5,105.0
338.56,120.0
338.62,129.0
338.69,139.0
338.75,138.0
338.81,125.0
338.88,110.0
338.94,128.0
339.0,136.0
339.07,128.0
339.13,138.0
339.19,131.0
339.25,150.0
339.32,135.0
339.38,137.0
339.44,137.0
339.51,150.0
339.57,142.0
339.63,134.0
339.7,134.0
339.76,130.0
339.82,136.0
339.88,121.0
339.95,127.0
340.01,126.0
340.07,141.0
340.14,116.0
340.2,123.0
340.26,113.0
340.33,115.0
340.39,124.0
340.45,111.0
340.51,133.0
340.58,100.0
340.64,96.0
340.7,107.0
340.77,119.0
340.83,123.0
340.89,123.0
340.96,124.0
341.02,112.0
341.08,75.0
341.14,91.0
341.21,104.0
341.27,100.0
341.33,80.0
341.4,81.0
341.46,74.0
341.52,68.0
341.59,97.0
341.65,92.0
341.71,86.0
341.77,79.0
341.84,83.0
341.9,89.0
341.96,86.0
342.03,82.0
342.09,77.0
342.15,60.0
342.22,60.0
342.28,82.0
342.34,86.0
342.4,67.0
342.47,48.0
342.53,62.0
342.59,43.0
342.66,60.0
342.72,55.0
342.78,47.0
342.85,61.0
342.91,49.0
342.97,44.0
343.03,67.0
343.1,70.0
343.16,81.0
343.22,68.0
343.29,84.0
343.35,86.0
343.41,59.0
343.48,71.0
343.54,81.0
343.6,109.0
343.66,106.0
343.73,107.0
343.79,96.0
343.85,95.0
343.92,108.0
343.98,98.0
344.04,100.0
344.11,86.0
344.17,101.0
344.23,88.0
344.29,89.0
344.36,76.0
344.42,79.0
344.48,98.0
344.55,90.0
344.61,101.0
344.67,103.0
344.74,90.0
344.8,83.0
344.86,96.0
344.92,109.0
344.99,95.0
345.05,88.0
345.11,82.0
345.18,92.0
345.24,88.0
345.3,76.0
345.37,81.0
345.43,105.0
345.49,107.0
345.55,116.0
345.62,90.0
345.68,78.0
345.74,70.0
345.81,83.0
345.87,98.0
345.93,87.0
346.0,88.0
346.06,88.0
346.12,89.0
346.18,86.0
346.25,74.0
346.31,71.0
346.37,60.0
346.44,59.0
346.5,61.0
346.56,69.0
346.63,61.0
346.69,79.0
346.75,92.0
346.81,84.0
346.88,91.0
346.94,82.0
347.0,84.0
347.07,82.0
347.13,84.0
347.19,95.0
347.26,113.0
347.32,122.0
347.38,109.0
347.44,102.0
347.51,119.0
347.57,134.0
347.63,103.0
347.7,123.0
347.76,124.0
347.82,117.0
347.89,118.0
347.95,97.0
348.01,117.0
348.07,109.0
348.14,117.0
348.2,117.0
348.26,101.0
348.33,94.0
348.39,97.0
348.45,87.0
348.52,97.0
348.58,101.0
348.64,92.0
348.7,73.0
348.77,75.0
348.83,80.0
348.89,78.0
348.96,71.0
349.02,66.0
349.08,61.0
349.15,79.0
349.21,56.0
349.27,46.0
349.33,45.0
349.4,48.0
349.46,65.0
349.52,63.0
349.59,63.0
349.65,72.0
349.71,72.0
349.78,59.0
349.84,51.0
349.9,50.0
349.96,79.0
350.03,64.0
350.09,72.0
350.15,65.0
350.22,61.0
350.28,79.0
350.34,75.0
350.41,66.0
350.47,75.0
350.53,78.0
350.59,83.0
350.66,119.0
350.72,111.0
350.78,79.0
350.85,86.0
350.91,106.0
350.97,100.0
351.04,102.0
351.1,110.0
351.16,117.0
351.22,101.0
351.29,113.0
351.35,106.0
351.41,104.0
351.48,86.0
351.54,78.0
351.6,86.0
351.67,86.0
351.73,76.0
351.79,77.0
351.85,80.0
351.92,82.0
351.98,72.0
352.04,62.0
352.11,71.0
352.17,77.0
352.23,72.0
352.3,78.0
352.36,78.0
352.42,78.0
352.48,81.0
352.55,82.0
352.61,75.0
352.67,68.0
352.74,70.0
352.8,68.0
352.86,68.0
352.93,74.0
352.99,81.0
353.05,77.0
353.11,73.0
353.18,49.0
353.24,61.0
353.3,72.0
353.37,82.0
353.43,68.0
353.49,65.0
353.56,69.0
353.62,66.0
353.68,70.0
353.74,83.0
353.81,61.0
353.87,70.0
353.93,94.0
354.0,82.0
354.06,95.0
354.12,86.0
354.19,75.0
354.25,73.0
354.31,81.0
354.37,73.0
354.44,73.0
354.5,75.0
354.56,71.0
354.63,53.0
354.69,72.0
354.75,59.0
354.82,64.0
354.88,65.0
354.94,38.0
355.0,53.0
355.07,46.0
355.13,44.0
355.19,53.0
355.26,72.0
355.32,48.0
355.38,81.0
355.45,62.0
355.51,56.0
355.57,67.0
355.63,64.0
355.7,68.0
355.76,51.0
355.82,63.0
355.89,62.0
355.95,57.0
356.01,49.0
356.08,50.0
356.14,43.0
356.2,42.0
356.26,21.0
356.33,43.0
356.39,34.0
356.45,35.0
356.52,24.0
356.58,70.0
356.64,54.0
356.71,36.0
356.77,46.0
356.83,58.0
356.89,77.0
356.96,56.0
357.02,59.0
357.08,57.0
357.15,60.0
357.21,61.0
357.27,66.0
357.34,35.0
357.4,56.0
357.46,38.0
357.52,24.0
357.59,41.0
357.65,44.0
357.71,52.0
357.78,31.0
357.84,29.0
357.9,53.0
357.97,40.0
358.03,42.0
358.09,40.0
358.15,34.0
358.22,29.0
358.28,28.0
358.34,29.0
358.41,35.0
358.47,46.0
358.53,41.0
358.6,12.0
358.66,19.0
358.72,31.0
358.78,22.0
358.85,32.0
358.91,33.0
358.97,37.0
359.04,39.0
359.1,29.0
359.16,24.0
359.23,31.0
359.29,25.0
359.35,34.0
359.41,46.0
359.48,53.0
359.54,54.0
359.6,39.0
359.67,64.0
359.73,42.0
359.79,51.0
359.86,38.0
359.92,46.0
359.98,49.0
360.04,57.0
360.11,51.0
360.17,48.0
360.23,61.0
360.3,41.0
360.36,63.0
360.42,68.0
360.49,48.0
360.55,50.0
360.61,49.0
360.67,30.0
360.74,37.0
360.8,37.0
360.86,35.0
360.93,26.0
360.99,25.0
361.05,18.0
361.12,19.0
361.18,24.0
361.24,24.0
361.3,37.0
361.37,42.0
361.43,34.0
361.49,48.0
361.56,45.0
361.62,37.0
361.68,56.0
361.75,42.0
361.81,44.0
361.87,43.0
361.93,57.0
362.0,37.0
362.06,43.0
362.12,67.0
362.19,56.0
362.25,42.0
362.31,76.0
362.38,66.0
362.44,71.0
362.5,62.0
362.56,78.0
362.63,62.0
362.69,55.0
362.75,56.0
362.82,70.0
362.88,89.0
362.94,61.0
363.01,66.0
363.07,65.0
363.13,57.0
363.19,71.0
363.26,78.0
363.32,76.0
363.38,61.0
363.45,73.0
363.51,94.0
363.57,79.0
363.64,98.0
363.7,102.0
363.76,69.0
363.82,90.0
363.89,78.0
363.95,81.0
364.01,97.0
364.08,92.0
364.14,88.0
364.2,104.0
364.27,93.0
364.33,75.0
364.39,94.0
364.45,83.0
364.52,86.0
364.58,100.0
364.64,101.0
364.71,92.0
364.77,90.0
364.83,101.0
364.9,99.0
364.96,88.0
365.02,83.0
365.08,98.0
365.15,89.0
365.21,94.0
365.27,111.0
365.34,92.0
365.4,88.0
365.46,99.0
365.53,96.0
365.59,105.0
365.65,93.0
365.71,108.0
365.78,90.0
365.84,83.0
365.9,87.0
365.97,72.0
366.03,61.0
366.09,75.0
366.16,70.0
366.22,63.0
366.28,83.0
366.34,69.0
366.41,50.0
366.47,70.0
366.53,83.0
366.6,76.0
366.66,83.0
366.72,59.0
366.79,60.0
366.85,64.0
366.91,53.0
366.97,50.0
367.04,57.0
367.1,54.0
367.16,59.0
367.23,62.0
367.29,54.0
367.35,62.0
367.42,55.0
367.48,65.0
367.54,64.0
367.6,66.0
367.67,54.0
367.73,49.0
367.79,46.0
367.86,68.0
367.92,76.0
367.98,72.0
368.05,90.0
368.11,67.0
368.17,62.0
368.23,76.0
368.3,89.0
368.36,78.0
368.42,72.0
368.49,75.0
368.55,80.0
368.61,70.0
368.68,61.0
368.74,64.0
368.8,59.0
368.86,66.0
368.93,84.0
368.99,103.0
369.05,91.0
369.12,103.0
369.18,113.0
369.24,124.0
369.31,122.0
369.37,129.0
369.43,124.0
369.49,120.0
369.56,124.0
369.62,106.0
369.68,108.0
369.75,106.0
369.81,121.0
369.87,97.0
369.94,93.0
370.0,98.0
370.06,91.0
370.12,88.0
370.19,92.0
370.25,110.0
370.31,114.0
370.38,116.0
370.44,122.0
370.5,99.0
370.57,112.0
370.63,114.0
370.69,111.0
370.75,101.0
370.82,115.0
370.88,94.0
370.94,84.0
371.01,78.0
371.07,69.0
371.13,71.0
371.2,87.0
371.26,96.0
371.32,103.0
371.38,110.0
371.45,110.0
371.51,113.0
371.57,88.0
371.64,103.0
371.7,103.0
371.76,72.0
371.83,84.0
371.89,59.0
371.95,102.0
372.01,79.0
372.08,65.0
372.14,83.0
372.2,79.0
372.27,87.0
372.33,87.0
372.39,84.0
372.46,91.0
372.52,107.0
372.58,100.0
372.64,100.0
372.71,103.0
372.77,120.0
372.83,114.0
372.9,93.0
372.96,100.0
373.02,104.0
373.09,93.0
373.15,95.0
373.21,112.0
373.27,90.0
373.34,105.0
373.4,104.0
373.46,99.0
373.53,99.0
373.59,103.0
373.65,108.0
373.72,88.0
373.78,117.0
373.84,121.0
373.9,122.0
373.97,109.0
374.03,99.0
374.09,120.0
374.16,126.0
374.22,139.0
374.28,126.0
374.35,116.0
374.41,130.0
374.47,134.0
374.53,143.0
374.6,126.0
374.66,128.0
374.72,111.0
374.79,113.0
374.85,124.0
374.91,126.0
374.98,137.0
375.04,129.0
375.1,122.0
375.16,127.0
375.23,119.0
375.29,130.0
375.35,121.0
375.42,130.0
375.48,138.0
375.54,143.0
375.61,144.0
375.67,128.0
375.73,119.0
375.79,141.0
375.86,132.0
375.92,158.0
375.98,156.0
376.05,141.0
376.11,145.0
376.17,131.0
376.24,136.0
376.3,118.0
376.36,149.0
376.42,152.0
376.49,166.0
376.55,154.0
376.61,143.0
376.68,140.0
376.74,148.0
376.8,136.0
376.87,152.0
376.93,178.0
376.99,175.0
377.05,136.0
377.12,142.0
377.18,148.0
377.24,126.0
377.31,128.0
377.37,148.0
377.43,155.0
377.5,146.0
377.56,135.0
377.62,122.0
377.68,134.0
377.75,128.0
377.81,128.0
377.87,123.0
377.94,113.0
378.0,133.0
378.06,138.0
378.13,150.0
378.19,153.0
378.25,129.0
378.31,136.0
378.38,123.0
378.44,122.0
378.5,119.0
378.57,138.0
378.63,135.0
378.69,135.0
378.76,123.0
378.82,148.0
378.88,142.0
378.94,114.0
379.01,116.0
379.07,116.0
379.13,134.0
379.2,113.0
379.26,120.0
379.32,125.0
379.39,112.0
379.45,108.0
379.51,97.0
379.57,114.0
379.64,125.0
379.7,114.0
379.76,122.0
379.83,140.0
379.89,130.0
379.95,130.0
380.02,129.0
380.08,142.0
380.14,160.0
380.2,150.0
380.27,158.0
380.33,161.0
380.39,159.0
380.46,152.0
380.52,161.0
380.58,159.0
380.65,151.0
380.71,139.0
380.77,158.0
380.83,152.0
380.9,155.0
380.96,144.0
381.02,136.0
381.09,134.0
381.15,125.0
381.21,133.0
381.28,118.0
381.34,134.0
381.4,142.0
381.46,147.0
381.53,131.0
381.59,127.0
381.65,130.0
381.72,133.0
381.78,145.0
381.84,149.0
381.91,126.0
381.97,103.0
382.03,122.0
382.09,124.0
382.16,123.0
382.22,123.0
382.28,112.0
382.35,133.0
382.41,145.0
382.47,131.0
382.54,123.0
382.6,120.0
382.66,90.0
382.72,94.0
382.79,118.0
382.85,111.0
382.91,106.0
382.98,119.0
383.04,108.0
383.1,109.0
383.17,82.0
383.23,93.0
383.29,69.0
383.35,79.0
383.42,78.0
383.48,67.0
383.54,70.0
383.61,100.0
383.67,119.0
383.73,105.0
383.8,95.0
383.86,86.0
383.92,95.0
383.98,90.0
384.05,101.0
384.11,100.0
384.17,115.0
384.24,83.0
384.3,96.0
384.36,111.0
384.43,93.0
384.49,108.0
384.55,100.0
384.61,110.0
384.68,104.0
384.74,97.0
384.8,112.0
384.87,105.0
384.93,101.0
384.99,120.0
385.06,124.0
385.12,97.0
385.18,100.0
385.24,86.0
385.31,94.0
385.37,92.0
385.43,108.0
385.5,100.0
385.56,99.0
385.62,93.0
385.69,93.0
385.75,108.0
385.81,116.0
385.87,106.0
385.94,105.0
386.0,88.0
386.06,100.0
386.13,89.0
386.19,92.0
386.25,95.0
386.32,94.0
386.38,92.0
386.44,105.0
386.5,114.0
386.57,95.0
386.63,83.0
386.69,99.0
386.76,81.0
386.82,92.0
386.88,102.0
386.95,92.0
387.01,75.0
387.07,80.0
387.13,95.0
387.2,78.0
387.26,59.0
387.32,96.0
387.39,81.0
387.45,78.0
387.51,84.0
387.58,66.0
387.64,79.0
387.7,86.0
387.76,89.0
387.83,69.0
387.89,57.0
387.95,78.0
388.02,62.0
388.08,62.0
388.14,62.0
388.21,68.0
388.27,50.0
388.33,78.0
388.39,61.0
388.46,75.0
388.52,62.0
388.58,65.0
388.65,70.0
388.71,69.0
388.77,97.0
388.84,83.0
388.9,82.0
388.96,72.0
389.02,61.0
389.09,84.0
389.15,76.0
389.21,71.0
389.28,75.0
389.34,71.0
389.4,72.0
389.47,103.0
389.53,93.0
389.59,91.0
389.65,85.0
389.72,81.0
389.78,75.0
389.84,62.0
389.91,59.0
389.97,73.0
390.03,79.0
390.1,69.0
390.16,95.0
390.22,99.0
390.28,92.0
390.35,86.0
390.41,105.0
390.47,80.0
390.54,90.0
390.6,101.0
390.66,87.0
390.73,67.0
390.79,77.0
390.85,76.0
390.91,70.0
390.98,75.0
391.04,91.0
391.1,81.0
391.17,74.0
391.23,67.0
391.29,90.0
391.36,99.0
391.42,101.0
391.48,93.0
391.54,86.0
391.61,78.0
391.67,67.0
391.73,86.0
391.8,94.0
391.86,92.0
391.92,83.0
391.99,98.0
392.05,86.0
392.11,90.0
392.17,85.0
392.24,87.0
392.3,80.0
392.36,83.0
392.43,73.0
392.49,76.0
392.55,87.0
392.62,56.0
392.68,84.0
392.74,93.0
392.8,101.0
392.87,76.0
392.93,79.0
392.99,77.0
393.06,73.0
393.12,73.0
393.18,46.0
393.25,62.0
393.31,79.0
393.37,87.0
393.43,86.0
393.5,80.0
393.56,87.0
393.62,83.0
393.69,77.0
393.75,101.0
393.81,88.0
393.88,96.0
393.94,122.0
394.0,82.0
394.06,92.0
394.13,81.0
394.19,71.0
394.25,93.0
394.32,90.0
394.38,96.0
394.44,91.0
394.51,89.0
394.57,88.0
394.63,74.0
394.69,112.0
394.76,124.0
394.82,112.0
394.88,121.0
394.95,114.0
395.01,105.0
395.07,95.0
395.14,102.0
395.2,109.0
395.26,121.0
395.32,101.0
395.39,104.0
395.45,96.0
395.51,111.0
395.58,132.0
395.64,130.0
395.7,131.0
395.77,138.0
395.83,128.0
395.89,104.0
395.95,103.0
396.02,106.0
396.08,108.0
396.14,117.0
396.21,114.0
396.27,108.0
396.33,101.0
396.4,125.0
396.46,138.0
396.52,111.0
396.58,137.0
396.65,126.0
396.71,136.0
396.77,157.0
396.84,141.0
396.9,158.0
396.96,142.0
397.03,140.0
397.09,147.0
397.15,146.0
397.21,123.0
397.28,131.0
397.34,126.0
397.4,131.0
397.47,123.0
397.53,116.0
397.59,109.0
397.66,108.0
397.72,121.0
397.78,127.0
397.84,139.0
397.91,134.0
397.97,138.0
398.03,116.0
398.1,103.0
398.16,111.0
398.22,126.0
398.29,123.0
398.35,131.0
398.41,144.0
398.47,126.0
398.54,119.0
398.6,120.0
398.66,106.0
398.73,100.0
398.79,112.0
398.85,119.0
398.92,101.0
398.98,83.0
399.04,108.0
399.1,109.0
399.17,101.0
399.23,116.0
399.29,116.0
399.36,126.0
399.42,129.0
399.48,132.0
399.55,132.0
399.61,125.0
399.67,117.0
399.73,122.0
399.8,142.0
399.86,127.0
399.92,129.0
399.99,138.0
400.05,129.0
400.11,129.0
400.18,117.0
400.24,117.0
400.3,106.0
400.36,98.0
400.43,115.0
400.49,102.0
400.55,116.0
400.62,128.0
400.68,128.0
400.74,126.0
400.81,111.0
400.87,115.0
400.93,119.0
400.99,124.0
401.06,114.0
401.12,122.0
401.18,127.0
401.25,125.0
401.31,101.0
401.37,118.0
401.44,129.0
401.5,115.0
401.56,127.0
401.62,132.0
401.69,123.0
401.75,124.0
401.81,105.0
401.88,106.0
401.94,134.0
402.0,117.0
402.07,108.0
402.13,97.0
402.19,104.0
402.25,98.0
402.32,109.0
402.38,102.0
402.44,96.0
402.51,93.0
402.57,95.0
402.63,76.0
402.7,92.0
402.76,111.0
402.82,119.0
402.88,145.0
402.95,125.0
403.01,114.0
403.07,105.0
403.14,90.0
403.2,104.0
403.26,119.0
403.33,108.0
403.39,114.0
403.45,98.0
403.51,95.0
403.58,97.0
403.64,100.0
403.7,101.0
403.77,121.0
403.83,104.0
403.89,85.0
403.96,86.0
404.02,83.0
404.08,88.0
404.14,84.0
404.21,77.0
404.27,99.0
404.33,76.0
404.4,81.0
404.46,89.0
404.52,68.0
404.59,51.0
404.65,59.0
404.71,71.0
404.77,61.0
404.84,56.0
404.9,64.0
404.96,35.0
405.03,43.0
405.09,20.0
405.15,45.0
405.22,42.0
405.28,41.0
405.34,39.0
405.4,28.0
405.47,26.0
405.53,23.0
405.59,34.0
405.66,29.0
405.72,35.0
405.78,37.0
405.85,38.0
405.91,32.0
405.97,25.0
406.03,15.0
406.1,24.0
406.16,26.0
406.22,31.0
406.29,32.0
406.35,15.0
406.41,16.0
406.48,25.0
406.54,16.0
406.6,20.0
406.66,17.0
406.73,14.0
406.79,15.0
406.85,12.0
406.92,28.0
406.98,36.0
407.04,32.0
407.11,13.0
407.17,-11.0
407.23,-1.0
407.29,21.0
407.36,44.0
407.42,24.0
407.48,40.0
407.55,54.0
407.61,41.0
407.67,33.0
407.74,15.0
407.8,23.0
407.86,15.0
407.92,21.0
407.99,30.0
408.05,28.0
408.11,17.0
408.18,-3.0
408.24,16.0
408.3,9.0
408.37,-7.0
408.43,-3.0
408.49,-8.0
408.55,9.0
408.62,-5.0
408.68,-8.0
408.74,-11.0
408.81,-14.0
408.87,2.0
408.93,14.0
409.0,13.0
409.06,-2.0
409.12,-1.0
409.18,7.0
409.25,29.0
409.31,17.0
409.37,11.0
409.44,14.0
409.5,5.0
409.56,-12.0
409.63,-4.0
409.69,-9.0
409.75,-8.0
409.81,-1.0
409.88,7.0
409.94,-6.0
410.0,-2.0
410.07,-3.0
410.13,-23.0
410.19,-17.0
410.26,-29.0
410.32,-10.0
410.38,-29.0
410.44,-13.0
410.51,-4.0
410.57,-8.0
410.63,-16.0
410.7,-22.0
410.76,-2.0
410.82,-13.0
410.89,-26.0
410.95,0.0
411.01,4.0
411.07,-8.0
411.14,-3.0
411.2,2.0
411.26,14.0
411.33,-12.0
411.39,24.0
411.45,27.0
411.52,9.0
411.58,19.0
411.64,18.0
411.7,40.0
411.77,18.0
411.83,-8.0
411.89,2.0
411.96,-1.0
412.02,-7.0
412.08,-5.0
412.15,-7.0
412.21,-1.0
412.27,-6.0
412.33,-2.0
412.4,3.0
412.46,-24.0
412.52,-13.0
412.59,-15.0
412.65,-42.0
412.71,-41.0
412.78,-39.0
412.84,-39.0
412.9,-16.0
412.96,-30.0
413.03,-46.0
413.09,-38.0
413.15,-24.0
413.22,-42.0
413.28,-51.0
413.34,-38.0
413.41,-18.0
413.47,-20.0
413.53,-16.0
413.59,10.0
413.66,11.0
413.72,9.0
413.78,6.0
413.85,12.0
413.91,8.0
413.97,26.0
414.04,25.0
414.1,37.0
414.16,11.0
414.22,17.0
414.29,30.0
414.35,47.0
414.41,39.0
414.48,47.0
414.54,48.0
414.6,41.0
414.67,28.0
414.73,28.0
414.79,45.0
414.85,27.0
414.92,29.0
414.98,33.0
415.04,40.0
415.11,37.0
415.17,30.0
415.23,32.0
415.3,36.0
415.36,18.0
415.42,25.0
415.48,36.0
415.55,11.0
415.61,8.0
415.67,5.0
415.74,5.0
415.8,20.0
415.86,27.0
415.93,30.0
415.99,17.0
416.05,20.0
416.11,28.0
416.18,31.0
416.24,34.0
416.3,19.0
416.37,22.0
416.43,17.0
416.49,23.0
416.56,30.0
416.62,49.0
416.68,45.0
416.74,15.0
416.81,38.0
416.87,15.0
416.93,38.0
417.0,34.0
417.06,27.0
417.12,27.0
417.19,34.0
417.25,16.0
417.31,33.0
417.37,37.0
417.44,34.0
417.5,40.0
417.56,35.0
417.63,61.0
417.69,38.0
417.75,5.0
417.82,24.0
417.88,45.0
417.94,43.0
418.0,48.0
418.07,51.0
418.13,62.0
418.19,71.0
418.26,68.0
418.32,73.0
418.38,75.0
418.45,78.0
418.51,87.0
418.57,110.0
418.63,89.0
418.7,84.0
418.76,89.0
418.82,78.0
418.89,101.0
418.95,95.0
419.01,151.0
419.08,138.0
419.14,127.0
419.2,105.0
419.26,96.0
419.33,129.0
419.39,119.0
419.45,111.0
419.52,125.0
419.58,117.0
419.64,133.0
419.71,135.0
419.77,122.0
419.83,116.0
419.89,120.0
419.96,123.0
420.02,107.0
420.08,120.0
420.15,139.0
420.21,129.0
420.27,125.0
420.34,144.0
420.4,119.0
420.46,136.0
420.52,131.0
420.59,116.0
420.65,129.0
420.71,122.0
420.78,144.0
420.84,133.0
420.9,137.0
420.97,115.0
421.03,140.0
421.09,130.0
421.15,114.0
421.22,129.0
421.28,154.0
421.34,151.0
421.41,127.0
421.47,140.0
421.53,149.0
421.6,164.0
421.66,131.0
421.72,121.0
421.78,147.0
421.85,142.0
421.91,147.0
421.97,144.0
422.04,154.0
422.1,130.0
422.16,121.0
422.23,116.0
422.29,129.0
422.35,127.0
422.41,124.0
422.48,124.0
422.54,137.0
422.6,141.0
422.67,133.0
422.73,139.0
422.79,124.0
422.86,128.0
422.92,137.0
422.98,139.0
423.04,148.0
423.11,129.0
423.17,124.0
423.23,129.0
423.3,124.0
423.36,124.0
423.42,122.0
423.49,116.0
423.55,127.0
423.61,132.0
423.67,131.0
423.74,145.0
423.8,123.0
423.86,112.0
423.93,110.0
423.99,123.0
424.05,151.0
424.12,144.0
424.18,135.0
424.24,137.0
424.3,125.0
424.37,126.0
424.43,100.0
424.49,96.0
424.56,133.0
424.62,143.0
424.68,147.0
424.75,118.0
424.81,129.0
424.87,133.0
424.93,128.0
425.0,155.0
425.06,149.0
425.12,164.0
425.19,145.0
425.25,150.0
425.31,147.0
425.38,148.0
425.44,169.0
425.5,174.0
425.56,143.0
425.63,165.0
425.69,153.0
425.75,158.0
425.82,150.0
425.88,128.0
425.94,138.0
426.01,149.0
426.07,180.0
426.13,169.0
426.19,163.0
426.26,164.0
426.32,162.0
426.38,145.0
426.45,138.0
426.51,162.0
426.57,167.0
426.64,144.0
426.7,124.0
426.76,135.0
426.82,159.0
426.89,133.0
426.95,144.0
427.01,100.0
427.08,123.0
427.14,137.0
427.2,121.0
427.27,137.0
427.33,154.0
427.39,167.0
427.45,150.0
427.52,142.0
427.58,140.0
427.64,142.0
427.71,145.0
427.77,144.0
427.83,128.0
427.9,127.0
427.96,141.0
428.02,138.0
428.08,133.0
428.15,136.0
428.21,145.0
428.27,141.0
428.34,118.0
428.4,150.0
428.46,142.0
428.53,122.0
428.59,125.0
428.65,125.0
428.71,132.0
428.78,118.0
428.84,134.0
428.9,151.0
428.97,155.0
429.03,144.0
429.09,124.0
429.16,139.0
429.22,157.0
429.28,170.0
429.34,135.0
429.41,136.0
429.47,151.0
429.53,141.0
429.6,135.0
429.66,157.0
429.72,154.0
429.79,135.0
429.85,148.0
429.91,147.0
429.97,153.0
430.04,138.0
430.1,140.0
430.16,146.0
430.23,135.0
430.29,149.0
430.35,153.0
430.42,160.0
430.48,160.0
430.54,180.0
430.6,172.0
430.67,147.0
430.73,152.0
430.79,142.0
430.86,155.0
430.92,161.0
430.98,191.0
431.05,184.0
431.11,177.0
431.17,177.0
431.23,163.0
431.3,191.0
431.36,178.0
431.42,175.0
431.49,175.0
431.55,185.0
431.61,184.0
431.68,191.0
431.74,168.0
431.8,166.0
431.86,166.0
431.93,169.0
431.99,154.0
432.05,148.0
432.12,142.0
432.18,157.0
432.24,158.0
432.31,141.0
432.37,147.0
432.43,139.0
432.49,140.0
432.56,137.0
432.62,133.0
432.68,137.0
432.75,117.0
432.81,131.0
432.87,146.0
432.94,129.0
433.0,129.0
433.06,92.0
433.12,115.0
433.19,126.0
433.25,120.0
433.31,111.0
433.38,95.0
433.44,114.0
433.5,131.0
433.57,110.0
433.63,75.0
433.69,73.0
433.75,106.0
433.82,93.0
433.88,91.0
433.94,86.0
434.01,87.0
434.07,75.0
434.13,86.0
434.2,97.0
434.26,100.0
434.32,92.0
434.38,111.0
434.45,107.0
434.51,107.0
434.57,114.0
434.64,111.0
434.7,85.0
434.76,85.0
434.83,91.0
434.89,101.0
434.95,64.0
435.01,88.0
435.08,82.0
435.14,97.0
435.2,107.0
435.27,89.0
435.33,99.0
435.39,98.0
435.46,88.0
435.52,103.0
435.58,98.0
435.64,102.0
435.71,96.0
435.77,80.0
435.83,81.0
435.9,96.0
435.96,81.0
436.02,111.0
436.09,124.0
436.15,108.0
436.21,115.0
436.27,102.0
436.34,113.0
436.4,113.0
436.46,152.0
436.53,132.0
436.59,111.0
436.65,131.0
436.72,131.0
436.78,133.0
436.84,123.0
436.9,129.0
436.97,144.0
437.03,146.0
437.09,143.0
437.16,150.0
437.22,125.0
437.28,114.0
437.35,122.0
437.41,114.0
437.47,140.0
437.53,137.0
437.6,103.0
437.66,101.0
437.72,85.0
437.79,100.0
437.85,113.0
437.91,112.0
437.98,116.0
438.04,107.0
438.1,89.0
438.16,114.0
438.23,95.0
438.29,70.0
438.35,108.0
438.42,105.0
438.48,131.0
438.54,96.0
438.61,92.0
438.67,107.0
438.73,105.0
438.79,112.0
438.86,122.0
438.92,119.0
438.98,88.0
439.05,101.0
439.11,93.0
439.17,85.0
439.24,97.0
439.3,100.0
439.36,96.0
439.42,128.0
439.49,108.0
439.55,68.0
439.61,89.0
439.68,107.0
439.74,89.0
439.8,86.0
439.87,91.0
439.93,124.0
439.99,113.0
440.05,94.0
440.12,104.0
440.18,142.0
440.24,132.0
440.31,127.0
440.37,130.0
440.43,140.0
440.5,140.0
440.56,143.0
440.62,145.0
440.68,144.0
440.75,121.0
440.81,144.0
440.87,142.0
440.94,137.0
441.0,133.0
441.06,113.0
441.13,114.0
441.19,123.0
441.25,125.0
441.31,108.0
441.38,104.0
441.44,94.0
441.5,115.0
441.57,103.0
441.63,86.0
441.69,70.0
441.76,84.0
441.82,102.0
441.88,86.0
441.94,102.0
442.01,109.0
442.07,111.0
442.13,100.0
442.2,106.0
442.26,115.0
442.32,106.0
442.39,102.0
442.45,108.0
442.51,107.0
442.57,110.0
442.64,132.0
442.7,101.0
442.76,131.0
442.83,133.0
442.89,142.0
442.95,155.0
443.02,144.0
443.08,137.0
443.14,120.0
443.2,114.0
443.27,115.0
443.33,125.0
443.39,133.0
443.46,118.0
443.52,111.0
443.58,109.0
443.65,98.0
443.71,96.0
443.77,93.0
443.83,113.0
443.9,126.0
443.96,115.0
444.02,119.0
444.09,113.0
444.15,109.0
444.21,104.0
444.28,104.0
444.34,131.0
444.4,135.0
444.46,122.0
444.53,129.0
444.59,111.0
444.65,103.0
444.72,130.0
444.78,124.0
444.84,130.0
444.91,129.0
444.97,119.0
445.03,112.0
445.09,114.0
445.16,117.0
445.22,106.0
445.28,121.0
445.35,117.0
445.41,120.0
445.47,121.0
445.54,124.0
445.6,132.0
445.66,123.0
445.72,156.0
445.79,157.0
445.85,158.0
445.91,165.0
445.98,142.0
446.04,123.0
446.1,146.0
446.17,156.0
446.23,132.0
446.29,139.0
446.35,130.0
446.42,144.0
446.48,125.0
446.54,136.0
446.61,140.0
446.67,144.0
446.73,156.0
446.8,144.0
446.86,168.0
446.92,159.0
446.98,155.0
447.05,169.0
447.11,168.0
447.17,168.0
447.24,186.0
447.3,179.0
447.36,171.0
447.43,167.0
447.49,170.0
447.55,182.0
447.61,181.0
447.68,179.0
447.74,181.0
447.8,176.0
447.87,159.0
447.93,180.0
447.99,187.0
448.06,166.0
448.12,151.0
448.18,170.0
448.24,168.0
448.31,180.0
448.37,171.0
448.43,188.0
448.5,167.0
448.56,169.0
448.62,152.0
448.69,144.0
448.75,143.0
448.81,123.0
448.87,135.0
448.94,149.0
449.0,143.0
449.06,155.0
449.13,122.0
449.19,115.0
449.25,109.0
449.32,115.0
449.38,126.0
449.44,121.0
449.5,129.0
449.57,109.0
449.63,95.0
449.69,88.0
449.76,80.0
449.82,124.0
449.88,121.0
449.95,116.0
450.01,129.0
450.07,108.0
450.13,86.0
450.2,106.0
450.26,119.0
450.32,95.0
450.39,95.0
450.45,89.0
450.51,110.0
450.58,95.0
450.64,96.0
450.7,99.0
450.76,116.0
450.83,108.0
450.89,102.0
450.95,119.0
451.02,104.0
451.08,89.0
451.14,122.0
451.21,107.0
451.27,96.0
451.33,115.0
451.39,100.0
451.46,95.0
451.52,90.0
451.58,89.0
451.65,83.0
451.71,89.0
451.77,91.0
451.84,85.0
451.9,87.0
451.96,90.0
452.02,95.0
452.09,80.0
452.15,82.0
452.21,68.0
452.28,97.0
452.34,85.0
452.4,106.0
452.47,119.0
452.53,77.0
452.59,81.0
452.65,89.0
452.72,81.0
452.78,94.0
452.84,80.0
452.91,94.0
452.97,99.0
453.03,104.0
453.1,118.0
453.16,111.0
453.22,107.0
453.28,100.0
453.35,102.0
453.41,95.0
453.47,104.0
453.54,96.0
453.6,84.0
453.66,96.0
453.73,74.0
453.79,72.0
453.85,82.0
453.91,45.0
453.98,60.0
454.04,60.0
454.1,65.0
454.17,70.0
454.23,80.0
454.29,67.0
454.36,72.0
454.42,65.0
454.48,67.0
454.54,41.0
454.61,49.0
454.67,70.0
454.73,61.0
454.8,41.0
454.86,35.0
454.92,30.0
454.99,24.0
455.05,41.0
455.11,28.0
455.17,42.0
455.24,39.0
455.3,33.0
455.36,50.0
455.43,39.0
455.49,53.0
455.55,54.0
455.62,55.0
455.68,82.0
455.74,58.0
455.8,63.0
455.87,46.0
455.93,29.0
455.99,33.0
456.06,52.0
456.12,66.0
456.18,82.0
456.25,75.0
456.31,69.0
456.37,83.0
456.43,80.0
456.5,83.0
456.56,92.0
456.62,103.0
456.69,88.0
456.75,80.0
456.81,83.0
456.88,73.0
456.94,99.0
457.0,96.0
457.06,74.0
457.13,71.0
457.19,93.0
457.25,94.0
457.32,74.0
457.38,72.0
457.44,61.0
457.51,75.0
457.57,59.0
457.63,61.0
457.69,58.0
457.76,61.0
457.82,74.0
457.88,87.0
457.95,80.0
458.01,75.0
458.07,52.0
458.14,48.0
458.2,35.0
458.26,45.0
458.32,56.0
458.39,49.0
458.45,44.0
458.51,77.0
458.58,80.0
458.64,73.0
458.7,44.0
458.77,44.0
458.83,46.0
458.89,43.0
458.95,60.0
459.02,92.0
459.08,85.0
459.14,56.0
459.21,64.0
459.27,62.0
459.33,55.0
459.4,69.0
459.46,50.0
459.52,60.0
459.58,74.0
459.65,65.0
459.71,76.0
459.77,81.0
459.84,64.0
459.9,75.0
459.96,61.0
460.03,52.0
460.09,66.0
460.15,57.0
460.21,65.0
460.28,70.0
460.34,53.0
460.4,58.0
460.47,64.0
460.53,49.0
460.59,61.0
460.66,37.0
460.72,36.0
460.78,22.0
460.84,38.0
460.91,34.0
460.97,54.0
461.03,71.0
461.1,60.0
461.16,63.0
461.22,55.0
461.29,67.0
461.35,38.0
461.41,80.0
461.47,71.0
461.54,80.0
461.6,88.0
461.66,84.0
461.73,85.0
461.79,80.0
461.85,81.0
461.92,77.0
461.98,74.0
462.04,69.0
462.1,65.0
462.17,86.0
462.23,81.0
462.29,88.0
462.36,96.0
462.42,85.0
462.48,75.0
462.55,70.0
462.61,40.0
462.67,52.0
462.73,42.0
462.8,79.0
462.86,72.0
462.92,78.0
462.99,74.0
463.05,63.0
463.11,68.0
463.18,60.0
463.24,58.0
463.3,74.0
463.36,81.0
463.43,74.0
463.49,61.0
463.55,59.0
463.62,77.0
463.68,89.0
463.74,87.0
463.81,89.0
463.87,86.0
463.93,99.0
463.99,97.0
464.06,98.0
464.12,98.0
464.18,94.0
464.25,99.0
464.31,86.0
464.37,83.0
464.44,97.0
464.5,102.0
464.56,117.0
464.62,113.0
464.69,93.0
464.75,94.0
464.81,93.0
464.88,96.0
464.94,87.0
465.0,64.0
465.07,81.0
465.13,71.0
465.19,72.0
465.25,67.0
465.32,66.0
465.38,75.0
465.44,64.0
465.51,67.0
465.57,80.0
465.63,61.0
465.7,54.0
465.76,66.0
465.82,50.0
465.88,49.0
465.95,52.0
466.01,53.0
466.07,51.0
466.14,48.0
466.2,48.0
466.26,56.0
466.33,44.0
466.39,46.0
466.45,54.0
466.51,44.0
466.58,41.0
466.64,39.0
466.7,33.0
466.77,31.0
466.83,16.0
466.89,38.0
466.96,45.0
467.02,64.0
467.08,64.0
467.14,29.0
467.21,55.0
467.27,50.0
467.33,42.0
467.4,60.0
467.46,52.0
467.52,71.0
467.59,64.0
467.65,57.0
467.71,56.0
467.77,88.0
467.84,85.0
467.9,77.0
467.96,78.0
468.03,74.0
468.09,96.0
468.15,100.0
468.22,95.0
468.28,75.0
468.34,76.0
468.4,69.0
468.47,97.0
468.53,86.0
468.59,85.0
468.66,93.0
468.72,89.0
468.78,101.0
468.85,70.0
468.91,74.0
468.97,96.0
469.03,108.0
469.1,121.0
469.16,101.0
469.22,83.0
469.29,63.0
469.35,93.0
469.41,103.0
469.48,105.0
469.54,106.0
469.6,111.0
469.66,95.0
469.73,98.0
469.79,101.0
469.85,95.0
469.92,92.0
469.98,105.0
470.04,114.0
470.11,96.0
470.17,112.0
470.23,121.0
470.29,124.0
470.36,125.0
470.42,109.0
470.48,125.0
470.55,139.0
470.61,133.0
470.67,126.0
470.74,114.0
470.8,116.0
470.86,110.0
470.92,107.0
470.99,114.0
471.05,108.0
471.11,122.0
471.18,114.0
471.24,114.0
471.3,97.0
471.37,88.0
471.43,105.0
471.49,88.0
471.55,97.0
471.62,78.0
471.68,78.0
471.74,116.0
471.81,124.0
471.87,117.0
471.93,99.0
472.0,95.0
472.06,98.0
472.12,115.0
472.18,111.0
472.25,110.0
472.31,76.0
472.37,68.0
472.44,86.0
472.5,72.0
472.56,94.0
472.63,111.0
472.69,93.0
472.75,119.0
472.81,98.0
472.88,88.0
472.94,113.0
473.0,108.0
473.07,80.0
473.13,85.0
473.19,92.0
473.26,104.0
473.32,73.0
473.38,79.0
473.44,92.0
473.51,91.0
473.57,97.0
473.63,100.0
473.7,101.0
473.76,97.0
473.82,96.0
473.89,107.0
473.95,129.0
474.01,132.0
474.07,93.0
474.14,113.0
474.2,135.0
474.26,118.0
474.33,100.0
474.39,112.0
474.45,103.0
474.52,94.0
474.58,101.0
474.64,100.0
474.7,102.0
474.77,89.0
474.83,93.0
474.89,96.0
474.96,94.0
475.02,108.0
475.08,98.0
475.15,90.0
475.21,91.0
475.27,96.0
475.33,89.0
475.4,86.0
475.46,80.0
475.52,72.0
475.59,82.0
475.65,73.0
475.71,86.0
475.78,91.0
475.84,94.0
475.9,84.0
475.96,68.0
476.03,87.0
476.09,90.0
476.15,107.0
476.22,100.0
476.28,92.0
476.34,82.0
476.41,69.0
476.47,57.0
476.53,76.0
476.59,59.0
476.66,70.0
476.72,92.0
476.78,83.0
476.85,82.0
476.91,71.0
476.97,73.0
477.04,98.0
477.1,102.0
477.16,100.0
477.22,79.0
477.29,105.0
477.35,87.0
477.41,86.0
477.48,89.0
477.54,81.0
477.6,90.0
477.67,76.0
477.73,86.0
477.79,84.0
477.85,92.0
477.92,100.0
477.98,91.0
478.04,99.0
478.11,110.0
478.17,116.0
478.23,97.0
478.3,88.0
478.36,95.0
478.42,95.0
478.48,92.0
478.55,99.0
478.61,89.0
478.67,111.0
478.74,92.0
478.8,86.0
478.86,95.0
478.93,98.0
478.99,83.0
479.05,92.0
479.11,84.0
479.18,85.0
479.24,114.0
479.3,105.0
479.37,103.0
479.43,117.0
479.49,111.0
479.56,119.0
479.62,113.0
479.68,96.0
479.74,107.0
479.81,99.0
479.87,113.0
479.93,113.0
480.0,107.0
480.06,121.0
480.12,80.0
480.19,73.0
480.25,76.0
480.31,100.0
480.37,115.0
480.44,110.0
480.5,104.0
480.56,82.0
480.63,93.0
480.69,107.0
480.75,123.0
480.82,115.0
480.88,106.0
480.94,114.0
481.0,100.0
481.07,113.0
481.13,130.0
481.19,122.0
481.26,124.0
481.32,118.0
481.38,111.0
481.45,114.0
481.51,118.0
481.57,133.0
481.63,133.0
481.7,127.0
481.76,138.0
481.82,124.0
481.89,144.0
481.95,143.0
482.01,119.0
482.08,140.0
482.14,143.0
482.2,139.0
482.26,142.0
482.33,132.0
482.39,122.0
482.45,125.0
482.52,123.0
482.58,129.0
482.64,137.0
482.71,117.0
482.77,113.0
482.83,126.0
482.89,116.0
482.96,128.0
483.02,108.0
483.08,116.0
483.15,103.0
483.21,108.0
483.27,113.0
483.34,115.0
483.4,136.0
483.46,127.0
483.52,133.0
483.59,132.0
483.65,122.0
483.71,129.0
483.78,129.0
483.84,136.0
483.9,138.0
483.97,120.0
484.03,84.0
484.09,91.0
484.15,114.0
484.22,110.0
484.28,100.0
484.34,104.0
484.41,99.0
484.47,122.0
484.53,133.0
484.6,121.0
484.66,135.0
484.72,125.0
484.78,136.0
484.85,151.0
484.91,141.0
484.97,133.0
485.04,138.0
485.1,144.0
485.16,150.0
485.23,143.0
485.29,131.0
485.35,136.0
485.41,134.0
485.48,154.0
485.54,162.0
485.6,143.0
485.67,155.0
485.73,163.0
485.79,180.0
485.86,165.0
485.92,162.0
485.98,135.0
486.04,159.0
486.11,150.0
486.17,162.0
486.23,146.0
486.3,150.0
486.36,155.0
486.42,162.0
486.49,147.0
486.55,155.0
486.61,161.0
486.67,168.0
486.74,188.0
486.8,167.0
486.86,184.0
486.93,173.0
486.99,154.0
487.05,170.0
487.12,155.0
487.18,149.0
487.24,162.0
487.3,157.0
487.37,152.0
487.43,168.0
487.49,167.0
487.56,170.0
487.62,188.0
487.68,184.0
487.75,180.0
487.81,174.0
487.87,168.0
487.93,158.0
488.0,176.0
488.06,156.0
488.12,137.0
488.19,164.0
488.25,142.0
488.31,141.0
488.38,139.0
488.44,123.0
488.5,131.0
488.56,147.0
488.63,141.0
488.69,128.0
488.75,149.0
488.82,109.0
488.88,124.0
488.94,134.0
489.01,107.0
489.07,122.0
489.13,149.0
489.19,142.0
489.26,140.0
489.32,137.0
489.38,138.0
489.45,124.0
489.51,118.0
489.57,124.0
489.64,135.0
489.7,120.0
489.76,127.0
489.82,135.0
489.89,103.0
489.95,104.0
490.01,105.0
490.08,120.0
490.14,108.0
490.2,100.0
490.27,116.0
490.33,123.0
490.39,107.0
490.45,107.0
490.52,110.0
490.58,111.0
490.64,108.0
490.71,92.0
490.77,92.0
490.83,99.0
490.9,99.0
490.96,91.0
491.02,94.0
491.08,94.0
491.15,88.0
491.21,79.0
491.27,55.0
491.34,85.0
491.4,103.0
491.46,117.0
491.53,115.0
491.59,117.0
491.65,109.0
491.71,100.0
491.78,112.0
491.84,94.0
491.9,94.0
491.97,93.0
492.03,89.0
492.09,101.0
492.16,103.0
492.22,74.0
492.28,108.0
492.34,111.0
492.41,113.0
492.47,123.0
492.53,110.0
492.6,100.0
492.66,97.0
492.72,107.0
492.79,104.0
492.85,110.0
492.91,92.0
492.97,117.0
493.04,105.0
493.1,103.0
493.16,92.0
493.23,81.0
493.29,91.0
493.35,74.0
493.42,83.0
493.48,85.0
493.54,90.0
493.6,83.0
493.67,74.0
493.73,99.0
493.79,99.0
493.86,124.0
493.92,118.0
493.98,120.0
494.05,111.0
494.11,105.0
494.17,102.0
494.23,86.0
494.3,115.0
494.36,112.0
494.42,107.0
494.49,95.0
494.55,111.0
494.61,122.0
494.68,109.0
494.74,118.0
494.8,122.0
494.86,126.0
494.93,114.0
494.99,114.0
495.05,119.0
495.12,108.0
495.18,110.0
495.24,99.0
495.31,111.0
495.37,131.0
495.43,140.0
495.49,105.0
495.56,122.0
495.62,101.0
495.68,109.0
495.75,113.0
495.81,111.0
495.87,133.0
495.94,143.0
496.0,121.0
496.06,119.0
496.12,116.0
496.19,129.0
496.25,163.0
496.31,152.0
496.38,145.0
496.44,129.0
496.5,144.0
496.57,149.0
496.63,130.0
496.69,110.0
496.75,118.0
496.82,147.0
496.88,133.0
496.94,137.0
497.01,125.0
497.07,118.0
497.13,139.0
497.2,138.0
497.26,158.0
497.32,162.0
497.38,144.0
497.45,158.0
497.51,168.0
497.57,168.0
497.64,140.0
497.7,157.0
497.76,154.0
497.83,142.0
497.89,145.0
497.95,152.0
498.01,132.0
498.08,126.0
498.14,133.0
498.2,130.0
498.27,139.0
498.33,126.0
498.39,144.0
498.46,136.0
498.52,166.0
498.58,154.0
498.64,132.0
498.71,153.0
498.77,145.0
498.83,141.0
498.9,129.0
498.96,125.0
499.02,124.0
499.09,118.0
499.15,139.0
499.21,137.0
499.27,140.0
499.34,128.0
499.4,127.0
499.46,141.0
499.53,135.0
499.59,113.0
499.65,114.0
499.72,127.0
499.78,113.0
499.84,107.0
499.9,102.0
499.97,126.0
500.03,126.0
500.09,125.0
500.16,119.0
500.22,132.0
500.28,119.0
500.35,122.0
500.41,116.0
500.47,102.0
500.53,116.0
500.6,102.0
500.66,75.0
500.72,93.0
500.79,108.0
500.85,99.0
500.91,92.0
500.98,99.0
501.04,110.0
501.1,111.0
501.16,120.0
501.23,119.0
501.29,105.0
501.35,113.0
501.42,114.0
501.48,100.0
501.54,107.0
501.61,135.0
501.67,126.0
501.73,116.0
501.79,129.0
501.86,111.0
501.92,104.0
501.98,138.0
502.05,139.0
502.11,121.0
502.17,118.0
502.24,132.0
502.3,124.0
502.36,113.0
502.42,146.0
502.49,138.0
502.55,122.0
502.61,109.0
502.68,123.0
502.74,100.0
502.8,102.0
502.87,103.0
502.93,118.0
502.99,117.0
503.05,119.0
503.12,122.0
503.18,111.0
503.24,115.0
503.31,106.0
503.37,103.0
503.43,114.0
503.5,116.0
503.56,111.0
503.62,119.0
503.68,126.0
503.75,118.0
503.81,119.0
503.87,116.0
503.94,114.0
504.0,126.0
504.06,132.0
504.13,122.0
504.19,111.0
504.25,122.0
504.31,131.0
504.38,127.0
504.44,129.0
504.5,136.0
504.57,133.0
504.63,120.0
504.69,122.0
504.76,118.0
504.82,129.0
504.88,128.0
504.94,114.0
505.01,113.0
505.07,118.0
505.13,116.0
505.2,125.0
505.26,102.0
505.32,111.0
505.39,110.0
505.45,101.0
505.51,97.0
505.57,106.0
505.64,93.0
505.7,89.0
505.76,102.0
505.83,101.0
505.89,107.0
505.95,109.0
506.02,111.0
506.08,91.0
506.14,66.0
506.2,83.0
506.27,104.0
506.33,88.0
506.39,94.0
506.46,96.0
506.52,90.0
506.58,99.0
506.65,104.0
506.71,83.0
506.77,99.0
506.83,107.0
506.9,90.0
506.96,78.0
507.02,69.0
507.09,81.0
507.15,83.0
507.21,82.0
507.28,91.0
507.34,92.0
507.4,100.0
507.46,119.0
507.53,115.0
507.59,118.0
507.65,115.0
507.72,117.0
507.78,138.0
507.84,139.0
507.91,151.0
507.97,143.0
508.03,141.0
508.09,129.0
508.16,133.0
508.22,119.0
508.28,96.0
508.35,94.0
508.41,104.0
508.47,99.0
508.54,69.0
508.6,90.0
508.66,83.0
508.72,79.0
508.79,85.0
508.85,83.0
508.91,85.0
508.98,54.0
509.04,89.0
509.1,79.0
509.17,66.0
509.23,78.0
509.29,74.0
509.35,74.0
509.42,75.0
509.48,75.0
509.54,70.0
509.61,63.0
509.67,59.0
509.73,70.0
509.8,78.0
509.86,68.0
509.92,78.0
509.98,91.0
510.05,104.0
510.11,81.0
510.17,69.0
510.24,91.0
510.3,75.0
510.36,74.0
510.43,84.0
510.49,83.0
510.55,76.0
510.61,64.0
510.68,61.0
510.74,70.0
510.8,77.0
510.87,74.0
510.93,78.0
510.99,86.0
511.06,81.0
511.12,65.0
511.18,93.0
511.24,66.0
511.31,77.0
511.37,91.0
511.43,86.0
511.5,78.0
511.56,74.0
511.62,88.0
511.69,80.0
511.75,63.0
511.81,59.0
511.87,60.0
511.94,59.0
512.0,79.0
512.06,64.0
512.13,63.0
512.19,84.0
512.25,75.0
512.32,66.0
512.38,63.0
512.44,80.0
512.5,85.0
512.57,67.0
512.63,78.0
512.69,78.0
512.76,58.0
512.82,70.0
512.88,70.0
512.95,67.0
513.01,69.0
513.07,74.0
513.13,83.0
513.2,67.0
513.26,94.0
513.32,96.0
513.39,75.0
513.45,85.0
513.51,85.0
513.58,99.0
513.64,101.0
513.7,94.0
513.76,79.0
513.83,94.0
513.89,86.0
513.95,80.0
514.02,97.0
514.08,81.0
514.14,99.0
514.21,120.0
514.27,80.0
514.33,95.0
514.39,100.0
514.46,97.0
514.52,105.0
514.58,114.0
514.65,133.0
514.71,116.0
514.77,117.0
514.84,127.0
514.9,116.0
514.96,112.0
515.02,120.0
515.09,128.0
515.15,115.0
515.21,111.0
515.28,109.0
515.34,110.0
515.4,99.0
515.47,99.0
515.53,106.0
515.59,114.0
515.65,80.0
515.72,73.0
515.78,79.0
515.84,78.0
515.91,67.0
515.97,85.0
516.03,78.0
516.1,69.0
516.16,72.0
516.22,51.0
516.28,66.0
516.35,51.0
516.41,47.0
516.47,56.0
516.54,41.0
516.6,56.0
516.66,48.0
516.73,45.0
516.79,59.0
516.85,70.0
516.91,57.0
516.98,60.0
517.04,53.0
517.1,58.0
517.17,62.0
517.23,70.0
517.29,55.0
517.36,48.0
517.42,79.0
517.48,57.0
517.54,49.0
517.61,47.0
517.67,29.0
517.73,38.0
517.8,23.0
517.86,42.0
517.92,33.0
517.99,30.0
518.05,35.0
518.11,35.0
518.17,52.0
518.24,48.0
518.3,64.0
518.36,53.0
518.43,62.0
518.49,35.0
518.55,38.0
518.62,43.0
518.68,31.0
518.74,49.0
518.8,39.0
518.87,45.0
518.93,48.0
518.99,33.0
519.06,37.0
519.12,42.0
519.18,55.0
519.25,64.0
519.31,55.0
519.37,66.0
519.43,75.0
519.5,86.0
519.56,88.0
519.62,80.0
519.69,66.0
519.75,49.0
519.81,38.0
519.88,48.0
519.94,53.0
520.0,77.0
520.06,77.0
520.13,69.0
520.19,77.0
520.25,66.0
520.32,58.0
520.38,53.0
520.44,68.0
520.51,76.0
520.57,66.0
520.63,50.0
520.69,42.0
520.76,56.0
520.82,55.0
520.88,63.0
520.95,73.0
521.01,68.0
521.07,59.0
521.14,54.0
521.2,72.0
521.26,70.0
521.32,62.0
521.39,68.0
521.45,66.0
521.51,60.0
521.58,63.0
521.64,50.0
521.7,68.0
521.77,64.0
521.83,80.0
521.89,67.0
521.95,56.0
522.02,77.0
522.08,88.0
522.14,83.0
522.21,98.0
522.27,84.0
522.33,81.0
522.4,77.0
522.46,81.0
522.52,89.0
522.58,71.0
522.65,60.0
522.71,70.0
522.77,62.0
522.84,45.0
522.9,45.0
522.96,65.0
523.03,58.0
523.09,49.0
523.15,65.0
523.21,74.0
523.28,92.0
523.34,89.0
523.4,72.0
523.47,69.0
523.53,77.0
523.59,81.0
523.66,66.0
523.72,65.0
523.78,67.0
523.84,50.0
523.91,58.0
523.97,53.0
524.03,59.0
524.1,74.0
524.16,59.0
524.22,79.0
524.29,82.0
524.35,71.0
524.41,89.0
524.47,61.0
524.54,68.0
524.6,83.0
524.66,72.0
524.73,90.0
524.79,80.0
524.85,82.0
524.92,75.0
524.98,90.0
525.04,107.0
525.1,90.0
525.17,92.0
525.23,95.0
525.29,84.0
525.36,74.0
525.42,114.0
525.48,104.0
525.55,104.0
525.61,98.0
525.67,98.0
525.73,117.0
525.8,111.0
525.86,105.0
525.92,106.0
525.99,102.0
526.05,105.0
526.11,85.0
526.18,103.0
526.24,102.0
526.3,89.0
526.36,106.0
526.43,122.0
526.49,99.0
526.55,86.0
526.62,84.0
526.68,90.0
526.74,97.0
526.81,99.0
526.87,79.0
526.93,83.0
526.99,74.0
527.06,64.0
527.12,90.0
527.18,111.0
527.25,138.0
527.31,121.0
527.37,110.0
527.44,129.0
527.5,97.0
527.56,96.0
527.62,96.0
527.69,100.0
527.75,121.0
527.81,112.0
527.88,108.0
527.94,139.0
528.0,129.0
528.07,129.0
528.13,136.0
528.19,123.0
528.25,121.0
528.32,116.0
528.38,135.0
528.44,127.0
528.51,123.0
528.57,134.0
528.63,149.0
528.7,141.0
528.76,130.0
528.82,137.0
528.88,165.0
528.95,151.0
529.01,142.0
529.07,152.0
529.14,136.0
529.2,149.0
529.26,162.0
529.33,161.0
529.39,150.0
529.45,166.0
529.51,169.0
529.58,150.0
529.64,165.0
529.7,173.0
529.77,158.0
529.83,175.0
529.89,175.0
529.96,173.0
530.02,157.0
530.08,165.0
530.14,159.0
530.21,152.0
530.27,151.0
530.33,156.0
530.4,165.0
530.46,162.0
530.52,167.0
530.59,173.0
530.65,188.0
530.71,174.0
530.77,195.0
530.84,195.0
530.9,191.0
530.96,188.0
531.03,160.0
531.09,166.0
531.15,174.0
531.22,188.0
531.28,169.0
531.34,181.0
531.4,174.0
531.47,173.0
531.53,166.0
531.59,151.0
531.66,163.0
531.72,175.0
531.78,170.0
531.85,162.0
531.91,163.0
531.97,177.0
532.03,155.0
532.1,163.0
532.16,159.0
532.22,167.0
532.29,143.0
532.35,120.0
532.41,111.0
532.48,116.0
532.54,132.0
532.6,144.0
532.66,120.0
532.73,129.0
532.79,136.0
532.85,131.0
532.92,122.0
532.98,129.0
533.04,142.0
533.11,127.0
533.17,121.0
533.23,119.0
533.29,118.0
533.36,141.0
533.42,141.0
533.48,161.0
533.55,154.0
533.61,146.0
533.67,147.0
533.74,167.0
533.8,140.0
533.86,142.0
533.92,143.0
533.99,145.0
534.05,150.0
534.11,141.0
534.18,132.0
534.24,148.0
534.3,159.0
534.37,144.0
534.43,138.0
534.49,131.0
534.55,136.0
534.62,132.0
534.68,129.0
534.74,125.0
534.81,134.0
534.87,133.0
534.93,143.0
535.0,152.0
535.06,126.0
535.12,130.0
535.18,127.0
535.25,133.0
535.31,137.0
535.37,116.0
535.44,136.0
535.5,118.0
535.56,114.0
535.63,116.0
535.69,114.0
535.75,119.0
535.81,129.0
535.88,141.0
535.94,129.0
536.0,125.0
536.07,145.0
536.13,129.0
536.19,153.0
536.26,139.0
536.32,118.0
536.38,128.0
536.44,127.0
536.51,126.0
536.57,148.0
536.63,145.0
536.7,169.0
536.76,166.0
536.82,162.0
536.89,169.0
536.95,156.0
537.01,162.0
537.07,166.0
537.14,176.0
537.2,167.0
537.26,166.0
537.33,171.0
537.39,155.0
537.45,166.0
537.52,164.0
537.58,174.0
537.64,175.0
537.7,160.0
537.77,174.0
537.83,155.0
537.89,146.0
537.96,141.0
538.02,143.0
538.08,153.0
538.15,142.0
538.21,141.0
538.27,155.0
538.33,136.0
538.4,147.0
538.46,140.0
538.52,134.0
538.59,155.0
538.65,159.0
538.71,166.0
538.78,158.0
538.84,172.0
538.9,151.0
538.96,152.0
539.03,177.0
539.09,150.0
539.15,149.0
539.22,123.0
539.28,118.0
539.34,115.0
539.41,111.0
539.47,118.0
539.53,100.0
539.59,104.0
539.66,107.0
539.72,96.0
539.78,101.0
539.85,115.0
539.91,117.0
539.97,119.0
540.04,124.0
540.1,114.0
540.16,97.0
540.22,122.0
540.29,107.0
540.35,137.0
540.41,129.0
540.48,122.0
540.54,115.0
540.6,125.0
540.67,106.0
540.73,115.0
540.79,110.0
540.85,111.0
540.92,121.0
540.98,106.0
541.04,99.0
541.11,107.0
541.17,105.0
541.23,108.0
541.3,92.0
541.36,94.0
541.42,100.0
541.48,83.0
541.55,96.0
541.61,105.0
541.67,94.0
541.74,109.0
541.8,114.0
541.86,102.0
541.93,96.0
541.99,112.0
542.05,85.0
542.11,84.0
542.18,78.0
542.24,84.0
542.3,89.0
542.37,88.0
542.43,97.0
542.49,97.0
542.56,81.0
542.62,75.0
542.68,66.0
542.74,82.0
542.81,67.0
542.87,63.0
542.93,44.0
543.0,26.0
543.06,50.0
543.12,59.0
543.19,59.0
543.25,55.0
543.31,39.0
543.37,30.0
543.44,15.0
543.5,32.0
543.56,34.0
543.63,41.0
543.69,42.0
543.75,41.0
543.82,58.0
543.88,66.0
543.94,59.0
544.0,60.0
544.07,59.0
544.13,52.0
544.19,71.0
544.26,59.0
544.32,47.0
544.38,55.0
544.45,37.0
544.51,39.0
544.57,35.0
544.63,25.0
544.7,13.0
544.76,29.0
544.82,17.0
544.89,8.0
544.95,39.0
545.01,46.0
545.08,39.0
545.14,39.0
545.2,42.0
545.26,50.0
545.33,42.0
545.39,42.0
545.45,58.0
545.52,57.0
545.58,55.0
545.64,63.0
545.71,67.0
545.77,70.0
545.83,58.0
545.89,44.0
545.96,61.0
546.02,53.0
546.08,70.0
546.15,89.0
546.21,94.0
546.27,86.0
546.34,83.0
546.4,82.0
546.46,74.0
546.52,84.0
546.59,76.0
546.65,63.0
546.71,59.0
546.78,54.0
546.84,46.0
546.9,40.0
546.97,41.0
547.03,52.0
547.09,42.0
547.15,48.0
547.22,36.0
547.28,53.0
547.34,58.0
547.41,53.0
547.47,51.0
547.53,49.0
547.6,79.0
547.66,74.0
547.72,90.0
547.78,118.0
547.85,93.0
547.91,78.0
547.97,91.0
548.04,110.0
548.1,94.0
548.16,90.0
548.23,94.0
548.29,106.0
548.35,94.0
548.41,75.0
548.48,86.0
548.54,89.0
548.6,90.0
548.67,93.0
548.73,94.0
548.79,103.0
548.86,86.0
548.92,89.0
548.98,103.0
549.04,86.0
549.11,102.0
549.17,82.0
549.23,84.0
549.3,68.0
549.36,69.0
549.42,81.0
549.49,81.0
549.55,78.0
549.61,85.0
549.67,103.0
549.74,97.0
549.8,83.0
549.86,93.0
549.93,86.0
549.99,96.0
550.05,104.0
550.12,107.0
550.18,96.0
550.24,97.0
550.3,98.0
550.37,78.0
550.43,99.0
550.49,86.0
550.56,86.0
550.62,108.0
550.68,115.0
550.75,107.0
550.81,89.0
550.87,93.0
550.93,105.0
551.0,118.0
551.06,77.0
551.12,89.0
551.19,73.0
551.25,75.0
551.31,93.0
551.38,90.0
551.44,90.0
551.5,121.0
551.56,116.0
551.63,113.0
551.69,89.0
551.75,96.0
551.82,100.0
551.88,96.0
551.94,93.0
552.01,91.0
552.07,86.0
552.13,94.0
552.19,111.0
552.26,131.0
552.32,131.0
552.38,134.0
552.45,132.0
552.51,118.0
552.57,162.0
552.64,144.0
552.7,151.0
552.76,160.0
552.82,147.0
552.89,137.0
552.95,125.0
553.01,127.0
553.08,117.0
553.14,120.0
553.2,124.0
553.27,121.0
553.33,135.0
553.39,107.0
553.45,124.0
553.52,118.0
553.58,117.0
553.64,131.0
553.71,132.0
553.77,143.0
553.83,160.0
553.9,144.0
553.96,152.0
554.02,158.0
554.08,151.0
554.15,160.0
554.21,147.0
554.27,144.0
554.34,133.0
554.4,122.0
554.46,143.0
554.53,149.0
554.59,157.0
554.65,158.0
554.71,155.0
554.78,178.0
554.84,155.0
554.9,163.0
554.97,164.0
555.03,176.0
555.09,146.0
555.16,160.0
555.22,160.0
555.28,170.0
555.34,161.0
555.41,158.0
555.47,149.0
555.53,140.0
555.6,157.0
555.66,143.0
555.72,157.0
555.79,127.0
555.85,137.0
555.91,159.0
555.97,152.0
556.04,137.0
556.1,152.0
556.16,156.0
556.23,165.0
556.29,148.0
556.35,137.0
556.42,129.0
556.48,140.0
556.54,139.0
556.6,152.0
556.67,166.0
556.73,166.0
556.79,166.0
556.86,152.0
556.92,175.0
556.98,166.0
557.05,171.0
557.11,155.0
557.17,167.0
557.23,179.0
557.3,162.0
557.36,174.0
557.42,164.0
557.49,170.0
557.55,159.0
557.61,158.0
557.68,169.0
557.74,185.0
557.8,171.0
557.86,158.0
557.93,145.0
557.99,149.0
558.05,149.0
558.12,129.0
558.18,129.0
558.24,133.0
558.31,135.0
558.37,147.0
558.43,136.0
558.49,133.0
558.56,126.0
558.62,110.0
558.68,124.0
558.75,130.0
558.81,124.0
558.87,135.0
558.94,127.0
559.0,116.0
559.06,103.0
559.12,75.0
559.19,94.0
559.25,104.0
559.31,95.0
559.38,111.0
559.44,96.0
559.5,99.0
559.57,99.0
559.63,103.0
559.69,103.0
559.75,126.0
559.82,110.0
559.88,106.0
559.94,101.0
560.01,90.0
560.07,87.0
560.13,82.0
560.2,78.0
560.26,92.0
560.32,107.0
560.38,94.0
560.45,94.0
560.51,83.0
560.57,93.0
560.64,85.0
560.7,89.0
560.76,85.0
560.83,88.0
560.89,65.0
560.95,68.0
561.01,55.0
561.08,63.0
561.14,80.0
561.2,59.0
561.27,75.0
561.33,67.0
561.39,64.0
561.46,66.0
561.52,54.0
561.58,69.0
561.64,73.0
561.71,65.0
561.77,61.0
561.83,62.0
561.9,76.0
561.96,73.0
562.02,50.0
562.09,51.0
562.15,44.0
562.21,45.0
562.27,33.0
562.34,52.0
562.4,59.0
562.46,63.0
562.53,68.0
562.59,70.0
562.65,61.0
562.72,51.0
562.78,60.0
562.84,71.0
562.9,64.0
562.97,73.0
563.03,100.0
563.09,81.0
563.16,83.0
563.22,78.0
563.28,101.0
563.35,108.0
563.41,94.0
563.47,108.0
563.53,116.0
563.6,118.0
563.66,118.0
563.72,96.0
563.79,97.0
563.85,111.0
563.91,120.0
563.98,110.0
564.04,114.0
564.1,121.0
564.16,108.0
564.23,110.0
564.29,80.0
564.35,89.0
564.42,94.0
564.48,93.0
564.54,110.0
564.61,110.0
564.67,96.0
564.73,100.0
564.79,120.0
564.86,108.0
564.92,93.0
564.98,96.0
565.05,98.0
565.11,100.0
565.17,111.0
565.24,104.0
565.3,105.0
565.36,120.0
565.42,119.0
565.49,121.0
565.55,102.0
565.61,96.0
565.68,83.0
565.74,104.0
565.8,99.0
565.87,91.0
565.93,103.0
565.99,91.0
566.05,85.0
566.12,89.0
566.18,111.0
566.24,91.0
566.31,107.0
566.37,92.0
566.43,72.0
566.5,88.0
566.56,89.0
566.62,83.0
566.68,98.0
566.75,82.0
566.81,81.0
566.87,91.0
566.94,94.0
567.0,100.0
567.06,81.0
567.13,104.0
567.19,94.0
567.25,85.0
567.31,89.0
567.38,68.0
567.44,81.0
567.5,85.0
567.57,105.0
567.63,111.0
567.69,112.0
567.76,94.0
567.82,84.0
567.88,90.0
567.94,90.0
568.01,86.0
568.07,83.0
568.13,60.0
568.2,90.0
568.26,88.0
568.32,86.0
568.39,75.0
568.45,67.0
568.51,74.0
568.57,63.0
568.64,61.0
568.7,72.0
568.76,77.0
568.83,82.0
568.89,68.0
568.95,45.0
569.02,64.0
569.08,50.0
569.14,69.0
569.2,62.0
569.27,35.0
569.33,32.0
569.39,59.0
569.46,63.0
569.52,72.0
569.58,87.0
569.65,75.0
569.71,63.0
569.77,79.0
569.83,92.0
569.9,113.0
569.96,111.0
570.02,83.0
570.09,85.0
570.15,95.0
570.21,111.0
570.28,110.0
570.34,87.0
570.4,111.0
570.46,110.0
570.53,121.0
570.59,127.0
570.65,122.0
570.72,97.0
570.78,71.0
570.84,92.0
570.91,99.0
570.97,98.0
571.03,103.0
571.09,85.0
571.16,77.0
571.22,83.0
571.28,82.0
571.35,108.0
571.41,91.0
571.47,113.0
571.54,113.0
571.6,96.0
571.66,94.0
571.72,93.0
571.79,92.0
571.85,99.0
571.91,121.0
571.98,89.0
572.04,107.0
572.1,100.0
572.17,88.0
572.23,119.0
572.29,118.0
572.35,84.0
572.42,94.0
572.48,100.0
572.54,89.0
572.61,71.0
572.67,67.0
572.73,87.0
572.8,80.0
572.86,67.0
572.92,72.0
572.98,76.0
573.05,75.0
573.11,62.0
573.17,64.0
573.24,44.0
573.3,74.0
573.36,78.0
573.43,59.0
573.49,87.0
573.55,86.0
573.61,85.0
573.68,100.0
573.74,94.0
573.8,74.0
573.87,67.0
573.93,91.0
573.99,108.0
574.06,92.0
574.12,96.0
574.18,90.0
574.24,92.0
574.31,70.0
574.37,64.0
574.43,70.0
574.5,56.0
574.56,91.0
574.62,74.0
574.69,86.0
574.75,97.0
574.81,115.0
574.87,93.0
574.94,89.0
575.0,84.0
575.06,93.0
575.13,113.0
575.19,95.0
575.25,91.0
575.32,98.0
575.38,115.0
575.44,121.0
575.5,116.0
575.57,113.0
575.63,110.0
575.69,94.0
575.76,110.0
575.82,107.0
575.88,88.0
575.95,89.0
576.01,90.0
576.07,96.0
576.13,97.0
576.2,102.0
576.26,128.0
576.32,121.0
576.39,100.0
576.45,95.0
576.51,94.0
576.58,89.0
576.64,83.0
576.7,85.0
576.76,93.0
576.83,77.0
576.89,76.0
576.95,85.0
577.02,87.0
577.08,84.0
577.14,78.0
577.21,89.0
577.27,97.0
577.33,97.0
577.39,88.0
577.46,112.0
577.52,94.0
577.58,104.0
577.65,97.0
577.71,96.0
577.77,96.0
577.84,89.0
577.9,96.0
577.96,94.0
578.02,84.0
578.09,87.0
578.15,115.0
578.21,121.0
578.28,91.0
578.34,103.0
578.4,93.0
578.47,98.0
578.53,96.0
578.59,95.0
578.65,114.0
578.72,110.0
578.78,104.0
578.84,108.0
578.91,104.0
578.97,104.0
579.03,100.0
579.1,112.0
579.16,126.0
579.22,108.0
579.28,112.0
579.35,119.0
579.41,118.0
579.47,132.0
579.54,127.0
579.6,123.0
579.66,121.0
579.73,122.0
579.79,124.0
579.85,120.0
579.91,131.0
579.98,131.0
580.04,126.0
580.1,130.0
580.17,125.0
580.23,123.0
580.29,134.0
580.36,129.0
580.42,132.0
580.48,117.0
580.54,129.0
580.61,110.0
580.67,132.0
580.73,134.0
580.8,110.0
580.86,133.0
580.92,124.0
580.99,146.0
581.05,133.0
581.11,129.0
581.17,143.0
581.24,141.0
581.3,149.0
581.36,162.0
581.43,161.0
581.49,146.0
581.55,152.0
581.62,162.0
581.68,176.0
581.74,174.0
581.8,176.0
581.87,161.0
581.93,159.0
581.99,157.0
582.06,144.0
582.12,140.0
582.18,152.0
582.25,170.0
582.31,151.0
582.37,163.0
582.43,141.0
582.5,165.0
582.56,181.0
582.62,160.0
582.69,177.0
582.75,160.0
582.81,177.0
582.88,170.0
582.94,155.0
583.0,153.0
583.06,162.0
583.13,165.0
583.19,176.0
583.25,171.0
583.32,157.0
583.38,156.0
583.44,165.0
583.51,158.0
583.57,151.0
583.63,160.0
583.69,143.0
583.76,154.0
583.82,154.0
583.88,152.0
583.95,133.0
584.01,128.0
584.07,138.0
584.14,123.0
584.2,116.0
584.26,124.0
584.32,104.0
584.39,96.0
584.45,85.0
584.51,102.0
584.58,116.0
584.64,97.0
584.7,90.0
584.77,108.0
584.83,116.0
584.89,108.0
584.95,93.0
585.02,114.0
585.08,111.0
585.14,96.0
585.21,107.0
585.27,84.0
585.33,109.0
585.4,97.0
585.46,78.0
585.52,93.0
585.58,86.0
585.65,89.0
585.71,94.0
585.77,105.0
585.84,100.0
585.9,100.0
585.96,104.0
586.03,96.0
586.09,83.0
586.15,107.0
586.21,111.0
586.28,119.0
586.34,137.0
586.4,122.0
586.47,117.0
586.53,117.0
586.59,114.0
586.66,123.0
586.72,110.0
586.78,119.0
586.84,130.0
586.91,130.0
586.97,124.0
587.03,118.0
587.1,106.0
587.16,90.0
587.22,105.0
587.29,105.0
587.35,105.0
587.41,95.0
587.47,75.0
587.54,75.0
587.6,91.0
587.66,113.0
587.73,89.0
587.79,103.0
587.85,102.0
587.92,96.0
587.98,100.0
588.04,100.0
588.1,109.0
588.17,99.0
588.23,111.0
588.29,110.0
588.36,126.0
588.42,108.0
588.48,119.0
588.55,144.0
588.61,127.0
588.67,129.0
588.73,120.0
588.8,114.0
588.86,123.0
588.92,137.0
588.99,131.0
589.05,125.0
589.11,132.0
589.18,125.0
589.24,113.0
589.3,113.0
589.36,140.0
589.43,128.0
589.49,122.0
589.55,106.0
589.62,120.0
589.68,117.0
589.74,108.0
589.81,106.0
589.87,102.0
589.93,110.0
589.99,118.0
590.06,146.0
590.12,140.0
590.18,126.0
590.25,120.0
590.31,127.0
590.37,125.0
590.44,146.0
590.5,145.0
590.56,136.0
590.62,134.0
590.69,130.0
590.75,145.0
590.81,145.0
590.88,138.0
590.94,143.0
591.0,142.0
591.07,115.0
591.13,130.0
591.19,118.0
591.25,125.0
591.32,148.0
591.38,142.0
591.44,133.0
591.51,126.0
591.57,113.0
591.63,119.0
591.7,120.0
591.76,118.0
591.82,124.0
591.88,113.0
591.95,112.0
592.01,96.0
592.07,112.0
592.14,122.0
592.2,122.0
592.26,114.0
592.33,114.0
592.39,104.0
592.45,108.0
592.51,108.0
592.58,110.0
592.64,103.0
592.7,90.0
592.77,91.0
592.83,112.0
592.89,107.0
592.96,105.0
593.02,98.0
593.08,89.0
593.14,94.0
593.21,86.0
593.27,80.0
593.33,104.0
593.4,87.0
593.46,92.0
593.52,72.0
593.59,75.0
593.65,54.0
593.71,54.0
593.77,71.0
593.84,63.0
593.9,77.0
593.96,77.0
594.03,77.0
594.09,86.0
594.15,65.0
594.22,64.0
594.28,74.0
594.34,85.0
594.4,85.0
594.47,88.0
594.53,78.0
594.59,89.0
594.66,97.0
594.72,75.0
594.78,97.0
594.85,98.0
594.91,116.0
594.97,105.0
595.03,107.0
595.1,110.0
595.16,83.0
595.22,91.0
595.29,115.0
595.35,111.0
595.41,109.0
595.48,116.0
595.54,102.0
595.6,118.0
595.66,118.0
595.73,112.0
595.79,119.0
595.85,130.0
595.92,141.0
595.98,133.0
596.04,125.0
596.11,144.0
596.17,144.0
596.23,158.0
596.29,144.0
596.36,127.0
596.42,128.0
596.48,131.0
596.55,136.0
596.61,134.0
596.67,122.0
596.74,121.0
596.8,120.0
596.86,122.0
596.92,136.0
596.99,143.0
597.05,146.0
597.11,140.0
597.18,142.0
597.24,155.0
597.3,133.0
597.37,144.0
597.43,138.0
597.49,134.0
597.55,127.0
597.62,146.0
597.68,148.0
597.74,137.0
597.81,143.0
597.87,146.0
597.93,151.0
598.0,136.0
598.06,137.0
598.12,150.0
598.18,135.0
598.25,138.0
598.31,136.0
598.37,140.0
598.44,129.0
598.5,121.0
598.56,135.0
598.63,122.0
598.69,139.0
598.75,121.0
598.81,100.0
598.88,107.0
598.94,129.0
599.0,139.0
599.07,114.0
599.13,126.0
599.19,129.0
599.26,119.0
599.32,133.0
599.38,123.0
599.44,136.0
599.51,124.0
599.57,118.0
599.63,127.0
599.7,116.0
599.76,103.0
599.82,102.0
599.89,103.0
599.95,118.0
600.01,107.0
600.07,129.0
600.14,135.0
600.2,111.0
600.26,114.0
600.33,111.0
600.39,114.0
600.45,91.0
600.52,111.0
600.58,96.0
600.64,113.0
600.7,118.0
600.77,93.0
600.83,111.0
600.89,95.0
600.96,103.0
601.02,85.0
601.08,80.0
601.15,96.0
601.21,104.0
601.27,78.0
601.33,73.0
601.4,63.0
601.46,73.0
601.52,63.0
601.59,80.0
601.65,92.0
601.71,96.0
601.78,85.0
601.84,85.0
601.9,87.0
601.96,80.0
602.03,78.0
602.09,74.0
602.15,94.0
602.22,89.0
602.28,110.0
602.34,105.0
602.41,94.0
602.47,108.0
602.53,105.0
602.59,107.0
602.66,112.0
602.72,100.0
602.78,110.0
602.85,103.0
602.91,99.0
602.97,106.0
603.04,111.0
603.1,100.0
603.16,113.0
603.22,89.0
603.29,96.0
603.35,89.0
603.41,97.0
603.48,108.0
603.54,108.0
603.6,110.0
603.67,99.0
603.73,111.0
603.79,118.0
603.85,136.0
603.92,142.0
603.98,139.0
604.04,140.0
604.11,116.0
604.17,130.0
604.23,131.0
604.3,115.0
604.36,114.0
604.42,122.0
604.48,137.0
604.55,133.0
604.61,128.0
604.67,111.0
604.74,93.0
604.8,79.0
604.86,107.0
604.93,94.0
604.99,87.0
605.05,95.0
605.11,73.0
605.18,74.0
605.24,86.0
605.3,97.0
605.37,109.0
605.43,104.0
605.49,111.0
605.56,118.0
605.62,99.0
605.68,108.0
605.74,113.0
605.81,103.0
605.87,100.0
605.93,108.0
606.0,114.0
606.06,105.0
606.12,118.0
606.19,126.0
606.25,132.0
606.31,144.0
606.37,146.0
606.44,133.0
606.5,113.0
606.56,131.0
606.63,124.0
606.69,119.0
606.75,124.0
606.82,108.0
606.88,119.0
606.94,122.0
607.0,129.0
607.07,126.0
607.13,129.0
607.19,127.0
607.26,109.0
607.32,126.0
607.38,125.0
607.45,112.0
607.51,125.0
607.57,139.0
607.63,130.0
607.7,139.0
607.76,134.0
607.82,145.0
607.89,149.0
607.95,136.0
608.01,125.0
608.08,120.0
608.14,121.0
608.2,141.0
608.26,133.0
608.33,125.0
608.39,138.0
608.45,118.0
608.52,115.0
608.58,129.0
608.64,111.0
608.71,108.0
608.77,124.0
608.83,102.0
608.89,125.0
608.96,125.0
609.02,111.0
609.08,108.0
609.15,115.0
609.21,117.0
609.27,85.0
609.34,87.0
609.4,92.0
609.46,81.0
609.52,82.0
609.59,86.0
609.65,64.0
609.71,69.0
609.78,77.0
609.84,75.0
609.9,61.0
609.97,74.0
610.03,78.0
610.09,73.0
610.15,80.0
610.22,69.0
610.28,69.0
610.34,74.0
610.41,76.0
610.47,61.0
610.53,74.0
610.6,50.0
610.66,53.0
610.72,56.0
610.78,50.0
610.85,65.0
610.91,61.0
610.97,62.0
611.04,64.0
611.1,43.0
611.16,46.0
611.23,54.0
611.29,67.0
611.35,69.0
611.41,64.0
611.48,76.0
611.54,67.0
611.6,53.0
611.67,66.0
611.73,75.0
611.79,65.0
611.86,50.0
611.92,74.0
611.98,72.0
612.04,59.0
612.11,74.0
612.17,69.0
612.23,68.0
612.3,73.0
612.36,96.0
612.42,78.0
612.49,74.0
612.55,97.0
612.61,88.0
612.67,92.0
612.74,86.0
612.8,94.0
612.86,100.0
612.93,75.0
612.99,78.0
613.05,105.0
613.12,88.0
613.18,79.0
613.24,60.0
613.3,88.0
613.37,63.0
613.43,72.0
613.49,83.0
613.56,91.0
613.62,110.0
613.68,103.0
613.75,107.0
613.81,101.0
613.87,119.0
613.93,92.0
614.0,118.0
614.06,117.0
614.12,96.0
614.19,110.0
614.25,111.0
614.31,96.0
614.38,77.0
614.44,85.0
614.5,83.0
614.56,80.0
614.63,96.0
614.69,115.0
614.75,132.0
614.82,94.0
614.88,107.0
614.94,96.0
615.01,103.0
615.07,101.0
615.13,107.0
615.19,115.0
615.26,126.0
615.32,116.0
615.38,113.0
615.45,117.0
615.51,97.0
615.57,108.0
615.64,119.0
615.7,122.0
615.76,132.0
615.82,151.0
615.89,129.0
615.95,127.0
616.01,135.0
616.08,130.0
616.14,136.0
616.2,141.0
616.27,140.0
616.33,145.0
616.39,152.0
616.45,149.0
616.52,143.0
616.58,130.0
616.64,136.0
616.71,123.0
616.77,127.0
616.83,129.0
616.9,115.0
616.96,130.0
617.02,125.0
617.08,121.0
617.15,119.0
617.21,122.0
617.27,115.0
617.34,127.0
617.4,127.0
617.46,121.0
617.53,116.0
617.59,118.0
617.65,132.0
617.71,123.0
617.78,115.0
617.84,121.0
617.9,117.0
617.97,118.0
618.03,135.0
618.09,133.0
618.16,118.0
618.22,115.0
618.28,116.0
618.34,129.0
618.41,120.0
618.47,100.0
618.53,91.0
618.6,93.0
618.66,94.0
618.72,89.0
618.79,78.0
618.85,82.0
618.91,104.0
618.97,101.0
619.04,115.0
619.1,115.0
619.16,88.0
619.23,102.0
619.29,116.0
619.35,122.0
619.42,99.0
619.48,105.0
619.54,112.0
619.6,117.0
619.67,118.0
619.73,85.0
619.79,91.0
619.86,94.0
619.92,91.0
619.98,94.0
620.05,92.0
620.11,86.0
620.17,105.0
620.23,107.0
620.3,97.0
620.36,108.0
620.42,100.0
620.49,122.0
620.55,120.0
620.61,123.0
620.68,112.0
620.74,103.0
620.8,109.0
620.86,101.0
620.93,121.0
620.99,105.0
621.05,94.0
621.12,129.0
621.18,99.0
621.24,117.0
621.31,118.0
621.37,122.0
621.43,102.0
621.49,97.0
621.56,108.0
621.62,104.0
621.68,114.0
621.75,99.0
621.81,110.0
621.87,81.0
621.94,90.0
622.0,80.0
622.06,80.0
622.12,107.0
622.19,104.0
622.25,105.0
622.31,108.0
622.38,115.0
622.44,132.0
622.5,127.0
622.57,127.0
622.63,156.0
622.69,136.0
622.75,151.0
622.82,145.0
622.88,130.0
622.94,128.0
623.01,130.0
623.07,110.0
623.13,128.0
623.2,131.0
623.26,114.0
623.32,104.0
623.38,99.0
623.45,107.0
623.51,104.0
623.57,83.0
623.64,118.0
623.7,136.0
623.76,126.0
623.83,117.0
623.89,114.0
623.95,102.0
624.01,94.0
624.08,116.0
624.14,114.0
624.2,131.0
624.27,116.0
624.33,114.0
624.39,116.0
624.46,100.0
624.52,119.0
624.58,119.0
624.64,103.0
624.71,104.0
624.77,107.0
624.83,107.0
624.9,85.0
624.96,85.0
625.02,86.0
625.09,89.0
625.15,89.0
625.21,82.0
625.27,86.0
625.34,82.0
625.4,83.0
625.46,81.0
625.53,80.0
625.59,81.0
625.65,89.0
625.72,100.0
625.78,84.0
625.84,88.0
625.9,105.0
625.97,72.0
626.03,67.0
626.09,86.0
626.16,78.0
626.22,67.0
626.28,92.0
626.35,81.0
626.41,82.0
626.47,96.0
626.53,76.0
626.6,85.0
626.66,66.0
626.72,56.0
626.79,58.0
626.85,64.0
626.91,55.0
626.98,47.0
627.04,67.0
627.1,76.0
627.16,76.0
627.23,97.0
627.29,79.0
627.35,76.0
627.42,63.0
627.48,67.0
627.54,66.0
627.61,63.0
627.67,50.0
627.73,61.0
627.79,78.0
627.86,74.0
627.92,83.0
627.98,86.0
628.05,51.0
628.11,59.0
628.17,82.0
628.24,56.0
628.3,38.0
628.36,37.0
628.42,61.0
628.49,48.0
628.55,39.0
628.61,24.0
628.68,33.0
628.74,39.0
628.8,43.0
628.87,37.0
628.93,34.0
628.99,37.0
629.05,52.0
629.12,51.0
629.18,71.0
629.24,58.0
629.31,55.0
629.37,52.0
629.43,23.0
629.5,33.0
629.56,48.0
629.62,48.0
629.68,37.0
629.75,44.0
629.81,46.0
629.87,55.0
629.94,50.0
630.0,33.0
630.06,39.0
630.13,33.0
630.19,50.0
630.25,47.0
630.31,41.0
630.38,49.0
630.44,53.0
630.5,56.0
630.57,53.0
630.63,57.0
630.69,56.0
630.76,54.0
630.82,57.0
630.88,65.0
630.94,28.0
631.01,63.0
631.07,62.0
631.13,50.0
631.2,67.0
631.26,63.0
631.32,64.0
631.39,60.0
631.45,74.0
631.51,69.0
631.57,67.0
631.64,78.0
631.7,83.0
631.76,65.0
631.83,87.0
631.89,63.0
631.95,74.0
632.02,87.0
632.08,87.0
632.14,91.0
632.2,82.0
632.27,94.0
632.33,107.0
632.39,121.0
632.46,108.0
632.52,102.0
632.58,91.0
632.65,93.0
632.71,89.0
632.77,97.0
632.83,114.0
632.9,123.0
632.96,122.0
633.02,110.0
633.09,129.0
633.15,122.0
633.21,125.0
633.28,118.0
633.34,122.0
633.4,133.0
633.46,115.0
633.53,124.0
633.59,120.0
633.65,121.0
633.72,128.0
633.78,140.0
633.84,127.0
633.91,138.0
633.97,135.0
634.03,127.0
634.09,126.0
634.16,111.0
634.22,103.0
634.28,115.0
634.35,112.0
634.41,104.0
634.47,97.0
634.54,92.0
634.6,106.0
634.66,112.0
634.72,88.0
634.79,102.0
634.85,102.0
634.91,74.0
634.98,74.0
635.04,78.0
635.1,58.0
635.17,65.0
635.23,74.0
635.29,67.0
635.35,70.0
635.42,39.0
635.48,53.0
635.54,67.0
635.61,42.0
635.67,67.0
635.73,78.0
635.8,90.0
635.86,77.0
635.92,77.0
635.98,96.0
636.05,87.0
636.11,78.0
636.17,59.0
636.24,60.0
636.3,64.0
636.36,69.0
636.43,65.0
636.49,68.0
636.55,59.0
636.61,88.0
636.68,86.0
636.74,81.0
636.8,91.0
636.87,88.0
636.93,81.0
636.99,100.0
637.06,111.0
637.12,117.0
637.18,124.0
637.24,108.0
637.31,105.0
637.37,100.0
637.43,106.0
637.5,115.0
637.56,128.0
637.62,129.0
637.69,138.0
637.75,135.0
637.81,147.0
637.87,127.0
637.94,145.0
638.0,154.0
638.06,136.0
638.13,152.0
638.19,134.0
638.25,157.0
638.32,126.0
638.38,152.0
638.44,155.0
638.5,126.0
638.57,146.0
638.63,129.0
638.69,149.0
638.76,143.0
638.82,149.0
638.88,142.0
638.95,134.0
639.01,150.0
639.07,168.0
639.13,138.0
639.2,144.0
639.26,146.0
639.32,146.0
639.39,154.0
639.45,151.0
639.51,149.0
639.58,148.0
639.64,148.0
639.7,139.0
639.76,125.0
639.83,138.0
639.89,150.0
639.95,134.0
640.02,143.0
640.08,133.0
640.14,140.0
640.21,140.0
640.27,163.0
640.33,160.0
640.39,153.0
640.46,145.0
640.52,156.0
640.58,165.0
640.65,122.0
640.71,146.0
640.77,140.0
640.84,143.0
640.9,140.0
640.96,148.0
641.02,160.0
641.09,161.0
641.15,163.0
641.21,149.0
641.28,144.0
641.34,132.0
641.4,145.0
641.47,166.0
641.53,143.0
641.59,146.0
641.65,147.0
641.72,134.0
641.78,112.0
641.84,121.0
641.91,122.0
641.97,133.0
642.03,138.0
642.1,140.0
642.16,146.0
642.22,131.0
642.28,116.0
642.35,139.0
642.41,148.0
642.47,140.0
642.54,138.0
642.6,139.0
642.66,135.0
642.73,115.0
642.79,142.0
642.85,144.0
642.91,140.0
642.98,119.0
643.04,109.0
643.1,122.0
643.17,133.0
643.23,125.0
643.29,102.0
643.36,136.0
643.42,106.0
643.48,115.0
643.54,106.0
643.61,124.0
643.67,118.0
643.73,136.0
643.8,131.0
643.86,114.0
643.92,113.0
643.99,110.0
644.05,119.0
644.11,139.0
644.17,102.0
644.24,107.0
644.3,127.0
644.36,119.0
644.43,121.0
644.49,100.0
644.55,108.0
644.62,103.0
644.68,94.0
644.74,98.0
644.8,80.0
644.87,78.0
644.93,69.0
644.99,75.0
645.06,77.0
645.12,74.0
645.18,99.0
645.25,103.0
645.31,82.0
645.37,85.0
645.43,75.0
645.5,89.0
645.56,80.0
645.62,85.0
645.69,70.0
645.75,93.0
645.81,78.0
645.88,75.0
645.94,82.0
646.0,74.0
646.06,105.0
646.13,102.0
646.19,96.0
646.25,105.0
646.32,100.0
646.38,110.0
646.44,123.0
646.51,97.0
646.57,112.0
646.63,120.0
646.69,91.0
646.76,129.0
646.82,120.0
646.88,110.0
646.95,113.0
647.01,112.0
647.07,110.0
647.14,108.0
647.2,122.0
647.26,124.0
647.32,129.0
647.39,140.0
647.45,117.0
647.51,133.0
647.58,130.0
647.64,115.0
647.7,126.0
647.77,132.0
647.83,146.0
647.89,133.0
647.95,137.0
648.02,133.0
648.08,152.0
648.14,152.0
648.21,151.0
648.27,162.0
648.33,168.0
648.4,179.0
648.46,162.0
648.52,177.0
648.58,166.0
648.65,169.0
648.71,169.0
648.77,177.0
648.84,174.0
648.9,191.0
648.96,201.0
649.03,172.0
649.09,184.0
649.15,170.0
649.21,171.0
649.28,169.0
649.34,169.0
649.4,169.0
649.47,172.0
649.53,160.0
649.59,195.0
649.66,199.0
649.72,179.0
649.78,185.0
649.84,155.0
649.91,139.0
649.97,167.0
650.03,170.0
650.1,177.0
650.16,171.0
650.22,154.0
650.29,146.0
650.35,125.0
650.41,143.0
650.47,151.0
650.54,144.0
650.6,120.0
650.66,127.0
650.73,127.0
650.79,122.0
650.85,132.0
650.92,129.0
650.98,140.0
651.04,130.0
651.1,129.0
651.17,127.0
651.23,130.0
651.29,138.0
651.36,138.0
651.42,144.0
651.48,134.0
651.55,157.0
651.61,129.0
651.67,140.0
651.73,118.0
651.8,104.0
651.86,111.0
651.92,104.0
651.99,110.0
652.05,121.0
652.11,121.0
652.18,102.0
652.24,72.0
652.3,81.0
652.36,74.0
652.43,93.0
652.49,81.0
652.55,96.0
652.62,104.0
652.68,86.0
652.74,88.0
652.81,86.0
652.87,122.0
652.93,115.0
652.99,114.0
653.06,114.0
653.12,121.0
653.18,114.0
653.25,121.0
653.31,114.0
653.37,119.0
653.44,107.0
653.5,120.0
653.56,147.0
653.62,120.0
653.69,132.0
653.75,119.0
653.81,138.0
653.88,142.0
653.94,144.0
654.0,139.0
654.07,140.0
654.13,132.0
654.19,143.0
654.25,131.0
654.32,116.0
654.38,106.0
654.44,103.0
654.51,97.0
654.57,107.0
654.63,105.0
654.7,115.0
654.76,108.0
654.82,117.0
654.88,112.0
654.95,109.0
655.01,111.0
655.07,135.0
655.14,125.0
655.2,128.0
655.26,116.0
655.33,118.0
655.39,113.0
655.45,125.0
655.51,133.0
655.58,130.0
655.64,143.0
655.7,123.0
655.77,102.0
655.83,113.0
655.89,110.0
655.96,122.0
656.02,116.0
656.08,99.0
656.14,102.0
656.21,89.0
656.27,93.0
656.33,96.0
656.4,89.0
656.46,72.0
656.52,73.0
656.59,80.0
656.65,71.0
656.71,98.0
656.77,103.0
656.84,88.0
656.9,99.0
656.96,99.0
657.03,107.0
657.09,99.0
657.15,94.0
657.22,114.0
657.28,115.0
657.34,131.0
657.4,128.0
657.47,118.0
657.53,121.0
657.59,111.0
657.66,118.0
657.72,120.0
657.78,133.0
657.85,115.0
657.91,126.0
657.97,128.0
658.03,155.0
658.1,133.0
658.16,118.0
658.22,104.0
658.29,108.0
658.35,126.0
658.41,114.0
658.48,96.0
658.54,106.0
658.6,100.0
658.66,105.0
658.73,111.0
658.79,94.0
658.85,118.0
658.92,93.0
658.98,103.0
659.04,99.0
659.11,111.0
659.17,119.0
659.23,120.0
659.29,111.0
659.36,100.0
659.42,105.0
659.48,103.0
659.55,110.0
659.61,115.0
659.67,82.0
659.74,98.0
659.8,100.0
659.86,113.0
659.92,105.0
659.99,83.0
660.05,84.0
660.11,99.0
660.18,99.0
660.24,88.0
660.3,72.0
660.37,86.0
660.43,85.0
660.49,77.0
660.55,98.0
660.62,78.0
660.68,71.0
660.74,84.0
660.81,83.0
660.87,87.0
660.93,68.0
661.0,55.0
661.06,75.0
661.12,72.0
661.18,58.0
661.25,66.0
661.31,61.0
661.37,38.0
661.44,35.0
661.5,63.0
661.56,44.0
661.63,48.0
661.69,37.0
661.75,58.0
661.81,52.0
661.88,51.0
661.94,48.0
662.0,34.0
662.07,37.0
662.13,36.0
662.19,63.0
662.26,72.0
662.32,67.0
662.38,58.0
662.44,67.0
662.51,70.0
662.57,48.0
662.63,44.0
662.7,50.0
662.76,56.0
662.82,46.0
662.89,56.0
662.95,52.0
663.01,42.0
663.07,64.0
663.14,86.0
663.2,57.0
663.26,93.0
663.33,91.0
663.39,82.0
663.45,69.0
663.52,47.0
663.58,66.0
663.64,67.0
663.7,69.0
663.77,69.0
663.83,74.0
663.89,81.0
663.96,86.0
664.02,80.0
664.08,96.0
664.15,96.0
664.21,89.0
664.27,92.0
664.33,83.0
664.4,79.0
664.46,93.0
664.52,58.0
664.59,67.0
664.65,86.0
664.71,86.0
664.78,81.0
664.84,91.0
664.9,98.0
664.96,114.0
665.03,90.0
665.09,88.0
665.15,96.0
665.22,94.0
665.28,96.0
665.34,114.0
665.41,126.0
665.47,106.0
665.53,108.0
665.59,97.0
665.66,126.0
665.72,129.0
665.78,105.0
665.85,115.0
665.91,119.0
665.97,111.0
666.04,104.0
666.1,89.0
666.16,69.0
666.22,78.0
666.29,74.0
666.35,72.0
666.41,83.0
666.48,80.0
666.54,69.0
666.6,86.0
666.67,88.0
666.73,91.0
666.79,92.0
666.85,92.0
666.92,82.0
666.98,100.0
667.04,99.0
667.11,86.0
667.17,81.0
667.23,78.0
667.3,66.0
667.36,80.0
667.42,86.0
667.48,80.0
667.55,71.0
667.61,88.0
667.67,84.0
667.74,88.0
667.8,103.0
667.86,86.0
667.93,85.0
667.99,60.0
668.05,82.0
668.11,82.0
668.18,84.0
668.24,110.0
668.3,66.0
668.37,57.0
668.43,62.0
668.49,69.0
668.56,87.0
668.62,93.0
668.68,93.0
668.74,95.0
668.81,104.0
668.87,97.0
668.93,96.0
669.0,92.0
669.06,96.0
669.12,105.0
669.19,97.0
669.25,88.0
669.31,111.0
669.37,115.0
669.44,105.0
669.5,113.0
669.56,112.0
669.63,114.0
669.69,103.0
669.75,86.0
669.82,88.0
669.88,88.0
669.94,99.0
670.0,100.0
670.07,83.0
670.13,98.0
670.19,108.0
670.26,105.0
670.32,86.0
670.38,96.0
670.45,80.0
670.51,88.0
670.57,110.0
670.63,108.0
670.7,118.0
670.76,126.0
670.82,124.0
670.89,111.0
670.95,104.0
671.01,104.0
671.08,124.0
671.14,132.0
671.2,128.0
671.26,116.0
671.33,114.0
671.39,115.0
671.45,118.0
671.52,140.0
671.58,136.0
671.64,122.0
671.71,115.0
671.77,118.0
671.83,112.0
671.89,100.0
671.96,101.0
672.02,89.0
672.08,94.0
672.15,88.0
672.21,89.0
672.27,96.0
672.34,107.0
672.4,117.0
672.46,116.0
672.52,118.0
672.59,115.0
672.65,118.0
672.71,111.0
672.78,115.0
672.84,124.0
672.9,125.0
672.97,103.0
673.03,118.0
673.09,132.0
673.15,118.0
673.22,120.0
673.28,100.0
673.34,119.0
673.41,118.0
673.47,127.0
673.53,152.0
673.6,137.0
673.66,132.0
673.72,125.0
673.78,118.0
673.85,131.0
673.91,125.0
673.97,120.0
674.04,125.0
674.1,122.0
674.16,129.0
674.23,132.0
674.29,152.0
674.35,141.0
674.41,129.0
674.48,130.0
674.54,135.0
674.6,139.0
674.67,146.0
674.73,149.0
674.79,151.0
674.86,144.0
674.92,151.0
674.98,162.0
675.04,153.0
675.11,146.0
675.17,143.0
675.23,155.0
675.3,151.0
675.36,134.0
675.42,135.0
675.49,122.0
675.55,116.0
675.61,102.0
675.67,111.0
675.74,96.0
675.8,109.0
675.86,118.0
675.93,94.0
675.99,101.0
676.05,100.0
676.12,75.0
676.18,94.0
676.24,78.0
676.3,65.0
676.37,80.0
676.43,78.0
676.49,79.0
676.56,89.0
676.62,97.0
676.68,96.0
676.75,101.0
676.81,92.0
676.87,85.0
676.93,89.0
677.0,98.0
677.06,105.0
677.12,99.0
677.19,63.0
677.25,59.0
677.31,77.0
677.38,74.0
677.44,74.0
677.5,74.0
677.56,72.0
677.63,71.0
677.69,69.0
677.75,75.0
677.82,55.0
677.88,59.0
677.94,48.0
678.01,52.0
678.07,55.0
678.13,40.0
678.19,41.0
678.26,45.0
678.32,50.0
678.38,50.0
678.45,55.0
678.51,49.0
678.57,51.0
678.64,68.0
678.7,47.0
678.76,52.0
678.82,48.0
678.89,39.0
678.95,67.0
679.01,52.0
679.08,34.0
679.14,38.0
679.2,74.0
679.27,66.0
679.33,62.0
679.39,40.0
679.45,54.0
679.52,49.0
679.58,39.0
679.64,51.0
679.71,49.0
679.77,52.0
679.83,58.0
679.9,47.0
679.96,63.0
680.02,60.0
680.08,61.0
680.15,56.0
680.21,64.0
680.27,65.0
680.34,72.0
680.4,65.0
680.46,79.0
680.53,92.0
680.59,96.0
680.65,75.0
680.71,62.0
680.78,77.0
680.84,72.0
680.9,80.0
680.97,76.0
681.03,72.0
681.09,88.0
681.16,107.0
681.22,85.0
681.28,90.0
681.34,106.0
681.41,107.0
681.47,104.0
681.53,78.0
681.6,70.0
681.66,78.0
681.72,85.0
681.79,72.0
681.85,66.0
681.91,56.0
681.97,52.0
682.04,70.0
682.1,50.0
682.16,63.0
682.23,76.0
682.29,67.0
682.35,60.0
682.42,79.0
682.48,65.0
682.54,82.0
682.6,80.0
682.67,77.0
682.73,89.0
682.79,93.0
682.86,63.0
682.92,78.0
682.98,77.0
683.05,53.0
683.11,58.0
683.17,65.0
683.23,57.0
683.3,59.0
683.36,47.0
683.42,55.0
683.49,58.0
683.55,55.0
683.61,73.0
683.68,69.0
683.74,79.0
683.8,101.0
683.86,113.0
683.93,87.0
683.99,88.0
684.05,104.0
684.12,109.0
684.18,119.0
684.24,112.0
684.31,118.0
684.37,114.0
684.43,112.0
684.49,107.0
684.56,109.0
684.62,106.0
684.68,108.0
684.75,103.0
684.81,94.0
684.87,82.0
684.94,77.0
685.0,94.0
685.06,91.0
685.12,92.0
685.19,89.0
685.25,102.0
685.31,111.0
685.38,110.0
685.44,122.0
685.5,125.0
685.57,104.0
685.63,108.0
685.69,89.0
685.75,102.0
685.82,93.0
685.88,93.0
685.94,106.0
686.01,99.0
686.07,96.0
686.13,101.0
686.2,105.0
686.26,101.0
686.32,122.0
686.38,122.0
686.45,118.0
686.51,94.0
686.57,119.0
686.64,115.0
686.7,107.0
686.76,93.0
686.83,118.0
686.89,104.0
686.95,107.0
687.01,130.0
687.08,123.0
687.14,132.0
687.2,132.0
687.27,138.0
687.33,129.0
687.39,139.0
687.46,139.0
687.52,130.0
687.58,125.0
687.64,115.0
687.71,130.0
687.77,140.0
687.83,131.0
687.9,133.0
687.96,142.0
688.02,138.0
688.09,137.0
688.15,129.0
688.21,141.0
688.27,142.0
688.34,145.0
688.4,155.0
688.46,157.0
688.53,159.0
688.59,128.0
688.65,137.0
688.72,143.0
688.78,136.0
688.84,152.0
688.9,165.0
688.97,143.0
689.03,139.0
689.09,154.0
689.16,135.0
689.22,128.0
689.28,104.0
689.35,119.0
689.41,97.0
689.47,118.0
689.53,113.0
689.6,123.0
689.66,124.0
689.72,99.0
689.79,104.0
689.85,107.0
689.91,126.0
689.98,116.0
690.04,110.0
690.1,124.0
690.16,122.0
690.23,99.0
690.29,118.0
690.35,125.0
690.42,100.0
690.48,108.0
690.54,123.0
690.61,111.0
690.67,97.0
690.73,121.0
690.79,116.0
690.86,119.0
690.92,109.0
690.98,122.0
691.05,114.0
691.11,114.0
691.17,110.0
691.24,107.0
691.3,113.0
691.36,107.0
691.42,86.0
691.49,83.0
691.55,96.0
691.61,92.0
691.68,83.0
691.74,90.0
691.8,76.0
691.87,89.0
691.93,102.0
691.99,74.0
692.05,87.0
692.12,90.0
692.18,78.0
692.24,95.0
692.31,103.0
692.37,90.0
692.43,71.0
692.5,77.0
692.56,96.0
692.62,104.0
692.68,92.0
692.75,99.0
692.81,81.0
692.87,70.0
692.94,56.0
693.0,70.0
693.06,59.0
693.13,77.0
693.19,72.0
693.25,80.0
693.31,89.0
693.38,54.0
693.44,61.0
693.5,52.0
693.57,63.0
693.63,48.0
693.69,53.0
693.76,52.0
693.82,55.0
693.88,50.0
693.94,30.0
694.01,52.0
694.07,48.0
694.13,53.0
694.2,64.0
694.26,60.0
694.32,54.0
694.39,61.0
694.45,52.0
694.51,56.0
694.57,41.0
694.64,54.0
694.7,50.0
694.76,54.0
694.83,55.0
694.89,58.0
694.95,74.0
695.02,64.0
695.08,69.0
695.14,59.0
695.2,48.0
695.27,82.0
695.33,73.0
695.39,87.0
695.46,47.0
695.52,47.0
695.58,53.0
695.65,33.0
695.71,38.0
695.77,43.0
695.83,64.0
695.9,55.0
695.96,62.0
696.02,69.0
696.09,67.0
696.15,74.0
696.21,63.0
696.28,72.0
696.34,77.0
696.4,69.0
696.46,84.0
696.53,85.0
696.59,71.0
696.65,56.0
696.72,55.0
696.78,68.0
696.84,88.0
696.91,92.0
696.97,77.0
697.03,77.0
697.09,85.0
697.16,102.0
697.22,102.0
697.28,104.0
697.35,105.0
697.41,101.0
697.47,114.0
697.54,100.0
697.6,89.0
697.66,105.0
697.72,100.0
697.79,111.0
697.85,122.0
697.91,119.0
697.98,124.0
698.04,128.0
698.1,111.0
698.17,115.0
698.23,120.0
698.29,127.0
698.35,119.0
698.42,116.0
698.48,117.0
698.54,108.0
698.61,107.0
698.67,111.0
698.73,130.0
698.8,118.0
698.86,125.0
698.92,125.0
698.98,113.0
699.05,127.0
699.11,129.0
699.17,124.0
699.24,118.0
699.3,135.0
699.36,142.0
699.43,150.0
699.49,144.0
699.55,136.0
699.61,150.0
699.68,137.0
699.74,144.0
699.8,137.0
699.87,124.0
699.93,125.0
699.99,133.0
700.06,129.0
700.12,118.0
700.18,108.0
700.24,120.0
700.31,130.0
700.37,141.0
700.43,138.0
700.5,150.0
700.56,156.0
700.62,145.0
700.69,145.0
700.75,135.0
700.81,124.0
700.87,153.0
700.94,144.0
701.0,146.0
701.06,169.0
701.13,146.0
701.19,154.0
701.25,143.0
701.32,138.0
701.38,146.0
701.44,135.0
701.5,130.0
701.57,114.0
701.63,134.0
701.69,129.0
701.76,118.0
701.82,131.0
701.88,135.0
701.95,157.0
702.01,150.0
702.07,143.0
702.13,110.0
702.2,97.0
702.26,127.0
702.32,114.0
702.39,107.0
702.45,117.0
702.51,93.0
702.58,108.0
702.64,110.0
702.7,93.0
702.76,108.0
702.83,94.0
702.89,119.0
702.95,115.0
703.02,108.0
703.08,120.0
703.14,128.0
703.21,107.0
703.27,104.0
703.33,123.0
703.39,121.0
703.46,113.0
703.52,137.0
703.58,140.0
703.65,127.0
703.71,144.0
703.77,127.0
703.84,116.0
703.9,142.0
703.96,140.0
704.02,143.0
704.09,126.0
704.15,126.0
704.21,127.0
704.28,129.0
704.34,129.0
704.4,154.0
704.47,159.0
704.53,171.0
704.59,169.0
704.65,162.0
704.72,159.0
704.78,141.0
704.84,130.0
704.91,122.0
704.97,129.0
705.03,130.0
705.1,133.0
705.16,137.0
705.22,124.0
705.28,138.0
705.35,168.0
705.41,147.0
705.47,135.0
705.54,135.0
705.6,119.0
705.66,131.0
705.73,114.0
705.79,123.0
705.85,112.0
705.91,115.0
705.98,139.0
706.04,129.0
706.1,110.0
706.17,125.0
706.23,121.0
706.29,116.0
706.36,124.0
706.42,107.0
706.48,118.0
706.54,121.0
706.61,119.0
706.67,124.0
706.73,118.0
706.8,120.0
706.86,129.0
706.92,133.0
706.99,119.0
707.05,112.0
707.11,124.0
707.17,122.0
707.24,134.0
707.3,133.0
707.36,116.0
707.43,101.0
707.49,94.0
707.55,104.0
707.62,107.0
707.68,122.0
707.74,99.0
707.8,116.0
707.87,115.0
707.93,118.0
707.99,111.0
708.06,121.0
708.12,111.0
708.18,106.0
708.25,93.0
708.31,89.0
708.37,107.0
708.43,85.0
708.5,92.0
708.56,112.0
708.62,135.0
708.69,100.0
708.75,78.0
708.81,111.0
708.88,107.0
708.94,77.0
709.0,80.0
709.06,75.0
709.13,66.0
709.19,92.0
709.25,74.0
709.32,81.0
709.38,86.0
709.44,100.0
709.51,94.0
709.57,85.0
709.63,84.0
709.69,85.0
709.76,74.0
709.82,72.0
709.88,94.0
709.95,75.0
710.01,98.0
710.07,96.0
710.14,101.0
710.2,92.0
710.26,100.0
710.32,91.0
710.39,94.0
710.45,69.0
710.51,85.0
710.58,86.0
710.64,88.0
710.7,95.0
710.77,86.0
710.83,115.0
710.89,97.0
710.95,80.0
711.02,78.0
711.08,82.0
711.14,81.0
711.21,64.0
711.27,84.0
711.33,62.0
711.4,60.0
711.46,86.0
711.52,77.0
711.58,77.0
711.65,67.0
711.71,82.0
711.77,72.0
711.84,63.0
711.9,63.0
711.96,60.0
712.03,51.0
712.09,35.0
712.15,58.0
712.21,65.0
712.28,46.0
712.34,42.0
712.4,41.0
712.47,47.0
712.53,45.0
712.59,32.0
712.66,33.0
712.72,25.0
712.78,24.0
712.84,20.0
712.91,26.0
712.97,18.0
713.03,12.0
713.1,42.0
713.16,29.0
713.22,33.0
713.29,46.0
713.35,43.0
713.41,33.0
713.47,39.0
713.54,48.0
713.6,41.0
713.66,55.0
713.73,65.0
713.79,70.0
713.85,67.0
713.92,79.0
713.98,99.0
714.04,92.0
714.1,79.0
714.17,81.0
714.23,81.0
714.29,93.0
714.36,74.0
714.42,84.0
714.48,107.0
714.55,81.0
714.61,70.0
714.67,78.0
714.73,93.0
714.8,96.0
714.86,88.0
714.92,111.0
714.99,125.0
715.05,116.0
715.11,93.0
715.18,99.0
715.24,107.0
715.3,100.0
715.36,109.0
715.43,129.0
715.49,118.0
715.55,122.0
715.62,117.0
715.68,135.0
715.74,134.0
715.81,129.0
715.87,134.0
715.93,143.0
715.99,129.0
716.06,127.0
716.12,126.0
716.18,111.0
716.25,115.0
716.31,106.0
716.37,119.0
716.44,119.0
716.5,101.0
716.56,119.0
716.62,114.0
716.69,127.0
716.75,116.0
716.81,108.0
716.88,115.0
716.94,111.0
717.0,100.0
717.07,109.0
717.13,106.0
717.19,116.0
717.25,103.0
717.32,106.0
717.38,99.0
717.44,105.0
717.51,106.0
717.57,108.0
717.63,87.0
717.7,83.0
717.76,69.0
717.82,70.0
717.88,91.0
717.95,93.0
718.01,82.0
718.07,89.0
718.14,76.0
718.2,78.0
718.26,80.0
718.33,82.0
718.39,74.0
718.45,78.0
718.51,93.0
718.58,78.0
718.64,75.0
718.7,74.0
718.77,58.0
718.83,61.0
718.89,76.0
718.96,73.0
719.02,71.0
719.08,78.0
719.14,77.0
719.21,68.0
719.27,72.0
719.33,57.0
719.4,53.0
719.46,61.0
719.52,66.0
719.59,77.0
719.65,71.0
719.71,74.0
719.77,86.0
719.84,67.0
719.9,84.0
719.96,96.0
720.03,83.0
720.09,98.0
720.15,103.0
720.22,78.0
720.28,97.0
720.34,112.0
720.4,106.0
720.47,108.0
720.53,97.0
720.59,88.0
720.66,84.0
720.72,93.0
720.78,116.0
720.85,128.0
720.91,117.0
720.97,124.0
721.03,133.0
721.1,127.0
721.16,119.0
721.22,124.0
721.29,127.0
721.35,117.0
721.41,118.0
721.48,130.0
721.54,121.0
721.6,107.0
721.66,130.0
721.73,140.0
721.79,118.0
721.85,109.0
721.92,106.0
721.98,100.0
722.04,109.0
722.11,110.0
722.17,102.0
722.23,124.0
722.29,122.0
722.36,110.0
722.42,123.0
722.48,136.0
722.55,140.0
722.61,112.0
722.67,140.0
722.74,148.0
722.8,146.0
722.86,146.0
722.92,148.0
722.99,147.0
723.05,154.0
723.11,150.0
723.18,137.0
723.24,143.0
723.3,133.0
723.37,130.0
723.43,140.0
723.49,135.0
723.55,152.0
723.62,162.0
723.68,151.0
723.74,134.0
723.81,118.0
723.87,122.0
723.93,135.0
724.0,147.0
724.06,143.0
724.12,134.0
724.18,124.0
724.25,124.0
724.31,143.0
724.37,117.0
724.44,127.0
724.5,142.0
724.56,157.0
724.63,166.0
724.69,171.0
724.75,167.0
724.81,162.0
724.88,179.0
724.94,184.0
725.0,174.0
725.07,178.0
725.13,183.0
725.19,167.0
725.26,159.0
725.32,169.0
725.38,162.0
725.44,160.0
725.51,156.0
725.57,161.0
725.63,161.0
725.7,164.0
725.76,170.0
725.82,166.0
725.89,158.0
725.95,157.0
726.01,164.0
726.07,158.0
726.14,151.0
726.2,168.0
726.26,148.0
726.33,161.0
726.39,171.0
726.45,152.0
726.52,167.0
726.58,150.0
726.64,128.0
726.7,131.0
726.77,121.0
726.83,125.0
726.89,135.0
726.96,124.0
727.02,108.0
727.08,114.0
727.15,125.0
727.21,128.0
727.27,129.0
727.33,120.0
727.4,104.0
727.46,119.0
727.52,111.0
727.59,134.0
727.65,112.0
727.71,80.0
727.78,79.0
727.84,83.0
727.9,78.0
727.96,74.0
728.03,101.0
728.09,83.0
728.15,82.0
728.22,76.0
728.28,66.0
728.34,69.0
728.41,81.0
728.47,70.0
728.53,74.0
728.59,95.0
728.66,89.0
728.72,78.0
728.78,55.0
728.85,73.0
728.91,55.0
728.97,56.0
729.04,64.0
729.1,67.0
729.16,65.0
729.22,70.0
729.29,70.0
729.35,85.0
729.41,81.0
729.48,78.0
729.54,80.0
729.6,82.0
729.67,87.0
729.73,89.0
729.79,88.0
729.85,67.0
729.92,67.0
729.98,83.0
730.04,92.0
730.11,79.0
730.17,63.0
730.23,74.0
730.3,64.0
730.36,71.0
730.42,87.0
730.48,63.0
730.55,61.0
730.61,61.0
730.67,77.0
730.74,82.0
730.8,64.0
730.86,73.0
730.93,85.0
730.99,74.0
731.05,82.0
731.11,90.0
731.18,78.0
731.24,80.0
731.3,69.0
731.37,83.0
731.43,89.0
731.49,89.0
731.56,104.0
731.62,81.0
731.68,70.0
731.74,71.0
731.81,81.0
731.87,64.0
731.93,81.0
732.0,77.0
732.06,72.0
732.12,58.0
732.19,69.0
732.25,64.0
732.31,65.0
732.37,66.0
732.44,65.0
732.5,69.0
732.56,56.0
732.63,61.0
732.69,45.0
732.75,42.0
732.82,38.0
732.88,67.0
732.94,62.0
733.0,43.0
733.07,55.0
733.13,34.0
733.19,58.0
733.26,47.0
733.32,46.0
733.38,14.0
733.45,45.0
733.51,27.0
733.57,41.0
733.63,50.0
733.7,59.0
733.76,63.0
733.82,57.0
733.89,62.0
733.95,52.0
734.01,60.0
734.08,80.0
734.14,53.0
734.2,61.0
734.26,71.0
734.33,56.0
734.39,63.0
734.45,66.0
734.52,55.0
734.58,67.0
734.64,70.0
734.71,42.0
734.77,40.0
734.83,52.0
734.89,51.0
734.96,61.0
735.02,48.0
735.08,49.0
735.15,38.0
735.21,61.0
735.27,47.0
735.34,40.0
735.4,42.0
735.46,49.0
735.52,45.0
735.59,41.0
735.65,50.0
735.71,42.0
735.78,55.0
735.84,53.0
735.9,68.0
735.97,66.0
736.03,59.0
736.09,69.0
736.15,66.0
736.22,75.0
736.28,58.0
736.34,56.0
736.41,74.0
736.47,59.0
736.53,48.0
736.6,63.0
736.66,60.0
736.72,79.0
736.78,59.0
736.85,62.0
736.91,58.0
736.97,69.0
737.04,61.0
737.1,59.0
737.16,66.0
737.23,60.0
737.29,70.0
737.35,52.0
737.41,70.0
737.48,77.0
737.54,62.0
737.6,61.0
737.67,66.0
737.73,86.0
737.79,84.0
737.86,81.0
737.92,115.0
737.98,107.0
738.04,92.0
738.11,92.0
738.17,97.0
738.23,89.0
738.3,89.0
738.36,102.0
738.42,88.0
738.49,90.0
738.55,95.0
738.61,113.0
738.67,107.0
738.74,113.0
738.8,115.0
738.86,115.0
738.93,129.0
738.99,113.0
739.05,125.0
739.12,124.0
739.18,125.0
739.24,118.0
739.3,114.0
739.37,104.0
739.43,95.0
739.49,100.0
739.56,102.0
739.62,95.0
739.68,101.0
739.75,104.0
739.81,105.0
739.87,109.0
739.93,99.0
740.0,103.0
740.06,105.0
740.12,104.0
740.19,96.0
740.25,118.0
740.31,109.0
740.38,121.0
740.44,131.0
740.5,135.0
740.56,130.0
740.63,153.0
740.69,147.0
740.75,126.0
740.82,145.0
740.88,148.0
740.94,150.0
741.01,135.0
741.07,122.0
741.13,133.0
741.19,144.0
741.26,135.0
741.32,129.0
741.38,152.0
741.45,156.0
741.51,135.0
741.57,157.0
741.64,164.0
741.7,144.0
741.76,152.0
741.82,153.0
741.89,160.0
741.95,170.0
742.01,156.0
742.08,155.0
742.14,149.0
742.2,148.0
742.27,157.0
742.33,142.0
742.39,134.0
742.45,136.0
742.52,130.0
742.58,140.0
742.64,144.0
742.71,144.0
742.77,157.0
742.83,151.0
742.9,163.0
742.96,168.0
743.02,152.0
743.08,158.0
743.15,158.0
743.21,140.0
743.27,128.0
743.34,133.0
743.4,122.0
743.46,125.0
743.53,121.0
743.59,106.0
743.65,107.0
743.71,106.0
743.78,108.0
743.84,100.0
743.9,107.0
743.97,92.0
744.03,116.0
744.09,114.0
744.16,92.0
744.22,103.0
744.28,90.0
744.34,87.0
744.41,82.0
744.47,87.0
744.53,93.0
744.6,99.0
744.66,99.0
744.72,97.0
744.79,94.0
744.85,97.0
744.91,90.0
744.97,88.0
745.04,78.0
745.1,77.0
745.16,83.0
745.23,80.0
745.29,73.0
745.35,100.0
745.42,109.0
745.48,88.0
745.54,82.0
745.6,95.0
745.67,87.0
745.73,87.0
745.79,78.0
745.86,91.0
745.92,97.0
745.98,109.0
746.05,109.0
746.11,101.0
746.17,125.0
746.23,133.0
746.3,109.0
746.36,107.0
746.42,107.0
746.49,108.0
746.55,108.0
746.61,95.0
746.68,97.0
746.74,96.0
746.8,83.0
746.86,88.0
746.93,86.0
746.99,78.0
747.05,94.0
747.12,98.0
747.18,96.0
747.24,106.0
747.31,102.0
747.37,96.0
747.43,93.0
747.49,101.0
747.56,105.0
747.62,142.0
747.68,121.0
747.75,119.0
747.81,105.0
747.87,104.0
747.94,122.0
748.0,115.0
748.06,115.0
748.12,129.0
748.19,151.0
748.25,125.0
748.31,145.0
748.38,152.0
748.44,140.0
748.5,161.0
748.57,146.0
748.63,147.0
748.69,146.0
748.75,157.0
748.82,160.0
748.88,162.0
748.94,167.0
749.01,146.0
749.07,160.0
749.13,155.0
749.2,161.0
749.26,162.0
749.32,147.0
749.38,151.0
749.45,158.0
749.51,151.0
749.57,157.0
749.64,143.0
749.7,144.0
749.76,149.0
749.83,140.0
749.89,133.0
749.95,133.0
750.01,141.0
750.08,141.0
750.14,143.0
750.2,147.0
750.27,165.0
750.33,157.0
750.39,148.0
750.46,143.0
750.52,127.0
750.58,135.0
750.64,127.0
750.71,109.0
750.77,129.0
750.83,112.0
750.9,113.0
750.96,109.0
751.02,117.0
751.09,113.0
751.15,96.0
751.21,92.0
751.27,108.0
751.34,106.0
751.4,111.0
751.46,102.0
751.53,97.0
751.59,87.0
751.65,100.0
751.72,111.0
751.78,107.0
751.84,105.0
751.9,108.0
751.97,103.0
752.03,109.0
752.09,107.0
752.16,96.0
752.22,119.0
752.28,110.0
752.35,111.0
752.41,94.0
752.47,93.0
752.53,102.0
752.6,102.0
752.66,114.0
752.72,116.0
752.79,113.0
752.85,101.0
752.91,106.0
752.98,91.0
753.04,103.0
753.1,102.0
753.16,86.0
753.23,85.0
753.29,97.0
753.35,119.0
753.42,89.0
753.48,77.0
753.54,83.0
753.61,80.0
753.67,74.0
753.73,77.0
753.79,85.0
753.86,92.0
753.92,87.0
753.98,83.0
754.05,98.0
754.11,89.0
754.17,88.0
754.24,96.0
754.3,105.0
754.36,93.0
754.42,91.0
754.49,96.0
754.55,120.0
754.61,94.0
754.68,93.0
754.74,94.0
754.8,82.0
754.87,84.0
754.93,100.0
754.99,107.0
755.05,99.0
755.12,90.0
755.18,97.0
755.24,92.0
755.31,83.0
755.37,106.0
755.43,97.0
755.5,85.0
755.56,103.0
755.62,94.0
755.68,112.0
755.75,105.0
755.81,105.0
755.87,107.0
755.94,106.0
756.0,108.0
756.06,124.0
756.13,123.0
756.19,105.0
756.25,125.0
756.31,115.0
756.38,129.0
756.44,121.0
756.5,107.0
756.57,119.0
756.63,100.0
756.69,124.0
756.76,127.0
756.82,134.0
756.88,123.0
756.94,125.0
757.01,140.0
757.07,138.0
757.13,117.0
757.2,121.0
757.26,149.0
757.32,144.0
757.39,131.0
757.45,127.0
757.51,120.0
757.57,129.0
757.64,135.0
757.7,113.0
757.76,117.0
757.83,124.0
757.89,121.0
757.95,142.0
758.02,132.0
758.08,141.0
758.14,154.0
758.2,146.0
758.27,131.0
758.33,141.0
758.39,130.0
758.46,128.0
758.52,135.0
758.58,124.0
758.65,126.0
758.71,116.0
758.77,131.0
758.83,133.0
758.9,136.0
758.96,135.0
759.02,123.0
759.09,116.0
759.15,127.0
759.21,146.0
759.28,119.0
759.34,127.0
759.4,131.0
759.46,120.0
759.53,118.0
759.59,134.0
759.65,144.0
759.72,154.0
759.78,142.0
759.84,127.0
759.91,141.0
759.97,141.0
760.03,145.0
760.09,143.0
760.16,133.0
760.22,133.0
760.28,126.0
760.35,114.0
760.41,113.0
760.47,97.0
760.54,96.0
760.6,122.0
760.66,107.0
760.72,118.0
760.79,113.0
760.85,114.0
760.91,105.0
760.98,118.0
761.04,88.0
761.1,100.0
761.17,114.0
761.23,96.0
761.29,98.0
761.35,87.0
761.42,106.0
761.48,90.0
761.54,100.0
761.61,104.0
761.67,83.0
761.73,85.0
761.8,68.0
761.86,65.0
761.92,81.0
761.98,65.0
762.05,71.0
762.11,67.0
762.17,64.0
762.24,69.0
762.3,81.0
762.36,89.0
762.43,80.0
762.49,93.0
762.55,86.0
762.61,86.0
762.68,84.0
762.74,89.0
762.8,96.0
762.87,93.0
762.93,79.0
762.99,85.0
763.06,66.0
763.12,80.0
763.18,89.0
763.24,88.0
763.31,85.0
763.37,77.0
763.43,100.0
763.5,116.0
763.56,106.0
763.62,107.0
763.69,105.0
763.75,102.0
763.81,117.0
763.87,106.0
763.94,108.0
764.0,99.0
764.06,78.0
764.13,107.0
764.19,74.0
764.25,86.0
764.32,102.0
764.38,94.0
764.44,99.0
764.5,120.0
764.57,118.0
764.63,113.0
764.69,116.0
764.76,103.0
764.82,104.0
764.88,103.0
764.95,94.0
765.01,96.0
765.07,101.0
765.13,95.0
765.2,94.0
765.26,115.0
765.32,118.0
765.39,111.0
765.45,101.0
765.51,98.0
765.58,102.0
765.64,100.0
765.7,92.0
765.76,90.0
765.83,110.0
765.89,107.0
765.95,108.0
766.02,122.0
766.08,118.0
766.14,112.0
766.21,118.0
766.27,122.0
766.33,108.0
766.39,121.0
766.46,118.0
766.52,118.0
766.58,120.0
766.65,107.0
766.71,107.0
766.77,110.0
766.84,113.0
766.9,111.0
766.96,106.0
767.02,119.0
767.09,112.0
767.15,126.0
767.21,100.0
767.28,103.0
767.34,95.0
767.4,96.0
767.47,132.0
767.53,116.0
767.59,121.0
767.65,109.0
767.72,103.0
767.78,114.0
767.84,123.0
767.91,127.0
767.97,112.0
768.03,122.0
768.1,133.0
768.16,143.0
768.22,148.0
768.28,142.0
768.35,146.0
768.41,158.0
768.47,145.0
768.54,122.0
768.6,120.0
768.66,120.0
768.73,121.0
768.79,106.0
768.85,105.0
768.91,113.0
768.98,96.0
769.04,104.0
769.1,118.0
769.17,107.0
769.23,107.0
769.29,108.0
769.36,103.0
769.42,105.0
769.48,93.0
769.54,94.0
769.61,111.0
769.67,108.0
769.73,122.0
769.8,97.0
769.86,98.0
769.92,95.0
769.99,89.0
770.05,96.0
770.11,91.0
770.17,108.0
770.24,97.0
770.3,111.0
770.36,126.0
770.43,111.0
770.49,129.0
770.55,103.0
770.62,103.0
770.68,117.0
770.74,99.0
770.8,103.0
770.87,121.0
770.93,137.0
770.99,143.0
771.06,133.0
771.12,130.0
771.18,128.0
771.25,139.0
771.31,118.0
771.37,130.0
771.43,133.0
771.5,137.0
771.56,124.0
771.62,122.0
771.69,128.0
771.75,138.0
771.81,111.0
771.88,124.0
771.94,140.0
772.0,122.0
772.06,117.0
772.13,109.0
772.19,97.0
772.25,113.0
772.32,121.0
772.38,118.0
772.44,121.0
772.51,115.0
772.57,123.0
772.63,119.0
772.69,103.0
772.76,102.0
772.82,108.0
772.88,111.0
772.95,100.0
773.01,95.0
773.07,89.0
773.14,118.0
773.2,129.0
773.26,129.0
773.32,120.0
773.39,113.0
773.45,111.0
773.51,113.0
773.58,98.0
773.64,101.0
773.7,109.0
773.77,94.0
773.83,104.0
773.89,105.0
773.95,104.0
774.02,111.0
774.08,121.0
774.14,126.0
774.21,128.0
774.27,138.0
774.33,132.0
774.4,135.0
774.46,143.0
774.52,164.0
774.58,144.0
774.65,165.0
774.71,164.0
774.77,166.0
774.84,176.0
774.9,159.0
774.96,191.0
775.03,155.0
775.09,175.0
775.15,173.0
775.21,144.0
775.28,129.0
775.34,118.0
775.4,136.0
775.47,138.0
775.53,141.0
775.59,157.0
775.66,130.0
775.72,125.0
775.78,134.0
775.84,140.0
775.91,163.0
775.97,156.0
776.03,123.0
776.1,139.0
776.16,135.0
776.22,127.0
776.29,144.0
776.35,148.0
776.41,125.0
776.47,130.0
776.54,115.0
776.6,125.0
776.66,128.0
776.73,119.0
776.79,140.0
776.85,129.0
776.92,126.0
776.98,137.0
777.04,133.0
777.1,130.0
777.17,127.0
777.23,103.0
777.29,121.0
777.36,124.0
777.42,91.0
777.48,108.0
777.55,118.0
777.61,91.0
777.67,105.0
777.73,111.0
777.8,100.0
777.86,80.0
777.92,72.0
777.99,78.0
778.05,84.0
778.11,82.0
778.18,85.0
778.24,88.0
778.3,91.0
778.36,80.0
778.43,63.0
778.49,82.0
778.55,64.0
778.62,61.0
778.68,74.0
778.74,50.0
778.81,55.0
778.87,66.0
778.93,54.0
778.99,48.0
779.06,49.0
779.12,61.0
779.18,63.0
779.25,66.0
779.31,69.0
779.37,61.0
779.44,62.0
779.5,71.0
779.56,52.0
779.62,63.0
779.69,50.0
779.75,50.0
779.81,41.0
779.88,43.0
779.94,78.0
780.0,60.0
780.07,71.0
780.13,71.0
780.19,65.0
780.25,56.0
780.32,57.0
780.38,74.0
780.44,89.0
780.51,55.0
780.57,45.0
780.63,58.0
780.7,63.0
780.76,61.0
780.82,62.0
780.88,67.0
780.95,58.0
781.01,79.0
781.07,83.0
781.14,76.0
781.2,76.0
781.26,88.0
781.33,86.0
781.39,89.0
781.45,92.0
781.51,91.0
781.58,107.0
781.64,102.0
781.7,75.0
781.77,96.0
781.83,93.0
781.89,87.0
781.96,91.0
782.02,85.0
782.08,98.0
782.14,100.0
782.21,108.0
782.27,112.0
782.33,102.0
782.4,108.0
782.46,121.0
782.52,115.0
782.59,107.0
782.65,81.0
782.71,92.0
782.77,93.0
782.84,94.0
782.9,112.0
782.96,102.0
783.03,89.0
783.09,86.0
783.15,81.0
783.22,88.0
783.28,87.0
783.34,88.0
783.4,85.0
783.47,81.0
783.53,92.0
783.59,77.0
783.66,88.0
783.72,78.0
783.78,57.0
783.85,57.0
783.91,57.0
783.97,74.0
784.03,64.0
784.1,74.0
784.16,85.0
784.22,67.0
784.29,67.0
784.35,78.0
784.41,67.0
784.48,80.0
784.54,71.0
784.6,47.0
784.66,77.0
784.73,80.0
784.79,79.0
784.85,64.0
784.92,54.0
784.98,81.0
785.04,85.0
785.11,73.0
785.17,64.0
785.23,73.0
785.29,60.0
785.36,67.0
785.42,68.0
785.48,48.0
785.55,52.0
785.61,58.0
785.67,60.0
785.74,65.0
785.8,59.0
785.86,57.0
785.92,61.0
785.99,59.0
786.05,67.0
786.11,72.0
786.18,61.0
786.24,67.0
786.3,74.0
786.37,59.0
786.43,62.0
786.49,55.0
786.55,56.0
786.62,66.0
786.68,56.0
786.74,70.0
786.81,56.0
786.87,58.0
786.93,59.0
787.0,66.0
787.06,76.0
787.12,90.0
787.18,71.0
787.25,59.0
787.31,71.0
787.37,79.0
787.44,89.0
787.5,69.0
787.56,67.0
787.63,63.0
787.69,44.0
787.75,59.0
787.81,91.0
787.88,91.0
787.94,83.0
788.0,97.0
788.07,69.0
788.13,72.0
788.19,100.0
788.26,84.0
788.32,83.0
788.38,56.0
788.44,73.0
788.51,88.0
788.57,59.0
788.63,67.0
788.7,80.0
788.76,70.0
788.82,66.0
788.89,84.0
788.95,66.0
789.01,95.0
789.07,67.0
789.14,57.0
789.2,70.0
789.26,71.0
789.33,82.0
789.39,71.0
789.45,95.0
789.52,83.0
789.58,112.0
789.64,92.0
789.7,78.0
789.77,80.0
789.83,78.0
789.89,94.0
789.96,93.0
790.02,94.0
790.08,70.0
790.15,81.0
790.21,101.0
790.27,86.0
790.33,103.0
790.4,115.0
790.46,89.0
790.52,105.0
790.59,115.0
790.65,137.0
790.71,114.0
790.78,115.0
790.84,99.0
790.9,107.0
790.96,110.0
791.03,129.0
791.09,138.0
791.15,127.0
791.22,111.0
791.28,124.0
791.34,116.0
791.41,118.0
791.47,113.0
791.53,92.0
791.59,80.0
791.66,111.0
791.72,97.0
791.78,90.0
791.85,103.0
791.91,117.0
791.97,114.0
792.04,117.0
792.1,121.0
792.16,108.0
792.22,116.0
792.29,111.0
792.35,119.0
792.41,89.0
792.48,106.0
792.54,113.0
792.6,117.0
792.67,135.0
792.73,130.0
792.79,131.0
792.85,124.0
792.92,113.0
792.98,117.0
793.04,115.0
793.11,102.0
793.17,141.0
793.23,119.0
793.3,122.0
793.36,107.0
793.42,111.0
793.48,122.0
793.55,107.0
793.61,127.0
793.67,127.0
793.74,118.0
793.8,119.0
793.86,105.0
793.93,107.0
793.99,88.0
794.05,93.0
794.11,101.0
794.18,99.0
794.24,97.0
794.3,97.0
794.37,116.0
794.43,117.0
794.49,110.0
794.56,119.0
794.62,113.0
794.68,102.0
794.74,109.0
794.81,118.0
794.87,115.0
794.93,105.0
795.0,98.0
795.06,108.0
795.12,104.0
795.19,96.0
795.25,99.0
795.31,108.0
795.37,96.0
795.44,93.0
795.5,86.0
795.56,78.0
795.63,60.0
795.69,67.0
795.75,58.0
795.82,73.0
795.88,71.0
795.94,86.0
796.0,64.0
796.07,69.0
796.13,94.0
796.19,66.0
796.26,92.0
796.32,78.0
796.38,85.0
796.45,69.0
796.51,63.0
796.57,63.0
796.63,64.0
796.7,69.0
796.76,94.0
796.82,118.0
796.89,96.0
796.95,112.0
797.01,80.0
797.08,100.0
797.14,102.0
797.2,113.0
797.26,102.0
797.33,121.0
797.39,140.0
797.45,122.0
797.52,138.0
797.58,112.0
797.64,111.0
797.71,110.0
797.77,108.0
797.83,108.0
797.89,109.0
797.96,119.0
798.02,102.0
798.08,116.0
798.15,107.0
798.21,111.0
798.27,129.0
798.34,119.0
798.4,119.0
798.46,107.0
798.52,97.0
798.59,114.0
798.65,126.0
798.71,115.0
798.78,136.0
798.84,119.0
798.9,124.0
798.97,150.0
799.03,107.0
799.09,113.0
799.15,104.0
799.22,109.0
799.28,116.0
799.34,102.0
799.41,102.0
799.47,114.0
799.53,109.0
799.6,92.0
799.66,88.0
799.72,100.0
799.78,80.0
799.85,97.0
799.91,96.0
799.97,86.0
800.04,78.0
800.1,73.0
800.16,83.0
800.23,89.0
800.29,76.0
800.35,83.0
800.41,78.0
800.48,75.0
800.54,84.0
800.6,95.0
800.67,83.0
800.73,76.0
800.79,75.0
800.86,69.0
800.92,72.0
800.98,94.0
801.04,88.0
801.11,95.0
801.17,89.0
801.23,107.0
801.3,104.0
801.36,103.0
801.42,109.0
801.49,108.0
801.55,111.0
801.61,110.0
801.67,133.0
801.74,122.0
801.8,122.0
801.86,131.0
801.93,119.0
801.99,142.0
802.05,129.0
802.12,127.0
802.18,117.0
802.24,111.0
802.3,103.0
802.37,108.0
802.43,113.0
802.49,104.0
802.56,119.0
802.62,103.0
802.68,103.0
802.75,104.0
802.81,100.0
802.87,99.0
802.93,109.0
803.0,90.0
803.06,72.0
803.12,62.0
803.19,79.0
803.25,74.0
803.31,73.0
803.38,72.0
803.44,81.0
803.5,69.0
803.56,75.0
803.63,83.0
803.69,72.0
803.75,94.0
803.82,83.0
803.88,93.0
803.94,88.0
804.01,89.0
804.07,91.0
804.13,112.0
804.19,111.0
804.26,90.0
804.32,88.0
804.38,103.0
804.45,105.0
804.51,101.0
804.57,105.0
804.64,107.0
804.7,110.0
804.76,90.0
804.82,70.0
804.89,88.0
804.95,76.0
805.01,76.0
805.08,75.0
805.14,74.0
805.2,91.0
805.27,88.0
805.33,107.0
805.39,96.0
805.45,89.0
805.52,78.0
805.58,80.0
805.64,80.0
805.71,87.0
805.77,106.0
805.83,89.0
805.9,99.0
805.96,99.0
806.02,118.0
806.08,102.0
806.15,98.0
806.21,105.0
806.27,82.0
806.34,94.0
806.4,81.0
806.46,75.0
806.53,88.0
806.59,83.0
806.65,67.0
806.71,45.0
806.78,54.0
806.84,65.0
806.9,60.0
806.97,62.0
807.03,70.0
807.09,57.0
807.16,59.0
807.22,56.0
807.28,58.0
807.34,87.0
807.41,74.0
807.47,73.0
807.53,102.0
807.6,109.0
807.66,108.0
807.72,96.0
807.79,93.0
807.85,98.0
807.91,107.0
807.97,113.0
808.04,114.0
808.1,126.0
808.16,120.0
808.23,104.0
808.29,120.0
808.35,126.0
808.42,122.0
808.48,113.0
808.54,112.0
808.6,118.0
808.67,107.0
808.73,129.0
808.79,116.0
808.86,124.0
808.92,126.0
808.98,144.0
809.05,100.0
809.11,104.0
809.17,131.0
809.23,137.0
809.3,125.0
809.36,89.0
809.42,107.0
809.49,108.0
809.55,110.0
809.61,119.0
809.68,132.0
809.74,133.0
809.8,123.0
809.86,125.0
809.93,127.0
809.99,125.0
810.05,105.0
810.12,102.0
810.18,111.0
810.24,108.0
810.31,104.0
810.37,104.0
810.43,111.0
810.49,95.0
810.56,120.0
810.62,105.0
810.68,97.0
810.75,114.0
810.81,109.0
810.87,116.0
810.94,96.0
811.0,88.0
811.06,85.0
811.12,76.0
811.19,93.0
811.25,74.0
811.31,74.0
811.38,74.0
811.44,60.0
811.5,52.0
811.57,55.0
811.63,55.0
811.69,58.0
811.75,41.0
811.82,48.0
811.88,48.0
811.94,57.0
812.01,58.0
812.07,37.0
812.13,39.0
812.2,49.0
812.26,45.0
812.32,44.0
812.38,63.0
812.45,48.0
812.51,55.0
812.57,45.0
812.64,48.0
812.7,45.0
812.76,44.0
812.83,52.0
812.89,55.0
812.95,52.0
813.01,56.0
813.08,49.0
813.14,49.0
813.2,56.0
813.27,58.0
813.33,54.0
813.39,61.0
813.46,59.0
813.52,50.0
813.58,45.0
813.64,45.0
813.71,68.0
813.77,55.0
813.83,42.0
813.9,49.0
813.96,52.0
814.02,65.0
814.09,45.0
814.15,39.0
814.21,56.0
814.27,62.0
814.34,70.0
814.4,65.0
814.46,86.0
814.53,72.0
814.59,63.0
814.65,69.0
814.72,70.0
814.78,74.0
814.84,48.0
814.9,63.0
814.97,61.0
815.03,54.0
815.09,66.0
815.16,48.0
815.22,60.0
815.28,85.0
815.35,92.0
815.41,89.0
815.47,88.0
815.53,92.0
815.6,80.0
815.66,71.0
815.72,71.0
815.79,71.0
815.85,79.0
815.91,92.0
815.98,103.0
816.04,86.0
816.1,80.0
816.16,70.0
816.23,73.0
816.29,69.0
816.35,68.0
816.42,80.0
816.48,84.0
816.54,94.0
816.61,85.0
816.67,83.0
816.73,77.0
816.79,63.0
816.86,77.0
816.92,99.0
816.98,105.0
817.05,102.0
817.11,95.0
817.17,93.0
817.24,98.0
817.3,96.0
817.36,93.0
817.42,80.0
817.49,72.0
817.55,75.0
817.61,88.0
817.68,85.0
817.74,61.0
817.8,87.0
817.87,77.0
817.93,75.0
817.99,87.0
818.05,103.0
818.12,110.0
818.18,120.0
818.24,117.0
818.31,102.0
818.37,115.0
818.43,99.0
818.5,106.0
818.56,107.0
818.62,107.0
818.68,111.0
818.75,108.0
818.81,122.0
818.87,122.0
818.94,116.0
819.0,92.0
819.06,101.0
819.13,99.0
819.19,86.0
819.25,99.0
819.31,107.0
819.38,103.0
819.44,85.0
819.5,74.0
819.57,83.0
819.63,92.0
819.69,86.0
819.76,93.0
819.82,83.0
819.88,75.0
819.94,73.0
820.01,104.0
820.07,101.0
820.13,107.0
820.2,100.0
820.26,100.0
820.32,101.0
820.39,100.0
820.45,107.0
820.51,105.0
820.57,100.0
820.64,96.0
820.7,89.0
820.76,122.0
820.83,133.0
820.89,112.0
820.95,97.0
821.02,108.0
821.08,122.0
821.14,129.0
821.2,138.0
821.27,150.0
821.33,135.0
821.39,116.0
821.46,127.0
821.52,122.0
821.58,116.0
821.65,113.0
821.71,124.0
821.77,124.0
821.83,121.0
821.9,130.0
821.96,119.0
822.02,115.0
822.09,127.0
822.15,121.0
822.21,130.0
822.28,122.0
822.34,107.0
822.4,110.0
822.46,132.0
822.53,117.0
822.59,124.0
822.65,135.0
822.72,118.0
822.78,133.0
822.84,133.0
822.91,154.0
822.97,153.0
823.03,138.0
823.09,148.0
823.16,173.0
823.22,148.0
823.28,146.0
823.35,129.0
823.41,124.0
823.47,147.0
823.54,135.0
823.6,127.0
823.66,148.0
823.72,146.0
823.79,144.0
823.85,143.0
823.91,174.0
823.98,161.0
824.04,164.0
824.1,176.0
824.17,182.0
824.23,173.0
824.29,184.0
824.35,182.0
824.42,190.0
824.48,179.0
824.54,188.0
824.61,201.0
824.67,175.0
824.73,177.0
824.8,187.0
824.86,203.0
824.92,197.0
824.98,178.0
825.05,177.0
825.11,185.0
825.17,180.0
825.24,171.0
825.3,162.0
825.36,181.0
825.43,168.0
825.49,171.0
825.55,183.0
825.61,173.0
825.68,160.0
825.74,169.0
825.8,174.0
825.87,178.0
825.93,195.0
825.99,184.0
826.06,180.0
826.12,180.0
826.18,182.0
826.24,173.0
826.31,193.0
826.37,191.0
826.43,180.0
826.5,178.0
826.56,164.0
826.62,159.0
826.69,166.0
826.75,153.0
826.81,165.0
826.87,167.0
826.94,160.0
827.0,159.0
827.06,161.0
827.13,177.0
827.19,152.0
827.25,148.0
827.32,146.0
827.38,155.0
827.44,154.0
827.5,129.0
827.57,150.0
827.63,144.0
827.69,135.0
827.76,126.0
827.82,110.0
827.88,107.0
827.95,131.0
828.01,121.0
828.07,99.0
828.13,115.0
828.2,122.0
828.26,92.0
828.32,111.0
828.39,121.0
828.45,94.0
828.51,100.0
828.58,96.0
828.64,109.0
828.7,96.0
828.76,89.0
828.83,89.0
828.89,69.0
828.95,50.0
829.02,74.0
829.08,67.0
829.14,68.0
829.21,84.0
829.27,69.0
829.33,75.0
829.39,75.0
829.46,85.0
829.52,98.0
829.58,100.0
829.65,103.0
829.71,83.0
829.77,88.0
829.84,71.0
829.9,81.0
829.96,80.0
830.02,65.0
830.09,67.0
830.15,88.0
830.21,78.0
830.28,60.0
830.34,77.0
830.4,73.0
830.47,70.0
830.53,59.0
830.59,62.0
830.65,83.0
830.72,77.0
830.78,69.0
830.84,76.0
830.91,88.0
830.97,93.0
831.03,85.0
831.1,92.0
831.16,91.0
831.22,107.0
831.28,113.0
831.35,117.0
831.41,109.0
831.47,101.0
831.54,108.0
831.6,107.0
831.66,109.0
831.73,123.0
831.79,134.0
831.85,119.0
831.91,124.0
831.98,109.0
832.04,106.0
832.1,123.0
832.17,130.0
832.23,124.0
832.29,118.0
832.36,119.0
832.42,110.0
832.48,123.0
832.54,115.0
832.61,129.0
832.67,149.0
832.73,123.0
832.8,113.0
832.86,126.0
832.92,121.0
832.99,116.0
833.05,132.0
833.11,129.0
833.17,116.0
833.24,100.0
833.3,118.0
833.36,124.0
833.43,91.0
833.49,95.0
833.55,99.0
833.62,106.0
833.68,106.0
833.74,95.0
833.8,104.0
833.87,119.0
833.93,136.0
833.99,143.0
834.06,133.0
834.12,136.0
834.18,104.0
834.25,121.0
834.31,112.0
834.37,118.0
834.43,124.0
834.5,124.0
834.56,126.0
834.62,107.0
834.69,111.0
834.75,123.0
834.81,129.0
834.88,119.0
834.94,118.0
835.0,121.0
835.06,115.0
835.13,123.0
835.19,112.0
835.25,112.0
835.32,122.0
835.38,96.0
835.44,108.0
835.51,116.0
835.57,118.0
835.63,107.0
835.69,107.0
835.76,97.0
835.82,99.0
835.88,96.0
835.95,85.0
836.01,78.0
836.07,61.0
836.14,101.0
836.2,96.0
836.26,85.0
836.32,77.0
836.39,63.0
836.45,97.0
836.51,76.0
836.58,73.0
836.64,75.0
836.7,68.0
836.77,69.0
836.83,58.0
836.89,66.0
836.95,75.0
837.02,67.0
837.08,66.0
837.14,63.0
837.21,67.0
837.27,56.0
837.33,89.0
837.4,71.0
837.46,65.0
837.52,63.0
837.58,51.0
837.65,81.0
837.71,63.0
837.77,73.0
837.84,88.0
837.9,86.0
837.96,83.0
838.03,101.0
838.09,94.0
838.15,93.0
838.21,76.0
838.28,107.0
838.34,105.0
838.4,103.0
838.47,108.0
838.53,107.0
838.59,117.0
838.66,119.0
838.72,112.0
838.78,104.0
838.84,97.0
838.91,85.0
838.97,79.0
839.03,78.0
839.1,91.0
839.16,95.0
839.22,89.0
839.29,77.0
839.35,69.0
839.41,74.0
839.47,80.0
839.54,78.0
839.6,83.0
839.66,96.0
839.73,99.0
839.79,79.0
839.85,95.0
839.92,83.0
839.98,66.0
840.04,81.0
840.1,88.0
840.17,102.0
840.23,91.0
840.29,84.0
840.36,98.0
840.42,94.0
840.48,109.0
840.55,88.0
840.61,87.0
840.67,102.0
840.73,93.0
840.8,103.0
840.86,107.0
840.92,98.0
840.99,83.0
841.05,72.0
841.11,78.0
841.18,85.0
841.24,93.0
841.3,102.0
841.36,105.0
841.43,99.0
841.49,89.0
841.55,75.0
841.62,104.0
841.68,103.0
841.74,98.0
841.81,104.0
841.87,111.0
841.93,105.0
841.99,96.0
842.06,102.0
842.12,125.0
842.18,100.0
842.25,92.0
842.31,120.0
842.37,113.0
842.44,103.0
842.5,89.0
842.56,107.0
842.62,111.0
842.69,104.0
842.75,102.0
842.81,100.0
842.88,105.0
842.94,109.0
843.0,125.0
843.07,121.0
843.13,128.0
843.19,115.0
843.25,116.0
843.32,111.0
843.38,104.0
843.44,118.0
843.51,118.0
843.57,114.0
843.63,130.0
843.7,132.0
843.76,133.0
843.82,128.0
843.88,129.0
843.95,132.0
844.01,132.0
844.07,109.0
844.14,120.0
844.2,127.0
844.26,99.0
844.33,113.0
844.39,110.0
844.45,107.0
844.51,86.0
844.58,68.0
844.64,83.0
844.7,92.0
844.77,98.0
844.83,76.0
844.89,81.0
844.96,78.0
845.02,77.0
845.08,76.0
845.14,76.0
845.21,96.0
845.27,82.0
845.33,78.0
845.4,76.0
845.46,79.0
845.52,107.0
845.59,94.0
845.65,96.0
845.71,104.0
845.77,104.0
845.84,93.0
845.9,78.0
845.96,67.0
846.03,80.0
846.09,69.0
846.15,82.0
846.22,79.0
846.28,73.0
846.34,75.0
846.4,56.0
846.47,71.0
846.53,65.0
846.59,65.0
846.66,69.0
846.72,56.0
846.78,59.0
846.85,57.0
846.91,65.0
846.97,87.0
847.03,81.0
847.1,72.0
847.16,82.0
847.22,64.0
847.29,63.0
847.35,79.0
847.41,88.0
847.48,94.0
847.54,78.0
847.6,83.0
847.66,81.0
847.73,85.0
847.79,83.0
847.85,75.0
847.92,90.0
847.98,73.0
848.04,78.0
848.11,90.0
848.17,107.0
848.23,100.0
848.29,102.0
848.36,114.0
848.42,117.0
848.48,111.0
848.55,105.0
848.61,110.0
848.67,106.0
848.74,94.0
848.8,89.0
848.86,97.0
848.92,105.0
848.99,116.0
849.05,100.0
849.11,95.0
849.18,111.0
849.24,120.0
849.3,115.0
849.37,96.0
849.43,111.0
849.49,117.0
849.55,127.0
849.62,140.0
849.68,126.0
849.74,106.0
849.81,107.0
849.87,119.0
849.93,120.0
850.0,116.0
850.06,102.0
850.12,103.0
850.18,105.0
850.25,93.0
850.31,93.0
850.37,107.0
850.44,102.0
850.5,102.0
850.56,118.0
850.63,109.0
850.69,93.0
850.75,99.0
850.81,111.0
850.88,96.0
850.94,93.0
851.0,97.0
851.07,90.0
851.13,87.0
851.19,105.0
851.26,86.0
851.32,101.0
851.38,113.0
851.44,74.0
851.51,91.0
851.57,89.0
851.63,66.0
851.7,71.0
851.76,81.0
851.82,69.0
851.89,56.0
851.95,68.0
852.01,76.0
852.07,86.0
852.14,98.0
852.2,70.0
852.26,77.0
852.33,84.0
852.39,84.0
852.45,92.0
852.52,90.0
852.58,99.0
852.64,93.0
852.7,101.0
852.77,117.0
852.83,100.0
852.89,104.0
852.96,101.0
853.02,91.0
853.08,96.0
853.15,100.0
853.21,71.0
853.27,84.0
853.33,100.0
853.4,82.0
853.46,106.0
853.52,85.0
853.59,85.0
853.65,74.0
853.71,80.0
853.78,69.0
853.84,81.0
853.9,114.0
853.96,76.0
854.03,94.0
854.09,118.0
854.15,107.0
854.22,96.0
854.28,104.0
854.34,86.0
854.41,90.0
854.47,85.0
854.53,83.0
854.59,80.0
854.66,70.0
854.72,77.0
854.78,58.0
854.85,71.0
854.91,86.0
854.97,64.0
855.04,70.0
855.1,59.0
855.16,49.0
855.22,65.0
855.29,55.0
855.35,70.0
855.41,77.0
855.48,67.0
855.54,63.0
855.6,65.0
855.67,96.0
855.73,94.0
855.79,59.0
855.85,72.0
855.92,61.0
855.98,77.0
856.04,72.0
856.11,42.0
856.17,56.0
856.23,53.0
856.3,52.0
856.36,56.0
856.42,53.0
856.48,56.0
856.55,50.0
856.61,38.0
856.67,57.0
856.74,61.0
856.8,46.0
856.86,51.0
856.93,60.0
856.99,69.0
857.05,55.0
857.11,91.0
857.18,90.0
857.24,91.0
857.3,86.0
857.37,87.0
857.43,88.0
857.49,75.0
857.56,82.0
857.62,96.0
857.68,100.0
857.74,92.0
857.81,71.0
857.87,92.0
857.93,108.0
858.0,108.0
858.06,93.0
858.12,99.0
858.19,99.0
858.25,107.0
858.31,78.0
858.37,77.0
858.44,79.0
858.5,91.0
858.56,92.0
858.63,75.0
858.69,91.0
858.75,103.0
858.82,105.0
858.88,98.0
858.94,90.0
859.0,112.0
859.07,94.0
859.13,99.0
859.19,115.0
859.26,119.0
859.32,114.0
859.38,91.0
859.45,130.0
859.51,121.0
859.57,133.0
859.63,123.0
859.7,118.0
859.76,144.0
859.82,148.0
859.89,138.0
859.95,135.0
860.01,116.0
860.08,106.0
860.14,131.0
860.2,126.0
860.26,119.0
860.33,136.0
860.39,108.0
860.45,136.0
860.52,130.0
860.58,125.0
860.64,120.0
860.71,119.0
860.77,104.0
860.83,104.0
860.89,107.0
860.96,96.0
861.02,95.0
861.08,99.0
861.15,104.0
861.21,102.0
861.27,94.0
861.34,104.0
861.4,111.0
861.46,103.0
861.52,100.0
861.59,106.0
861.65,101.0
861.71,89.0
861.78,110.0
861.84,110.0
861.9,113.0
861.97,117.0
862.03,100.0
862.09,114.0
862.15,93.0
862.22,82.0
862.28,85.0
862.34,67.0
862.41,72.0
862.47,78.0
862.53,89.0
862.6,60.0
862.66,61.0
862.72,77.0
862.78,67.0
862.85,63.0
862.91,50.0
862.97,58.0
863.04,62.0
863.1,67.0
863.16,88.0
863.23,75.0
863.29,66.0
863.35,48.0
863.41,66.0
863.48,77.0
863.54,63.0
863.6,74.0
863.67,86.0
863.73,93.0
863.79,92.0
863.86,86.0
863.92,75.0
863.98,86.0
864.04,107.0
864.11,91.0
864.17,85.0
864.23,85.0
864.3,97.0
864.36,113.0
864.42,105.0
864.49,104.0
864.55,107.0
864.61,111.0
864.67,105.0
864.74,118.0
864.8,115.0
864.86,111.0
864.93,102.0
864.99,105.0
865.05,119.0
865.12,122.0
865.18,118.0
865.24,118.0
865.3,120.0
865.37,128.0
865.43,119.0
865.49,125.0
865.56,127.0
865.62,120.0
865.68,104.0
865.75,104.0
865.81,109.0
865.87,130.0
865.93,123.0
866.0,107.0
866.06,114.0
866.12,112.0
866.19,133.0
866.25,124.0
866.31,129.0
866.38,113.0
866.44,93.0
866.5,103.0
866.56,123.0
866.63,118.0
866.69,93.0
866.75,89.0
866.82,100.0
866.88,97.0
866.94,110.0
867.01,110.0
867.07,111.0
867.13,107.0
867.19,82.0
867.26,82.0
867.32,96.0
867.38,122.0
867.45,113.0
867.51,99.0
867.57,96.0
867.64,107.0
867.7,102.0
867.76,101.0
867.82,89.0
867.89,85.0
867.95,82.0
868.01,85.0
868.08,90.0
868.14,74.0
868.2,77.0
868.27,92.0
868.33,80.0
868.39,73.0
868.45,74.0
868.52,83.0
868.58,82.0
868.64,100.0
868.71,99.0
868.77,107.0
868.83,113.0
868.9,115.0
868.96,119.0
869.02,126.0
869.08,115.0
869.15,128.0
869.21,114.0
869.27,102.0
869.34,120.0
869.4,123.0
869.46,108.0
869.53,115.0
869.59,92.0
869.65,93.0
869.71,115.0
869.78,103.0
869.84,91.0
869.9,78.0
869.97,96.0
870.03,89.0
870.09,84.0
870.16,102.0
870.22,74.0
870.28,92.0
870.34,105.0
870.41,92.0
870.47,85.0
870.53,97.0
870.6,86.0
870.66,77.0
870.72,79.0
870.79,100.0
870.85,90.0
870.91,85.0
870.97,93.0
871.04,85.0
871.1,75.0
871.16,87.0
871.23,89.0
871.29,70.0
871.35,91.0
871.42,86.0
871.48,86.0
871.54,84.0
871.6,92.0
871.67,83.0
871.73,96.0
871.79,85.0
871.86,86.0
871.92,89.0
871.98,90.0
872.05,84.0
872.11,73.0
872.17,70.0
872.23,85.0
872.3,90.0
872.36,83.0
872.42,72.0
872.49,78.0
872.55,106.0
872.61,100.0
872.68,112.0
872.74,120.0
872.8,94.0
872.86,92.0
872.93,102.0
872.99,106.0
873.05,117.0
873.12,112.0
873.18,118.0
873.24,112.0
873.31,114.0
873.37,96.0
873.43,73.0
873.49,93.0
873.56,117.0
873.62,119.0
873.68,130.0
873.75,92.0
873.81,107.0
873.87,125.0
873.94,109.0
874.0,116.0
874.06,109.0
874.12,139.0
874.19,162.0
874.25,150.0
874.31,144.0
874.38,149.0
874.44,148.0
874.5,141.0
874.57,138.0
874.63,146.0
874.69,132.0
874.75,140.0
874.82,159.0
874.88,143.0
874.94,157.0
875.01,151.0
875.07,147.0
875.13,162.0
875.2,155.0
875.26,159.0
875.32,155.0
875.38,153.0
875.45,169.0
875.51,152.0
875.57,169.0
875.64,166.0
875.7,156.0
875.76,163.0
875.83,134.0
875.89,144.0
875.95,151.0
876.01,148.0
876.08,158.0
876.14,144.0
876.2,152.0
876.27,159.0
876.33,146.0
876.39,155.0
876.46,163.0
876.52,145.0
876.58,148.0
876.64,146.0
876.71,159.0
876.77,150.0
876.83,155.0
876.9,141.0
876.96,144.0
877.02,141.0
877.09,135.0
877.15,159.0
877.21,166.0
877.27,162.0
877.34,171.0
877.4,173.0
877.46,166.0
877.53,175.0
877.59,170.0
877.65,157.0
877.72,149.0
877.78,139.0
877.84,154.0
877.9,165.0
877.97,158.0
878.03,135.0
878.09,129.0
878.16,127.0
878.22,132.0
878.28,116.0
878.35,111.0
878.41,124.0
878.47,96.0
878.53,102.0
878.6,122.0
878.66,136.0
878.72,126.0
878.79,103.0
878.85,107.0
878.91,113.0
878.98,123.0
879.04,122.0
879.1,142.0
879.16,125.0
879.23,131.0
879.29,126.0
879.35,116.0
879.42,128.0
879.48,134.0
879.54,86.0
879.61,100.0
879.67,93.0
879.73,107.0
879.79,119.0
879.86,113.0
879.92,129.0
879.98,135.0
880.05,124.0
880.11,121.0
880.17,123.0
880.24,139.0
880.3,140.0
880.36,143.0
880.42,112.0
880.49,115.0
880.55,115.0
880.61,118.0
880.68,121.0
880.74,126.0
880.8,136.0
880.87,113.0
880.93,108.0
880.99,122.0
881.05,125.0
881.12,108.0
881.18,111.0
881.24,107.0
881.31,120.0
881.37,129.0
881.43,124.0
881.5,140.0
881.56,123.0
881.62,140.0
881.68,153.0
881.75,132.0
881.81,141.0
881.87,133.0
881.94,135.0
882.0,148.0
882.06,143.0
882.13,146.0
882.19,168.0
882.25,177.0
882.31,149.0
882.38,159.0
882.44,155.0
882.5,168.0
882.57,176.0
882.63,179.0
882.69,183.0
882.76,180.0
882.82,174.0
882.88,186.0
882.94,184.0
883.01,171.0
883.07,175.0
883.13,165.0
883.2,165.0
883.26,144.0
883.32,147.0
883.39,125.0
883.45,135.0
883.51,160.0
883.57,155.0
883.64,146.0
883.7,155.0
883.76,144.0
883.83,147.0
883.89,150.0
883.95,162.0
884.02,164.0
884.08,148.0
884.14,138.0
884.2,147.0
884.27,139.0
884.33,141.0
884.39,155.0
884.46,160.0
884.52,163.0
884.58,159.0
884.65,153.0
884.71,162.0
884.77,154.0
884.83,144.0
884.9,147.0
884.96,134.0
885.02,119.0
885.09,146.0
885.15,137.0
885.21,110.0
885.28,118.0
885.34,126.0
885.4,131.0
885.46,140.0
885.53,126.0
885.59,148.0
885.65,137.0
885.72,141.0
885.78,151.0
885.84,144.0
885.91,135.0
885.97,138.0
886.03,143.0
886.09,147.0
886.16,134.0
886.22,144.0
886.28,138.0
886.35,121.0
886.41,120.0
886.47,142.0
886.54,122.0
886.6,141.0
886.66,138.0
886.72,131.0
886.79,137.0
886.85,129.0
886.91,132.0
886.98,116.0
887.04,135.0
887.1,128.0
887.17,122.0
887.23,130.0
887.29,137.0
887.35,135.0
887.42,129.0
887.48,114.0
887.54,109.0
887.61,109.0
887.67,127.0
887.73,122.0
887.8,123.0
887.86,112.0
887.92,111.0
887.98,113.0
888.05,103.0
888.11,104.0
888.17,114.0
888.24,141.0
888.3,118.0
888.36,108.0
888.43,121.0
888.49,105.0
888.55,103.0
888.61,101.0
888.68,115.0
888.74,117.0
888.8,117.0
888.87,99.0
888.93,109.0
888.99,97.0
889.06,104.0
889.12,110.0
889.18,104.0
889.24,104.0
889.31,132.0
889.37,122.0
889.43,104.0
889.5,103.0
889.56,101.0
889.62,86.0
889.69,80.0
889.75,94.0
889.81,111.0
889.87,134.0
889.94,129.0
890.0,153.0
890.06,147.0
890.13,152.0
890.19,149.0
890.25,139.0
890.32,131.0
890.38,111.0
890.44,127.0
890.5,120.0
890.57,127.0
890.63,121.0
890.69,119.0
890.76,142.0
890.82,146.0
890.88,134.0
890.95,125.0
891.01,137.0
891.07,140.0
891.13,148.0
891.2,142.0
891.26,146.0
891.32,128.0
891.39,131.0
891.45,133.0
891.51,140.0
891.58,150.0
891.64,124.0
891.7,149.0
891.76,158.0
891.83,155.0
891.89,162.0
891.95,136.0
892.02,124.0
892.08,125.0
892.14,124.0
892.21,125.0
892.27,117.0
892.33,110.0
892.39,106.0
892.46,111.0
892.52,100.0
892.58,98.0
892.65,86.0
892.71,86.0
892.77,85.0
892.84,101.0
892.9,96.0
892.96,77.0
893.02,83.0
893.09,91.0
893.15,95.0
893.21,112.0
893.28,111.0
893.34,98.0
893.4,93.0
893.47,82.0
893.53,88.0
893.59,74.0
893.65,69.0
893.72,97.0
893.78,91.0
893.84,93.0
893.91,105.0
893.97,118.0
894.03,83.0
894.1,78.0
894.16,100.0
894.22,104.0
894.28,74.0
894.35,70.0
894.41,80.0
894.47,60.0
894.54,45.0
894.6,66.0
894.66,63.0
894.73,53.0
894.79,85.0
894.85,64.0
894.91,90.0
894.98,70.0
895.04,70.0
895.1,67.0
895.17,60.0
895.23,61.0
895.29,55.0
895.36,80.0
895.42,51.0
895.48,65.0
895.54,63.0
895.61,56.0
895.67,70.0
895.73,45.0
895.8,37.0
895.86,31.0
895.92,44.0
895.99,49.0
896.05,60.0
896.11,73.0
896.17,61.0
896.24,63.0
896.3,50.0
896.36,56.0
896.43,48.0
896.49,46.0
896.55,26.0
896.62,27.0
896.68,42.0
896.74,45.0
896.8,28.0
896.87,30.0
896.93,31.0
896.99,15.0
897.06,37.0
897.12,45.0
897.18,47.0
897.25,56.0
897.31,42.0
897.37,63.0
897.43,61.0
897.5,70.0
897.56,59.0
897.62,51.0
897.69,70.0
897.75,56.0
897.81,52.0
897.88,67.0
897.94,77.0
898.0,84.0
898.06,74.0
898.13,92.0
898.19,87.0
898.25,100.0
898.32,88.0
898.38,94.0
898.44,88.0
898.51,99.0
898.57,92.0
898.63,102.0
898.69,97.0
898.76,82.0
898.82,94.0
898.88,69.0
898.95,107.0
899.01,99.0
899.07,107.0
899.14,99.0
899.2,87.0
899.26,104.0
899.32,95.0
899.39,83.0
899.45,72.0
899.51,98.0
899.58,93.0
899.64,85.0
899.7,100.0
899.77,101.0
899.83,91.0
899.89,96.0
899.95,108.0
900.02,102.0
900.08,108.0
900.14,118.0
900.21,126.0
900.27,110.0
900.33,103.0
900.4,94.0
900.46,104.0
900.52,113.0
900.58,96.0
900.65,100.0
900.71,115.0
900.77,114.0
900.84,115.0
900.9,122.0
900.96,128.0
901.03,116.0
901.09,128.0
901.15,108.0
901.21,114.0
901.28,105.0
901.34,104.0
901.4,110.0
901.47,110.0
901.53,133.0
901.59,101.0
901.66,102.0
901.72,93.0
901.78,91.0
901.84,85.0
901.91,89.0
901.97,101.0
902.03,93.0
902.1,101.0
902.16,110.0
902.22,108.0
902.29,124.0
902.35,117.0
902.41,120.0
902.47,104.0
902.54,119.0
902.6,133.0
902.66,149.0
902.73,130.0
902.79,122.0
902.85,107.0
902.92,91.0
902.98,114.0
903.04,88.0
903.1,101.0
903.17,120.0
903.23,99.0
903.29,96.0
903.36,78.0
903.42,86.0
903.48,90.0
903.55,75.0
903.61,97.0
903.67,84.0
903.73,91.0
903.8,75.0
903.86,78.0
903.92,94.0
903.99,93.0
904.05,80.0
904.11,81.0
904.18,97.0
904.24,126.0
904.3,91.0
904.36,103.0
904.43,108.0
904.49,108.0
904.55,108.0
904.62,89.0
904.68,127.0
904.74,132.0
904.81,128.0
904.87,162.0
904.93,124.0
904.99,115.0
905.06,140.0
905.12,111.0
905.18,131.0
905.25,105.0
905.31,116.0
905.37,122.0
905.44,137.0
905.5,153.0
905.56,140.0
905.62,140.0
905.69,120.0
905.75,115.0
905.81,120.0
905.88,101.0
905.94,111.0
906.0,115.0
906.07,113.0
906.13,124.0
906.19,107.0
906.25,105.0
906.32,119.0
906.38,104.0
906.44,113.0
906.51,124.0
906.57,127.0
906.63,126.0
906.7,125.0
906.76,148.0
906.82,151.0
906.88,145.0
906.95,148.0
907.01,121.0
907.07,124.0
907.14,125.0
907.2,114.0
907.26,129.0
907.33,106.0
907.39,105.0
907.45,111.0
907.51,126.0
907.58,98.0
907.64,96.0
907.7,106.0
907.77,99.0
907.83,92.0
907.89,98.0
907.96,107.0
908.02,110.0
908.08,114.0
908.14,114.0
908.21,108.0
908.27,104.0
908.33,124.0
908.4,126.0
908.46,129.0
908.52,122.0
908.59,110.0
908.65,119.0
908.71,135.0
908.77,145.0
908.84,140.0
908.9,143.0
908.96,153.0
909.03,146.0
909.09,154.0
909.15,129.0
909.22,126.0
909.28,128.0
909.34,132.0
909.4,137.0
909.47,135.0
909.53,127.0
909.59,113.0
909.66,125.0
909.72,130.0
909.78,124.0
909.85,132.0
909.91,115.0
909.97,113.0
910.03,137.0
910.1,145.0
910.16,133.0
910.22,149.0
910.29,144.0
910.35,143.0
910.41,147.0
910.48,162.0
910.54,170.0
910.6,156.0
910.66,159.0
910.73,162.0
910.79,149.0
910.85,144.0
910.92,158.0
910.98,158.0
911.04,172.0
911.11,157.0
911.17,142.0
911.23,128.0
911.29,140.0
911.36,148.0
911.42,134.0
911.48,126.0
911.55,118.0
911.61,118.0
911.67,102.0
911.74,89.0
911.8,103.0
911.86,122.0
911.92,96.0
911.99,102.0
912.05,107.0
912.11,100.0
912.18,107.0
912.24,94.0
912.3,80.0
912.37,74.0
912.43,89.0
912.49,81.0
912.55,96.0
912.62,84.0
912.68,84.0
912.74,82.0
912.81,71.0
912.87,61.0
912.93,56.0
913.0,56.0
913.06,47.0
913.12,41.0
913.18,65.0
913.25,63.0
913.31,52.0
913.37,61.0
913.44,67.0
913.5,81.0
913.56,60.0
913.63,49.0
913.69,53.0
913.75,54.0
913.81,39.0
913.88,25.0
913.94,41.0
914.0,47.0
914.07,56.0
914.13,64.0
914.19,50.0
914.26,55.0
914.32,85.0
914.38,77.0
914.44,80.0
914.51,77.0
914.57,83.0
914.63,81.0
914.7,81.0
914.76,92.0
914.82,70.0
914.89,84.0
914.95,83.0
915.01,82.0
915.07,66.0
915.14,66.0
915.2,82.0
915.26,65.0
915.33,69.0
915.39,85.0
915.45,59.0
915.52,83.0
915.58,97.0
915.64,94.0
915.7,96.0
915.77,79.0
915.83,98.0
915.89,106.0
915.96,112.0
916.02,118.0
916.08,111.0
916.15,102.0
916.21,111.0
916.27,111.0
916.33,89.0
916.4,72.0
916.46,100.0
916.52,92.0
916.59,102.0
916.65,103.0
916.71,111.0
916.78,96.0
916.84,96.0
916.9,119.0
916.96,111.0
917.03,122.0
917.09,115.0
917.15,110.0
917.22,115.0
917.28,98.0
917.34,100.0
917.41,82.0
917.47,96.0
917.53,127.0
917.59,118.0
917.66,105.0
917.72,107.0
917.78,113.0
917.85,95.0
917.91,103.0
917.97,107.0
918.04,105.0
918.1,107.0
918.16,84.0
918.22,91.0
918.29,90.0
918.35,93.0
918.41,94.0
918.48,92.0
918.54,82.0
918.6,80.0
918.67,86.0
918.73,76.0
918.79,77.0
918.85,85.0
918.92,90.0
918.98,72.0
919.04,64.0
919.11,86.0
919.17,74.0
919.23,78.0
919.3,85.0
919.36,65.0
919.42,91.0
919.48,77.0
919.55,63.0
919.61,69.0
919.67,83.0
919.74,96.0
919.8,87.0
919.86,77.0
919.93,86.0
919.99,78.0
920.05,75.0
920.11,64.0
920.18,70.0
920.24,71.0
920.3,71.0
920.37,60.0
920.43,42.0
920.49,44.0
920.56,55.0
920.62,58.0
920.68,51.0
920.74,58.0
920.81,68.0
920.87,52.0
920.93,71.0
921.0,57.0
921.06,51.0
921.12,52.0
921.19,64.0
921.25,76.0
921.31,73.0
921.37,63.0
921.44,78.0
921.5,81.0
921.56,79.0
921.63,73.0
921.69,71.0
921.75,71.0
921.82,66.0
921.88,66.0
921.94,73.0
922.0,83.0
922.07,71.0
922.13,67.0
922.19,74.0
922.26,76.0
922.32,71.0
922.38,75.0
922.45,85.0
922.51,88.0
922.57,71.0
922.63,64.0
922.7,86.0
922.76,89.0
922.82,66.0
922.89,83.0
922.95,90.0
923.01,84.0
923.08,98.0
923.14,93.0
923.2,100.0
923.26,89.0
923.33,81.0
923.39,85.0
923.45,92.0
923.52,84.0
923.58,85.0
923.64,86.0
923.71,88.0
923.77,101.0
923.83,96.0
923.89,74.0
923.96,87.0
924.02,88.0
924.08,66.0
924.15,74.0
924.21,102.0
924.27,87.0
924.34,111.0
924.4,94.0
924.46,102.0
924.52,114.0
924.59,100.0
924.65,115.0
924.71,118.0
924.78,132.0
924.84,133.0
924.9,117.0
924.97,113.0
925.03,148.0
925.09,155.0
925.15,143.0
925.22,152.0
925.28,140.0
925.34,166.0
925.41,173.0
925.47,162.0
925.53,181.0
925.6,184.0
925.66,166.0
925.72,169.0
925.78,168.0
925.85,182.0
925.91,191.0
925.97,185.0
926.04,174.0
926.1,155.0
926.16,140.0
926.23,151.0
926.29,162.0
926.35,147.0
926.41,170.0
926.48,162.0
926.54,158.0
926.6,155.0
926.67,148.0
926.73,149.0
926.79,174.0
926.86,168.0
926.92,177.0
926.98,167.0
927.04,174.0
927.11,168.0
927.17,179.0
927.23,191.0
927.3,185.0
927.36,192.0
927.42,195.0
927.49,196.0
927.55,191.0
927.61,178.0
927.67,170.0
927.74,168.0
927.8,171.0
927.86,173.0
927.93,151.0
927.99,155.0
928.05,162.0
928.12,152.0
928.18,136.0
928.24,134.0
928.3,119.0
928.37,110.0
928.43,115.0
928.49,134.0
928.56,118.0
928.62,115.0
928.68,112.0
928.75,123.0
928.81,129.0
928.87,113.0
928.93,82.0
929.0,74.0
929.06,82.0
929.12,99.0
929.19,97.0
929.25,84.0
929.31,120.0
929.38,95.0
929.44,91.0
929.5,78.0
929.56,99.0
929.63,126.0
929.69,121.0
929.75,122.0
929.82,103.0
929.88,93.0
929.94,83.0
930.01,75.0
930.07,98.0
930.13,89.0
930.19,98.0
930.26,103.0
930.32,83.0
930.38,91.0
930.45,97.0
930.51,100.0
930.57,92.0
930.64,94.0
930.7,88.0
930.76,97.0
930.82,79.0
930.89,102.0
930.95,89.0
931.01,96.0
931.08,99.0
931.14,105.0
931.2,110.0
931.27,85.0
931.33,80.0
931.39,71.0
931.45,92.0
931.52,68.0
931.58,77.0
931.64,80.0
931.71,62.0
931.77,98.0
931.83,94.0
931.9,96.0
931.96,91.0
932.02,97.0
932.08,83.0
932.15,85.0
932.21,84.0
932.27,89.0
932.34,94.0
932.4,71.0
932.46,86.0
932.53,75.0
932.59,85.0
932.65,79.0
932.71,91.0
932.78,101.0
932.84,99.0
932.9,119.0
932.97,95.0
933.03,100.0
933.09,85.0
933.16,81.0
933.22,100.0
933.28,107.0
933.34,110.0
933.41,110.0
933.47,104.0
933.53,113.0
933.6,102.0
933.66,102.0
933.72,81.0
933.79,86.0
933.85,85.0
933.91,96.0
933.97,83.0
934.04,77.0
934.1,48.0
934.16,78.0
934.23,64.0
934.29,82.0
934.35,98.0
934.42,96.0
934.48,103.0
934.54,92.0
934.6,114.0
934.67,106.0
934.73,75.0
934.79,72.0
934.86,67.0
934.92,66.0
934.98,67.0
935.05,59.0
935.11,82.0
935.17,67.0
935.23,73.0
935.3,87.0
935.36,78.0
935.42,83.0
935.49,78.0
935.55,77.0
935.61,74.0
935.68,89.0
935.74,92.0
935.8,98.0
935.86,82.0
935.93,87.0
935.99,84.0
936.05,93.0
936.12,98.0
936.18,64.0
936.24,86.0
936.31,96.0
936.37,72.0
936.43,73.0
936.49,84.0
936.56,102.0
936.62,94.0
936.68,98.0
936.75,97.0
936.81,91.0
936.87,86.0
936.94,102.0
937.0,108.0
937.06,76.0
937.12,74.0
937.19,91.0
937.25,70.0
937.31,75.0
937.38,66.0
937.44,48.0
937.5,73.0
937.57,74.0
937.63,59.0
937.69,92.0
937.75,87.0
937.82,96.0
937.88,85.0
937.94,80.0
938.01,90.0
938.07,107.0
938.13,96.0
938.2,99.0
938.26,89.0
938.32,82.0
938.38,77.0
938.45,72.0
938.51,71.0
938.57,71.0
938.64,83.0
938.7,84.0
938.76,97.0
938.83,75.0
938.89,65.0
938.95,78.0
939.01,85.0
939.08,83.0
939.14,72.0
939.2,93.0
939.27,108.0
939.33,106.0
939.39,98.0
939.46,97.0
939.52,88.0
939.58,86.0
939.64,84.0
939.71,78.0
939.77,94.0
939.83,95.0
939.9,95.0
939.96,100.0
940.02,74.0
940.09,107.0
940.15,112.0
940.21,96.0
940.27,100.0
940.34,85.0
940.4,96.0
940.46,100.0
940.53,100.0
940.59,115.0
940.65,96.0
940.72,94.0
940.78,103.0
940.84,113.0
940.9,107.0
940.97,96.0
941.03,125.0
941.09,124.0
941.16,110.0
941.22,117.0
941.28,125.0
941.35,125.0
941.41,122.0
941.47,118.0
941.53,133.0
941.6,119.0
941.66,110.0
941.72,107.0
941.79,120.0
941.85,122.0
941.91,136.0
941.98,124.0
942.04,113.0
942.1,118.0
942.16,90.0
942.23,92.0
942.29,99.0
942.35,91.0
942.42,100.0
942.48,119.0
942.54,103.0
942.61,139.0
942.67,124.0
942.73,121.0
942.79,116.0
942.86,140.0
942.92,125.0
942.98,141.0
943.05,119.0
943.11,121.0
943.17,139.0
943.24,157.0
943.3,168.0
943.36,136.0
943.42,156.0
943.49,160.0
943.55,149.0
943.61,143.0
943.68,136.0
943.74,130.0
943.8,166.0
943.87,159.0
943.93,162.0
943.99,150.0
944.05,174.0
944.12,173.0
944.18,159.0
944.24,168.0
944.31,148.0
944.37,144.0
944.43,134.0
944.5,125.0
944.56,116.0
944.62,119.0
944.68,123.0
944.75,112.0
944.81,121.0
944.87,114.0
944.94,116.0
945.0,98.0
945.06,86.0
945.13,97.0
945.19,96.0
945.25,110.0
945.31,105.0
945.38,89.0
945.44,100.0
945.5,103.0
945.57,98.0
945.63,107.0
945.69,80.0
945.76,99.0
945.82,94.0
945.88,98.0
945.94,96.0
946.01,91.0
946.07,92.0
946.13,87.0
946.2,88.0
946.26,119.0
946.32,115.0
946.39,105.0
946.45,105.0
946.51,103.0
946.57,98.0
946.64,92.0
946.7,85.0
946.76,93.0
946.83,100.0
946.89,86.0
946.95,70.0
947.02,92.0
947.08,88.0
947.14,80.0
947.2,76.0
947.27,77.0
947.33,66.0
947.39,69.0
947.46,74.0
947.52,74.0
947.58,91.0
947.65,92.0
947.71,88.0
947.77,82.0
947.83,84.0
947.9,91.0
947.96,86.0
948.02,80.0
948.09,102.0
948.15,85.0
948.21,67.0
948.28,77.0
948.34,62.0
948.4,78.0
948.46,64.0
948.53,73.0
948.59,86.0
948.65,78.0
948.72,77.0
948.78,95.0
948.84,81.0
948.91,81.0
948.97,77.0
949.03,75.0
949.09,75.0
949.16,70.0
949.22,75.0
949.28,75.0
949.35,61.0
949.41,75.0
949.47,81.0
949.54,83.0
949.6,93.0
949.66,86.0
949.72,74.0
949.79,76.0
949.85,69.0
949.91,69.0
949.98,92.0
950.04,69.0
950.1,67.0
950.17,80.0
950.23,70.0
950.29,60.0
950.35,53.0
950.42,53.0
950.48,69.0
950.54,71.0
950.61,54.0
950.67,78.0
950.73,72.0
950.8,68.0
950.86,74.0
950.92,74.0
950.98,85.0
951.05,60.0
951.11,78.0
951.17,64.0
951.24,54.0
951.3,66.0
951.36,69.0
951.43,59.0
951.49,66.0
951.55,70.0
951.61,68.0
951.68,66.0
951.74,76.0
951.8,78.0
951.87,68.0
951.93,81.0
951.99,88.0
952.06,88.0
952.12,94.0
952.18,119.0
952.24,93.0
952.31,78.0
952.37,79.0
952.43,78.0
952.5,83.0
952.56,74.0
952.62,74.0
952.69,67.0
952.75,85.0
952.81,74.0
952.87,68.0
952.94,77.0
953.0,100.0
953.06,102.0
953.13,88.0
953.19,96.0
953.25,66.0
953.32,69.0
953.38,76.0
953.44,70.0
953.5,64.0
953.57,71.0
953.63,72.0
953.69,82.0
953.76,75.0
953.82,58.0
953.88,56.0
953.95,59.0
954.01,63.0
954.07,67.0
954.13,63.0
954.2,67.0
954.26,85.0
954.32,66.0
954.39,54.0
954.45,59.0
954.51,75.0
954.58,72.0
954.64,79.0
954.7,70.0
954.76,81.0
954.83,87.0
954.89,78.0
954.95,64.0
955.02,54.0
955.08,77.0
955.14,72.0
955.21,77.0
955.27,99.0
955.33,93.0
955.39,83.0
955.46,88.0
955.52,99.0
955.58,115.0
955.65,91.0
955.71,114.0
955.77,115.0
955.84,107.0
955.9,112.0
955.96,78.0
956.02,118.0
956.09,91.0
956.15,78.0
956.21,69.0
956.28,83.0
956.34,84.0
956.4,89.0
956.47,99.0
956.53,83.0
956.59,79.0
956.65,77.0
956.72,82.0
956.78,91.0
956.84,89.0
956.91,98.0
956.97,85.0
957.03,84.0
957.1,74.0
957.16,91.0
957.22,112.0
957.28,111.0
957.35,105.0
957.41,92.0
957.47,94.0
957.54,91.0
957.6,87.0
957.66,83.0
957.73,82.0
957.79,90.0
957.85,74.0
957.91,74.0
957.98,60.0
958.04,80.0
958.1,85.0
958.17,82.0
958.23,85.0
958.29,98.0
958.36,118.0
958.42,114.0
958.48,111.0
958.54,105.0
958.61,96.0
958.67,108.0
958.73,107.0
958.8,102.0
958.86,88.0
958.92,95.0
958.99,95.0
959.05,100.0
959.11,85.0
959.17,82.0
959.24,92.0
959.3,94.0
959.36,104.0
959.43,84.0
959.49,92.0
959.55,106.0
959.62,104.0
959.68,119.0
959.74,110.0
959.8,104.0
959.87,106.0
959.93,116.0
959.99,125.0
960.06,107.0
960.12,113.0
960.18,106.0
960.25,114.0
960.31,116.0
960.37,113.0
960.43,113.0
960.5,96.0
960.56,83.0
960.62,75.0
960.69,86.0
960.75,94.0
960.81,94.0
960.88,97.0
960.94,108.0
961.0,103.0
961.06,128.0
961.13,143.0
961.19,122.0
961.25,110.0
961.32,114.0
961.38,108.0
961.44,120.0
961.51,113.0
961.57,128.0
961.63,124.0
961.69,111.0
961.76,101.0
961.82,110.0
961.88,103.0
961.95,104.0
962.01,119.0
962.07,107.0
962.14,110.0
962.2,99.0
962.26,91.0
962.32,106.0
962.39,118.0
962.45,85.0
962.51,81.0
962.58,103.0
962.64,97.0
962.7,88.0
962.77,81.0
962.83,81.0
962.89,69.0
962.95,73.0
963.02,91.0
963.08,79.0
963.14,75.0
963.21,67.0
963.27,97.0
963.33,73.0
963.4,88.0
963.46,96.0
963.52,85.0
963.58,78.0
963.65,64.0
963.71,46.0
963.77,68.0
963.84,82.0
963.9,75.0
963.96,78.0
964.03,89.0
964.09,102.0
964.15,83.0
964.21,77.0
964.28,71.0
964.34,88.0
964.4,101.0
964.47,93.0
964.53,89.0
964.59,95.0
964.66,103.0
964.72,105.0
964.78,86.0
964.84,77.0
964.91,88.0
964.97,94.0
965.03,107.0
965.1,111.0
965.16,118.0
965.22,108.0
965.29,104.0
965.35,102.0
965.41,89.0
965.47,92.0
965.54,88.0
965.6,86.0
965.66,87.0
965.73,74.0
965.79,74.0
965.85,84.0
965.92,98.0
965.98,96.0
966.04,94.0
966.1,99.0
966.17,94.0
966.23,85.0
966.29,84.0
966.36,104.0
966.42,105.0
966.48,93.0
966.55,97.0
966.61,96.0
966.67,111.0
966.73,122.0
966.8,118.0
966.86,120.0
966.92,120.0
966.99,100.0
967.05,111.0
967.11,119.0
967.18,118.0
967.24,117.0
967.3,137.0
967.36,108.0
967.43,118.0
967.49,121.0
967.55,125.0
967.62,130.0
967.68,122.0
967.74,119.0
967.81,122.0
967.87,133.0
967.93,125.0
967.99,130.0
968.06,136.0
968.12,147.0
968.18,127.0
968.25,152.0
968.31,158.0
968.37,151.0
968.44,166.0
968.5,171.0
968.56,160.0
968.62,160.0
968.69,165.0
968.75,151.0
968.81,148.0
968.88,154.0
968.94,173.0
969.0,162.0
969.07,171.0
969.13,161.0
969.19,165.0
969.25,147.0
969.32,140.0
969.38,155.0
969.44,155.0
969.51,158.0
969.57,151.0
969.63,133.0
969.7,141.0
969.76,137.0
969.82,155.0
969.88,136.0
969.95,127.0
970.01,119.0
970.07,108.0
970.14,117.0
970.2,117.0
970.26,117.0
970.33,137.0
970.39,138.0
970.45,124.0
970.51,115.0
970.58,127.0
970.64,126.0
970.7,133.0
970.77,132.0
970.83,122.0
970.89,114.0
970.96,107.0
971.02,111.0
971.08,118.0
971.14,114.0
971.21,113.0
971.27,118.0
971.33,113.0
971.4,138.0
971.46,133.0
971.52,108.0
971.59,117.0
971.65,98.0
971.71,98.0
971.77,100.0
971.84,97.0
971.9,110.0
971.96,114.0
972.03,129.0
972.09,133.0
972.15,129.0
972.22,125.0
972.28,138.0
972.34,140.0
972.4,140.0
972.47,127.0
972.53,141.0
972.59,138.0
972.66,123.0
972.72,145.0
972.78,141.0
972.85,148.0
972.91,142.0
972.97,129.0
973.03,140.0
973.1,130.0
973.16,135.0
973.22,141.0
973.29,138.0
973.35,150.0
973.41,141.0
973.48,129.0
973.54,139.0
973.6,135.0
973.66,122.0
973.73,130.0
973.79,128.0
973.85,110.0
973.92,111.0
973.98,114.0
974.04,118.0
974.11,117.0
974.17,108.0
974.23,104.0
974.29,110.0
974.36,119.0
974.42,131.0
974.48,106.0
974.55,114.0
974.61,119.0
974.67,101.0
974.74,100.0
974.8,88.0
974.86,89.0
974.92,93.0
974.99,114.0
975.05,106.0
975.11,97.0
975.18,114.0
975.24,125.0
975.3,144.0
975.37,107.0
975.43,102.0
975.49,118.0
975.55,128.0
975.62,118.0
975.68,122.0
975.74,140.0
975.81,136.0
975.87,135.0
975.93,135.0
976.0,146.0
976.06,121.0
976.12,132.0
976.18,116.0
976.25,131.0
976.31,133.0
976.37,131.0
976.44,129.0
976.5,147.0
976.56,158.0
976.63,171.0
976.69,169.0
976.75,172.0
976.81,168.0
976.88,149.0
976.94,188.0
977.0,161.0
977.07,162.0
977.13,170.0
977.19,158.0
977.26,157.0
977.32,163.0
977.38,163.0
977.44,170.0
977.51,184.0
977.57,174.0
977.63,157.0
977.7,163.0
977.76,156.0
977.82,166.0
977.89,133.0
977.95,153.0
978.01,170.0
978.07,158.0
978.14,170.0
978.2,164.0
978.26,153.0
978.33,147.0
978.39,150.0
978.45,154.0
978.52,158.0
978.58,144.0
978.64,165.0
978.7,162.0
978.77,168.0
978.83,149.0
978.89,143.0
978.96,148.0
979.02,140.0
979.08,145.0
979.15,113.0
979.21,123.0
979.27,121.0
979.33,113.0
979.4,121.0
979.46,126.0
979.52,133.0
979.59,136.0
979.65,129.0
979.71,118.0
979.78,130.0
979.84,129.0
979.9,120.0
979.96,145.0
980.03,156.0
980.09,138.0
980.15,151.0
980.22,143.0
980.28,137.0
980.34,120.0
980.41,124.0
980.47,147.0
980.53,141.0
980.59,136.0
980.66,114.0
980.72,111.0
980.78,105.0
980.85,100.0
980.91,121.0
980.97,123.0
981.04,115.0
981.1,119.0
981.16,132.0
981.22,121.0
981.29,111.0
981.35,127.0
981.41,117.0
981.48,97.0
981.54,113.0
981.6,102.0
981.67,104.0
981.73,103.0
981.79,87.0
981.85,88.0
981.92,85.0
981.98,77.0
982.04,85.0
982.11,88.0
982.17,85.0
982.23,107.0
982.3,107.0
982.36,109.0
982.42,96.0
982.48,87.0
982.55,96.0
982.61,103.0
982.67,100.0
982.74,118.0
982.8,108.0
982.86,100.0
982.93,118.0
982.99,99.0
983.05,106.0
983.11,113.0
983.18,115.0
983.24,108.0
983.3,122.0
983.37,97.0
983.43,92.0
983.49,107.0
983.56,105.0
983.62,109.0
983.68,104.0
983.74,104.0
983.81,117.0
983.87,109.0
983.93,119.0
984.0,116.0
984.06,122.0
984.12,141.0
984.19,121.0
984.25,129.0
984.31,124.0
984.37,104.0
984.44,97.0
984.5,89.0
984.56,93.0
984.63,67.0
984.69,82.0
984.75,102.0
984.82,100.0
984.88,113.0
984.94,115.0
985.0,101.0
985.07,102.0
985.13,105.0
985.19,109.0
985.26,111.0
985.32,74.0
985.38,71.0
985.45,63.0
985.51,58.0
985.57,69.0
985.63,59.0
985.7,50.0
985.76,73.0
985.82,49.0
985.89,45.0
985.95,61.0
986.01,50.0
986.08,50.0
986.14,61.0
986.2,56.0
986.26,56.0
986.33,45.0
986.39,58.0
986.45,52.0
986.52,70.0
986.58,82.0
986.64,78.0
986.71,83.0
986.77,69.0
986.83,72.0
986.89,54.0
986.96,81.0
987.02,76.0
987.08,61.0
987.15,92.0
987.21,78.0
987.27,77.0
987.34,93.0
987.4,107.0
987.46,104.0
987.52,74.0
987.59,65.0
987.65,78.0
987.71,92.0
987.78,70.0
987.84,77.0
987.9,72.0
987.97,60.0
988.03,62.0
988.09,56.0
988.15,66.0
988.22,68.0
988.28,65.0
988.34,48.0
988.41,63.0
988.47,65.0
988.53,67.0
988.6,78.0
988.66,52.0
988.72,67.0
988.78,53.0
988.85,49.0
988.91,65.0
988.97,56.0
989.04,52.0
989.1,56.0
989.16,50.0
989.23,54.0
989.29,26.0
989.35,18.0
989.41,17.0
989.48,25.0
989.54,51.0
989.6,47.0
989.67,58.0
989.73,52.0
989.79,63.0
989.86,65.0
989.92,40.0
989.98,46.0
990.04,45.0
990.11,50.0
990.17,38.0
990.23,52.0
990.3,60.0
990.36,37.0
990.42,61.0
990.49,78.0
990.55,77.0
990.61,67.0
990.67,67.0
990.74,79.0
990.8,84.0
990.86,56.0
990.93,56.0
990.99,74.0
991.05,84.0
991.12,83.0
991.18,87.0
991.24,86.0
991.3,93.0
991.37,111.0
991.43,74.0
991.49,98.0
991.56,106.0
991.62,87.0
991.68,96.0
991.75,89.0
991.81,87.0
991.87,110.0
991.93,110.0
992.0,93.0
992.06,107.0
992.12,120.0
992.19,125.0
992.25,113.0
992.31,107.0
992.38,122.0
992.44,149.0
992.5,140.0
992.56,142.0
992.63,134.0
992.69,158.0
992.75,141.0
992.82,144.0
992.88,138.0
992.94,129.0
993.01,141.0
993.07,121.0
993.13,151.0
993.19,138.0
993.26,121.0
993.32,121.0
993.38,140.0
993.45,139.0
993.51,137.0
993.57,163.0
993.64,130.0
993.7,140.0
993.76,132.0
993.82,144.0
993.89,151.0
993.95,148.0
994.01,161.0
994.08,152.0
994.14,161.0
994.2,168.0
994.27,172.0
994.33,181.0
994.39,163.0
994.45,162.0
994.52,155.0
994.58,156.0
994.64,170.0
994.71,177.0
994.77,171.0
994.83,159.0
994.9,164.0
994.96,180.0
995.02,175.0
995.08,174.0
995.15,169.0
995.21,170.0
995.27,171.0
995.34,152.0
995.4,132.0
995.46,155.0
995.53,159.0
995.59,161.0
995.65,153.0
995.71,138.0
995.78,133.0
995.84,133.0
995.9,128.0
995.97,133.0
996.03,140.0
996.09,129.0
996.16,129.0
996.22,107.0
996.28,108.0
996.34,97.0
996.41,98.0
996.47,92.0
996.53,90.0
996.6,106.0
996.66,97.0
996.72,95.0
996.79,108.0
996.85,108.0
996.91,106.0
996.97,108.0
997.04,99.0
997.1,110.0
997.16,90.0
997.23,97.0
997.29,100.0
997.35,97.0
997.42,82.0
997.48,96.0
997.54,124.0
997.6,104.0
997.67,112.0
997.73,109.0
997.79,93.0
997.86,86.0
997.92,95.0
997.98,90.0
998.05,106.0
998.11,110.0
998.17,100.0
998.23,106.0
998.3,107.0
998.36,92.0
998.42,115.0
998.49,119.0
998.55,112.0
998.61,86.0
998.68,92.0
998.74,90.0
998.8,90.0
998.86,101.0
998.93,80.0
998.99,71.0
999.05,100.0
999.12,115.0
999.18,104.0
999.24,102.0
999.31,102.0
999.37,122.0
999.43,133.0
999.49,136.0
999.56,121.0
999.62,130.0
999.68,130.0
999.75,118.0
999.81,100.0
999.87,92.0
