timestamp,intensity
0,-263.0
0.06,-272.0
0.13,-255.0
0.19,-282.0
0.25,-280.0
0.32,-277.0
0.38,-290.0
0.44,-288.0
0.5,-292.0
0.57,-275.0
0.63,-292.0
0.69,-288.0
0.76,-290.0
0.82,-304.0
0.88,-308.0
0.94,-299.0
1.01,-293.0
1.07,-281.0
1.13,-289.0
1.2,-268.0
1.26,-282.0
1.32,-264.0
1.39,-263.0
1.45,-263.0
1.51,-242.0
1.57,-267.0
1.64,-282.0
1.7,-291.0
1.76,-272.0
1.83,-270.0
1.89,-282.0
1.95,-265.0
2.02,-280.0
2.08,-284.0
2.14,-308.0
2.2,-286.0
2.27,-296.0
2.33,-283.0
2.39,-260.0
2.46,-253.0
2.52,-256.0
2.58,-271.0
2.65,-273.0
2.71,-269.0
2.77,-275.0
2.84,-288.0
2.9,-285.0
2.96,-267.0
3.02,-254.0
3.09,-264.0
3.15,-252.0
3.21,-256.0
3.28,-254.0
3.34,-257.0
3.4,-265.0
3.47,-260.0
3.53,-255.0
3.59,-256.0
3.65,-263.0
3.72,-254.0
3.78,-260.0
3.84,-259.0
3.91,-270.0
3.97,-256.0
4.03,-245.0
4.1,-258.0
4.16,-230.0
4.22,-205.0
4.28,-206.0
4.35,-233.0
4.41,-243.0
4.47,-235.0
4.54,-267.0
4.6,-274.0
4.66,-260.0
4.73,-265.0
4.79,-262.0
4.85,-256.0
4.91,-242.0
4.98,-249.0
5.04,-229.0
5.1,-248.0
5.17,-243.0
5.23,-236.0
5.29,-256.0
5.35,-243.0
5.42,-262.0
5.48,-261.0
5.54,-260.0
5.61,-259.0
5.67,-258.0
5.73,-233.0
5.8,-248.0
5.86,-253.0
5.92,-247.0
5.98,-255.0
6.05,-254.0
6.11,-261.0
6.17,-258.0
6.24,-251.0
6.3,-260.0
6.36,-237.0
6.43,-240.0
6.49,-246.0
6.55,-248.0
6.61,-228.0
6.68,-231.0
6.74,-224.0
6.8,-231.0
6.87,-225.0
6.93,-233.0
6.99,-235.0
7.06,-218.0
7.12,-217.0
7.18,-207.0
7.24,-220.0
7.31,-225.0
7.37,-201.0
7.43,-228.0
7.5,-215.0
7.56,-217.0
7.62,-212.0
7.69,-196.0
7.75,-232.0
7.81,-200.0
7.87,-194.0
7.94,-213.0
8.0,-208.0
8.06,-203.0
8.13,-200.0
8.19,-202.0
8.25,-195.0
8.32,-193.0
8.38,-168.0
8.44,-176.0
8.5,-173.0
8.57,-163.0
8.63,-187.0
8.69,-186.0
8.76,-161.0
8.82,-158.0
8.88,-159.0
8.95,-176.0
9.01,-157.0
9.07,-168.0
9.13,-146.0
9.2,-143.0
9.26,-149.0
9.32,-132.0
9.39,-124.0
9.45,-143.0
9.51,-138.0
9.58,-155.0
9.64,-163.0
9.7,-169.0
9.77,-170.0
9.83,-162.0
9.89,-170.0
9.95,-161.0
10.02,-192.0
10.08,-155.0
10.14,-162.0
10.21,-152.0
10.27,-133.0
10.33,-157.0
10.4,-136.0
10.46,-157.0
10.52,-161.0
10.58,-148.0
10.65,-147.0
10.71,-171.0
10.77,-160.0
10.84,-174.0
10.9,-146.0
10.96,-151.0
11.03,-154.0
11.09,-153.0
11.15,-175.0
11.21,-180.0
11.28,-177.0
11.34,-167.0
11.4,-166.0
11.47,-171.0
11.53,-168.0
11.59,-167.0
11.66,-190.0
11.72,-194.0
11.78,-178.0
11.84,-190.0
11.91,-176.0
11.97,-173.0
12.03,-164.0
12.1,-157.0
12.16,-146.0
12.22,-158.0
12.29,-175.0
12.35,-173.0
12.41,-174.0
12.47,-171.0
12.54,-174.0
12.6,-173.0
12.66,-155.0
12.73,-157.0
12.79,-171.0
12.85,-160.0
12.92,-158.0
12.98,-166.0
13.04,-167.0
13.1,-174.0
13.17,-182.0
13.23,-171.0
13.29,-159.0
13.36,-158.0
13.42,-169.0
13.48,-190.0
13.55,-188.0
13.61,-157.0
13.67,-158.0
13.73,-157.0
13.8,-163.0
13.86,-171.0
13.92,-165.0
13.99,-171.0
14.05,-187.0
14.11,-165.0
14.18,-166.0
14.24,-172.0
14.3,-178.0
14.36,-168.0
14.43,-192.0
14.49,-152.0
14.55,-166.0
14.62,-173.0
14.68,-173.0
14.74,-173.0
14.81,-177.0
14.87,-172.0
14.93,-186.0
14.99,-200.0
15.06,-191.0
15.12,-195.0
15.18,-199.0
15.25,-195.0
15.31,-206.0
15.37,-203.0
15.44,-186.0
15.5,-188.0
15.56,-204.0
15.62,-208.0
15.69,-201.0
15.75,-209.0
15.81,-205.0
15.88,-230.0
15.94,-229.0
16.0,-212.0
16.07,-225.0
16.13,-228.0
16.19,-221.0
16.25,-214.0
16.32,-203.0
16.38,-205.0
16.44,-226.0
16.51,-203.0
16.57,-210.0
16.63,-231.0
16.7,-215.0
16.76,-188.0
16.82,-206.0
16.88,-183.0
16.95,-195.0
17.01,-211.0
17.07,-195.0
17.14,-194.0
17.2,-172.0
17.26,-185.0
17.33,-197.0
17.39,-213.0
17.45,-209.0
17.51,-206.0
17.58,-221.0
17.64,-214.0
17.7,-207.0
17.77,-217.0
17.83,-215.0
17.89,-229.0
17.96,-220.0
18.02,-221.0
18.08,-215.0
18.14,-218.0
18.21,-212.0
18.27,-240.0
18.33,-234.0
18.4,-256.0
18.46,-235.0
18.52,-203.0
18.59,-202.0
18.65,-224.0
18.71,-221.0
18.77,-223.0
18.84,-221.0
18.9,-218.0
18.96,-229.0
19.03,-197.0
19.09,-235.0
19.15,-242.0
19.22,-237.0
19.28,-250.0
19.34,-240.0
19.4,-239.0
19.47,-247.0
19.53,-247.0
19.59,-254.0
19.66,-257.0
19.72,-276.0
19.78,-256.0
19.84,-270.0
19.91,-254.0
19.97,-258.0
20.03,-271.0
20.1,-270.0
20.16,-272.0
20.22,-256.0
20.29,-273.0
20.35,-270.0
20.41,-265.0
20.47,-262.0
20.54,-270.0
20.6,-278.0
20.66,-286.0
20.73,-281.0
20.79,-288.0
20.85,-307.0
20.92,-305.0
20.98,-302.0
21.04,-310.0
21.1,-299.0
21.17,-293.0
21.23,-289.0
21.29,-300.0
21.36,-298.0
21.42,-295.0
21.48,-307.0
21.55,-306.0
21.61,-312.0
21.67,-287.0
21.73,-299.0
21.8,-290.0
21.86,-282.0
21.92,-290.0
21.99,-289.0
22.05,-273.0
22.11,-258.0
22.18,-281.0
22.24,-267.0
22.3,-262.0
22.36,-248.0
22.43,-268.0
22.49,-288.0
22.55,-271.0
22.62,-268.0
22.68,-274.0
22.74,-265.0
22.81,-265.0
22.87,-269.0
22.93,-261.0
22.99,-242.0
23.06,-236.0
23.12,-247.0
23.18,-228.0
23.25,-241.0
23.31,-229.0
23.37,-226.0
23.44,-217.0
23.5,-215.0
23.56,-215.0
23.62,-229.0
23.69,-235.0
23.75,-211.0
23.81,-214.0
23.88,-215.0
23.94,-226.0
24.0,-237.0
24.07,-216.0
24.13,-209.0
24.19,-211.0
24.25,-220.0
24.32,-215.0
24.38,-212.0
24.44,-204.0
24.51,-194.0
24.57,-188.0
24.63,-182.0
24.7,-181.0
24.76,-184.0
24.82,-167.0
24.88,-168.0
24.95,-167.0
25.01,-168.0
25.07,-165.0
25.14,-161.0
25.2,-170.0
25.26,-156.0
25.33,-138.0
25.39,-142.0
25.45,-147.0
25.51,-154.0
25.58,-141.0
25.64,-156.0
25.7,-158.0
25.77,-157.0
25.83,-153.0
25.89,-137.0
25.96,-156.0
26.02,-155.0
26.08,-164.0
26.14,-166.0
26.21,-174.0
26.27,-177.0
26.33,-159.0
26.4,-140.0
26.46,-147.0
26.52,-151.0
26.59,-133.0
26.65,-145.0
26.71,-137.0
26.77,-161.0
26.84,-149.0
26.9,-147.0
26.96,-152.0
27.03,-175.0
27.09,-173.0
27.15,-165.0
27.22,-153.0
27.28,-148.0
27.34,-155.0
27.4,-142.0
27.47,-132.0
27.53,-151.0
27.59,-143.0
27.66,-141.0
27.72,-147.0
27.78,-138.0
27.85,-156.0
27.91,-135.0
27.97,-128.0
28.03,-141.0
28.1,-152.0
28.16,-160.0
28.22,-152.0
28.29,-156.0
28.35,-165.0
28.41,-151.0
28.48,-154.0
28.54,-148.0
28.6,-143.0
28.66,-144.0
28.73,-162.0
28.79,-155.0
28.85,-137.0
28.92,-138.0
28.98,-127.0
29.04,-140.0
29.11,-136.0
29.17,-146.0
29.23,-150.0
29.29,-136.0
29.36,-137.0
29.42,-125.0
29.48,-134.0
29.55,-128.0
29.61,-143.0
29.67,-151.0
29.74,-159.0
29.8,-162.0
29.86,-157.0
29.92,-156.0
29.99,-162.0
30.05,-164.0
30.11,-165.0
30.18,-169.0
30.24,-158.0
30.3,-162.0
30.37,-157.0
30.43,-187.0
30.49,-176.0
30.55,-160.0
30.62,-153.0
30.68,-164.0
30.74,-162.0
30.81,-147.0
30.87,-159.0
30.93,-160.0
31.0,-147.0
31.06,-146.0
31.12,-150.0
31.18,-149.0
31.25,-149.0
31.31,-144.0
31.37,-135.0
31.44,-131.0
31.5,-151.0
31.56,-153.0
31.63,-138.0
31.69,-157.0
31.75,-137.0
31.81,-124.0
31.88,-129.0
31.94,-128.0
32.0,-124.0
32.07,-117.0
32.13,-120.0
32.19,-128.0
32.26,-141.0
32.32,-135.0
32.38,-124.0
32.44,-124.0
32.51,-151.0
32.57,-146.0
32.63,-150.0
32.7,-147.0
32.76,-134.0
32.82,-136.0
32.89,-152.0
32.95,-141.0
33.01,-135.0
33.07,-153.0
33.14,-141.0
33.2,-136.0
33.26,-143.0
33.33,-151.0
33.39,-148.0
33.45,-142.0
33.52,-133.0
33.58,-156.0
33.64,-146.0
33.7,-124.0
33.77,-136.0
33.83,-142.0
33.89,-144.0
33.96,-143.0
34.02,-151.0
34.08,-135.0
34.15,-135.0
34.21,-136.0
34.27,-139.0
34.33,-138.0
34.4,-151.0
34.46,-154.0
34.52,-144.0
34.59,-142.0
34.65,-154.0
34.71,-163.0
34.78,-164.0
34.84,-147.0
34.9,-146.0
34.96,-155.0
35.03,-152.0
35.09,-161.0
35.15,-143.0
35.22,-146.0
35.28,-159.0
35.34,-180.0
35.41,-201.0
35.47,-192.0
35.53,-189.0
35.59,-192.0
35.66,-211.0
35.72,-208.0
35.78,-202.0
35.85,-210.0
35.91,-200.0
35.97,-193.0
36.04,-180.0
36.1,-180.0
36.16,-176.0
36.22,-188.0
36.29,-172.0
36.35,-160.0
36.41,-156.0
36.48,-175.0
36.54,-176.0
36.6,-160.0
36.67,-172.0
36.73,-184.0
36.79,-170.0
36.85,-184.0
36.92,-195.0
36.98,-183.0
37.04,-186.0
37.11,-175.0
37.17,-183.0
37.23,-193.0
37.3,-191.0
37.36,-176.0
37.42,-178.0
37.48,-191.0
37.55,-175.0
37.61,-158.0
37.67,-183.0
37.74,-186.0
37.8,-200.0
37.86,-200.0
37.93,-195.0
37.99,-194.0
38.05,-164.0
38.12,-193.0
38.18,-201.0
38.24,-183.0
38.3,-178.0
38.37,-186.0
38.43,-177.0
38.49,-171.0
38.56,-145.0
38.62,-166.0
38.68,-199.0
38.75,-167.0
38.81,-159.0
38.87,-150.0
38.93,-126.0
39.0,-140.0
39.06,-182.0
39.12,-189.0
39.19,-180.0
39.25,-188.0
39.31,-175.0
39.38,-154.0
39.44,-148.0
39.5,-156.0
39.56,-159.0
39.63,-156.0
39.69,-161.0
39.75,-137.0
39.82,-141.0
39.88,-135.0
39.94,-122.0
40.01,-116.0
40.07,-117.0
40.13,-137.0
40.19,-136.0
40.26,-132.0
40.32,-121.0
40.38,-143.0
40.45,-145.0
40.51,-134.0
40.57,-134.0
40.64,-146.0
40.7,-139.0
40.76,-146.0
40.82,-142.0
40.89,-151.0
40.95,-144.0
41.01,-158.0
41.08,-154.0
41.14,-138.0
41.2,-155.0
41.27,-155.0
41.33,-147.0
41.39,-135.0
41.45,-141.0
41.52,-112.0
41.58,-121.0
41.64,-125.0
41.71,-132.0
41.77,-128.0
41.83,-122.0
41.9,-136.0
41.96,-147.0
42.02,-143.0
42.08,-143.0
42.15,-122.0
42.21,-112.0
42.27,-139.0
42.34,-126.0
42.4,-129.0
42.46,-153.0
42.53,-124.0
42.59,-125.0
42.65,-137.0
42.71,-121.0
42.78,-109.0
42.84,-141.0
42.9,-131.0
42.97,-121.0
43.03,-124.0
43.09,-124.0
43.16,-147.0
43.22,-139.0
43.28,-149.0
43.34,-139.0
43.41,-150.0
43.47,-139.0
43.53,-129.0
43.6,-139.0
43.66,-137.0
43.72,-109.0
43.79,-110.0
43.85,-112.0
43.91,-137.0
43.97,-111.0
44.04,-110.0
44.1,-128.0
44.16,-126.0
44.23,-137.0
44.29,-130.0
44.35,-124.0
44.42,-142.0
44.48,-150.0
44.54,-157.0
44.6,-148.0
44.67,-152.0
44.73,-168.0
44.79,-152.0
44.86,-155.0
44.92,-159.0
44.98,-152.0
45.05,-125.0
45.11,-128.0
45.17,-132.0
45.23,-148.0
45.3,-152.0
45.36,-162.0
45.42,-154.0
45.49,-154.0
45.55,-160.0
45.61,-147.0
45.68,-165.0
45.74,-167.0
45.8,-154.0
45.86,-158.0
45.93,-147.0
45.99,-159.0
46.05,-150.0
46.12,-149.0
46.18,-150.0
46.24,-164.0
46.31,-155.0
46.37,-129.0
46.43,-112.0
46.49,-142.0
46.56,-134.0
46.62,-123.0
46.68,-128.0
46.75,-124.0
46.81,-131.0
46.87,-124.0
46.94,-104.0
47.0,-105.0
47.06,-119.0
47.12,-107.0
47.19,-109.0
47.25,-110.0
47.31,-106.0
47.38,-120.0
47.44,-132.0
47.5,-128.0
47.57,-122.0
47.63,-127.0
47.69,-110.0
47.75,-103.0
47.82,-92.0
47.88,-113.0
47.94,-111.0
48.01,-95.0
48.07,-101.0
48.13,-75.0
48.2,-72.0
48.26,-80.0
48.32,-101.0
48.38,-97.0
48.45,-99.0
48.51,-107.0
48.57,-88.0
48.64,-76.0
48.7,-85.0
48.76,-68.0
48.83,-49.0
48.89,-55.0
48.95,-57.0
49.01,-62.0
49.08,-55.0
49.14,-41.0
49.2,-50.0
49.27,-30.0
49.33,-45.0
49.39,-36.0
49.46,-18.0
49.52,-29.0
49.58,-31.0
49.64,-48.0
49.71,-53.0
49.77,-62.0
49.83,-57.0
49.9,-24.0
49.96,-46.0
50.02,-50.0
50.09,-41.0
50.15,-43.0
50.21,-51.0
50.27,-46.0
50.34,-27.0
50.4,-45.0
50.46,-43.0
50.53,-56.0
50.59,-63.0
50.65,-68.0
50.72,-70.0
50.78,-78.0
50.84,-74.0
50.9,-68.0
50.97,-65.0
51.03,-65.0
51.09,-52.0
51.16,-42.0
51.22,-49.0
51.28,-41.0
51.35,-43.0
51.41,-41.0
51.47,-44.0
51.53,-40.0
51.6,-29.0
51.66,-32.0
51.72,-32.0
51.79,-46.0
51.85,-50.0
51.91,-58.0
51.98,-38.0
52.04,-42.0
52.1,-38.0
52.16,-56.0
52.23,-67.0
52.29,-73.0
52.35,-51.0
52.42,-40.0
52.48,-49.0
52.54,-55.0
52.61,-60.0
52.67,-42.0
52.73,-30.0
52.79,-48.0
52.86,-34.0
52.92,-18.0
52.98,-47.0
53.05,-59.0
53.11,-65.0
53.17,-37.0
53.24,-37.0
53.3,-36.0
53.36,-44.0
53.42,-58.0
53.49,-57.0
53.55,-59.0
53.61,-45.0
53.68,-64.0
53.74,-50.0
53.8,-37.0
53.87,-38.0
53.93,-38.0
53.99,-44.0
54.05,-32.0
54.12,-54.0
54.18,-55.0
54.24,-63.0
54.31,-71.0
54.37,-72.0
54.43,-75.0
54.5,-88.0
54.56,-90.0
54.62,-91.0
54.68,-94.0
54.75,-108.0
54.81,-112.0
54.87,-83.0
54.94,-74.0
55.0,-78.0
55.06,-74.0
55.13,-74.0
55.19,-88.0
55.25,-87.0
55.31,-74.0
55.38,-96.0
55.44,-64.0
55.5,-75.0
55.57,-94.0
55.63,-96.0
55.69,-95.0
55.76,-82.0
55.82,-79.0
55.88,-62.0
55.94,-56.0
56.01,-56.0
56.07,-67.0
56.13,-69.0
56.2,-58.0
56.26,-63.0
56.32,-70.0
56.39,-62.0
56.45,-83.0
56.51,-69.0
56.57,-53.0
56.64,-62.0
56.7,-69.0
56.76,-96.0
56.83,-90.0
56.89,-86.0
56.95,-91.0
57.02,-90.0
57.08,-89.0
57.14,-51.0
57.2,-53.0
57.27,-41.0
57.33,-42.0
57.39,-45.0
57.46,-68.0
57.52,-61.0
57.58,-51.0
57.65,-38.0
57.71,-42.0
57.77,-15.0
57.83,-27.0
57.9,-35.0
57.96,-22.0
58.02,0.0
58.09,-23.0
58.15,-33.0
58.21,-5.0
58.28,-2.0
58.34,2.0
58.4,13.0
58.46,-6.0
58.53,18.0
58.59,10.0
58.65,-2.0
58.72,-9.0
58.78,9.0
58.84,7.0
58.91,6.0
58.97,15.0
59.03,14.0
59.09,26.0
59.16,35.0
59.22,49.0
59.28,45.0
59.35,34.0
59.41,21.0
59.47,23.0
59.54,31.0
59.6,20.0
59.66,22.0
59.72,36.0
59.79,29.0
59.85,23.0
59.91,31.0
59.98,27.0
60.04,24.0
60.1,34.0
60.17,16.0
60.23,32.0
60.29,33.0
60.35,37.0
60.42,16.0
60.48,2.0
60.54,14.0
60.61,14.0
60.67,14.0
60.73,0.0
60.8,2.0
60.86,14.0
60.92,9.0
60.98,3.0
61.05,-8.0
61.11,-24.0
61.17,-18.0
61.24,5.0
61.3,-17.0
61.36,-25.0
61.43,-27.0
61.49,-31.0
61.55,-13.0
61.61,-26.0
61.68,-21.0
61.74,-13.0
61.8,-7.0
61.87,-20.0
61.93,-6.0
61.99,-9.0
62.06,-32.0
62.12,-14.0
62.18,-14.0
62.24,-13.0
62.31,-30.0
62.37,-12.0
62.43,-38.0
62.5,-31.0
62.56,-35.0
62.62,-50.0
62.69,-36.0
62.75,-40.0
62.81,-33.0
62.87,-49.0
62.94,-53.0
63.0,-45.0
63.06,-44.0
63.13,-46.0
63.19,-61.0
63.25,-29.0
63.32,-43.0
63.38,-25.0
63.44,-23.0
63.5,-33.0
63.57,-31.0
63.63,-24.0
63.69,-12.0
63.76,-19.0
63.82,-15.0
63.88,-6.0
63.95,-14.0
64.01,-15.0
64.07,-14.0
64.13,0.0
64.2,-1.0
64.26,-15.0
64.32,-31.0
64.39,9.0
64.45,-16.0
64.51,-13.0
64.58,7.0
64.64,4.0
64.7,4.0
64.76,-14.0
64.83,-18.0
64.89,-9.0
64.95,-28.0
65.02,-24.0
65.08,0.0
65.14,-4.0
65.21,-10.0
65.27,7.0
65.33,0.0
65.39,12.0
65.46,12.0
65.52,16.0
65.58,6.0
65.65,5.0
65.71,-2.0
65.77,19.0
65.84,9.0
65.9,5.0
65.96,20.0
66.02,12.0
66.09,-1.0
66.15,-8.0
66.21,6.0
66.28,-14.0
66.34,-31.0
66.4,-19.0
66.47,-10.0
66.53,-9.0
66.59,-12.0
66.65,-27.0
66.72,-14.0
66.78,-11.0
66.84,-21.0
66.91,-30.0
66.97,-24.0
67.03,-16.0
67.1,-14.0
67.16,-15.0
67.22,-17.0
67.28,-10.0
67.35,4.0
67.41,-4.0
67.47,13.0
67.54,-4.0
67.6,-6.0
67.66,-22.0
67.73,-22.0
67.79,-9.0
67.85,-23.0
67.91,-15.0
67.98,-14.0
68.04,-34.0
68.1,-7.0
68.17,0.0
68.23,-16.0
68.29,-22.0
68.36,-11.0
68.42,1.0
68.48,2.0
68.54,-17.0
68.61,-11.0
68.67,-23.0
68.73,-10.0
68.8,-21.0
68.86,-18.0
68.92,-21.0
68.99,-13.0
69.05,-24.0
69.11,-19.0
69.17,-20.0
69.24,-16.0
69.3,-10.0
69.36,-44.0
69.43,-13.0
69.49,-16.0
69.55,-25.0
69.62,-14.0
69.68,-23.0
69.74,-32.0
69.8,-26.0
69.87,-15.0
69.93,-19.0
69.99,-24.0
70.06,-32.0
70.12,-25.0
70.18,-37.0
70.25,-45.0
70.31,-50.0
70.37,-52.0
70.43,-51.0
70.5,-71.0
70.56,-80.0
70.62,-71.0
70.69,-72.0
70.75,-65.0
70.81,-77.0
70.88,-62.0
70.94,-80.0
71.0,-88.0
71.06,-72.0
71.13,-76.0
71.19,-82.0
71.25,-103.0
71.32,-111.0
71.38,-85.0
71.44,-91.0
71.51,-114.0
71.57,-132.0
71.63,-97.0
71.69,-94.0
71.76,-105.0
71.82,-98.0
71.88,-94.0
71.95,-99.0
72.01,-107.0
72.07,-97.0
72.14,-118.0
72.2,-117.0
72.26,-115.0
72.32,-92.0
72.39,-109.0
72.45,-101.0
72.51,-103.0
72.58,-114.0
72.64,-105.0
72.7,-110.0
72.77,-103.0
72.83,-121.0
72.89,-108.0
72.95,-103.0
73.02,-106.0
73.08,-120.0
73.14,-100.0
73.21,-109.0
73.27,-107.0
73.33,-116.0
73.4,-128.0
73.46,-124.0
73.52,-110.0
73.58,-109.0
73.65,-96.0
73.71,-99.0
73.77,-81.0
73.84,-80.0
73.9,-56.0
73.96,-52.0
74.03,-68.0
74.09,-40.0
74.15,-54.0
74.21,-46.0
74.28,-36.0
74.34,-29.0
74.4,-30.0
74.47,-38.0
74.53,-52.0
74.59,-29.0
74.66,-33.0
74.72,-20.0
74.78,-17.0
74.84,-43.0
74.91,-24.0
74.97,-25.0
75.03,-20.0
75.1,-10.0
75.16,-16.0
75.22,-4.0
75.29,0.0
75.35,0.0
75.41,-3.0
75.47,-7.0
75.54,11.0
75.6,22.0
75.66,16.0
75.73,27.0
75.79,33.0
75.85,21.0
75.92,19.0
75.98,29.0
76.04,39.0
76.1,38.0
76.17,27.0
76.23,35.0
76.29,29.0
76.36,21.0
76.42,28.0
76.48,25.0
76.55,21.0
76.61,34.0
76.67,35.0
76.73,39.0
76.8,52.0
76.86,33.0
76.92,29.0
76.99,34.0
77.05,32.0
77.11,44.0
77.18,53.0
77.24,41.0
77.3,39.0
77.36,44.0
77.43,32.0
77.49,27.0
77.55,33.0
77.62,30.0
77.68,27.0
77.74,12.0
77.81,1.0
77.87,2.0
77.93,11.0
77.99,36.0
78.06,20.0
78.12,16.0
78.18,7.0
78.25,24.0
78.31,24.0
78.37,16.0
78.44,27.0
78.5,27.0
78.56,23.0
78.62,25.0
78.69,8.0
78.75,22.0
78.81,22.0
78.88,20.0
78.94,21.0
79.0,13.0
79.07,8.0
79.13,3.0
79.19,13.0
79.25,11.0
79.32,17.0
79.38,3.0
79.44,-18.0
79.51,-5.0
79.57,9.0
79.63,6.0
79.7,11.0
79.76,-3.0
79.82,-7.0
79.88,11.0
79.95,10.0
80.01,13.0
80.07,28.0
80.14,32.0
80.2,17.0
80.26,29.0
80.33,39.0
80.39,30.0
80.45,25.0
80.51,26.0
80.58,19.0
80.64,22.0
80.7,26.0
80.77,14.0
80.83,9.0
80.89,12.0
80.96,-5.0
81.02,11.0
81.08,25.0
81.14,39.0
81.21,30.0
81.27,21.0
81.33,22.0
81.4,36.0
81.46,32.0
81.52,17.0
81.59,17.0
81.65,29.0
81.71,37.0
81.77,17.0
81.84,7.0
81.9,18.0
81.96,44.0
82.03,35.0
82.09,39.0
82.15,48.0
82.22,26.0
82.28,33.0
82.34,32.0
82.4,54.0
82.47,41.0
82.53,38.0
82.59,55.0
82.66,51.0
82.72,73.0
82.78,73.0
82.85,77.0
82.91,70.0
82.97,73.0
83.03,73.0
83.1,64.0
83.16,77.0
83.22,75.0
83.29,76.0
83.35,69.0
83.41,69.0
83.48,79.0
83.54,80.0
83.6,67.0
83.66,61.0
83.73,75.0
83.79,82.0
83.85,75.0
83.92,70.0
83.98,72.0
84.04,78.0
84.11,82.0
84.17,96.0
84.23,76.0
84.29,87.0
84.36,95.0
84.42,80.0
84.48,85.0
84.55,75.0
84.61,70.0
84.67,80.0
84.74,58.0
84.8,43.0
84.86,34.0
84.92,36.0
84.99,28.0
85.05,28.0
85.11,43.0
85.18,45.0
85.24,14.0
85.3,14.0
85.37,33.0
85.43,26.0
85.49,-5.0
85.55,18.0
85.62,29.0
85.68,40.0
85.74,33.0
85.81,23.0
85.87,29.0
85.93,40.0
86.0,56.0
86.06,28.0
86.12,31.0
86.18,25.0
86.25,20.0
86.31,20.0
86.37,27.0
86.44,35.0
86.5,32.0
86.56,28.0
86.63,18.0
86.69,17.0
86.75,22.0
86.81,19.0
86.88,13.0
86.94,17.0
87.0,23.0
87.07,19.0
87.13,4.0
87.19,-6.0
87.26,-10.0
87.32,-14.0
87.38,-14.0
87.44,-26.0
87.51,-28.0
87.57,-44.0
87.63,-39.0
87.7,-34.0
87.76,-40.0
87.82,-45.0
87.89,-63.0
87.95,-53.0
88.01,-68.0
88.07,-73.0
88.14,-73.0
88.2,-85.0
88.26,-77.0
88.33,-74.0
88.39,-81.0
88.45,-59.0
88.52,-66.0
88.58,-50.0
88.64,-66.0
88.7,-89.0
88.77,-89.0
88.83,-70.0
88.89,-80.0
88.96,-71.0
89.02,-68.0
89.08,-82.0
89.15,-70.0
89.21,-75.0
89.27,-88.0
89.33,-88.0
89.4,-73.0
89.46,-54.0
89.52,-37.0
89.59,-51.0
89.65,-43.0
89.71,-36.0
89.78,-43.0
89.84,-55.0
89.9,-48.0
89.96,-21.0
90.03,-34.0
90.09,-37.0
90.15,-21.0
90.22,-8.0
90.28,10.0
90.34,9.0
90.41,-13.0
90.47,12.0
90.53,-20.0
90.59,-3.0
90.66,-10.0
90.72,-16.0
90.78,-26.0
90.85,-13.0
90.91,20.0
90.97,10.0
91.04,8.0
91.1,13.0
91.16,2.0
91.22,21.0
91.29,21.0
91.35,4.0
91.41,2.0
91.48,1.0
91.54,-2.0
91.6,19.0
91.67,12.0
91.73,22.0
91.79,9.0
91.85,-6.0
91.92,16.0
91.98,-6.0
92.04,-13.0
92.11,-14.0
92.17,-7.0
92.23,16.0
92.3,9.0
92.36,11.0
92.42,9.0
92.48,-6.0
92.55,19.0
92.61,27.0
92.67,13.0
92.74,14.0
92.8,20.0
92.86,12.0
92.93,22.0
92.99,7.0
93.05,16.0
93.11,27.0
93.18,11.0
93.24,14.0
93.3,19.0
93.37,16.0
93.43,9.0
93.49,24.0
93.56,-1.0
93.62,0.0
93.68,14.0
93.74,18.0
93.81,21.0
93.87,41.0
93.93,40.0
94.0,33.0
94.06,26.0
94.12,30.0
94.19,12.0
94.25,8.0
94.31,20.0
94.37,15.0
94.44,11.0
94.5,17.0
94.56,3.0
94.63,20.0
94.69,19.0
94.75,0.0
94.82,8.0
94.88,11.0
94.94,4.0
95.0,-11.0
95.07,6.0
95.13,4.0
95.19,25.0
95.26,34.0
95.32,18.0
95.38,36.0
95.45,44.0
95.51,24.0
95.57,51.0
95.63,34.0
95.7,22.0
95.76,25.0
95.82,22.0
95.89,23.0
95.95,40.0
96.01,21.0
96.08,39.0
96.14,28.0
96.2,0.0
96.26,-29.0
96.33,-14.0
96.39,2.0
96.45,-13.0
96.52,-27.0
96.58,-3.0
96.64,-15.0
96.71,0.0
96.77,-2.0
96.83,-5.0
96.89,4.0
96.96,0.0
97.02,-14.0
97.08,3.0
97.15,1.0
97.21,12.0
97.27,12.0
97.34,-16.0
97.4,-2.0
97.46,14.0
97.52,8.0
97.59,-12.0
97.65,-13.0
97.71,-12.0
97.78,2.0
97.84,11.0
97.9,9.0
97.97,21.0
98.03,1.0
98.09,3.0
98.15,-5.0
98.22,7.0
98.28,7.0
98.34,0.0
98.41,10.0
98.47,17.0
98.53,20.0
98.6,18.0
98.66,16.0
98.72,1.0
98.78,1.0
98.85,-4.0
98.91,-15.0
98.97,0.0
99.04,15.0
99.1,3.0
99.16,30.0
99.23,28.0
99.29,34.0
99.35,21.0
99.41,23.0
99.48,28.0
99.54,42.0
99.6,25.0
99.67,44.0
99.73,45.0
99.79,32.0
99.86,51.0
99.92,42.0
99.98,44.0
100.04,54.0
100.11,55.0
100.17,47.0
100.23,41.0
100.3,71.0
100.36,39.0
100.42,37.0
100.49,34.0
100.55,47.0
100.61,65.0
100.67,45.0
100.74,47.0
100.8,57.0
100.86,54.0
100.93,61.0
100.99,51.0
101.05,54.0
101.12,55.0
101.18,52.0
101.24,57.0
101.3,72.0
101.37,79.0
101.43,95.0
101.49,76.0
101.56,88.0
101.62,111.0
101.68,95.0
101.75,109.0
101.81,79.0
101.87,105.0
101.93,89.0
102.0,87.0
102.06,80.0
102.12,69.0
102.19,116.0
102.25,105.0
102.31,100.0
102.38,96.0
102.44,102.0
102.5,95.0
102.56,93.0
102.63,87.0
102.69,107.0
102.75,112.0
102.82,108.0
102.88,110.0
102.94,113.0
103.01,84.0
103.07,80.0
103.13,80.0
103.19,71.0
103.26,64.0
103.32,80.0
103.38,74.0
103.45,57.0
103.51,57.0
103.57,44.0
103.64,68.0
103.7,39.0
103.76,56.0
103.82,65.0
103.89,36.0
103.95,48.0
104.01,43.0
104.08,64.0
104.14,65.0
104.2,47.0
104.27,42.0
104.33,50.0
104.39,43.0
104.45,38.0
104.52,41.0
104.58,56.0
104.64,36.0
104.71,40.0
104.77,44.0
104.83,21.0
104.9,1.0
104.96,25.0
105.02,8.0
105.08,12.0
105.15,-3.0
105.21,-12.0
105.27,14.0
105.34,3.0
105.4,-6.0
105.46,-9.0
105.53,6.0
105.59,6.0
105.65,-2.0
105.71,22.0
105.78,-8.0
105.84,-6.0
105.9,7.0
105.97,-8.0
106.03,-9.0
106.09,15.0
106.16,4.0
106.22,3.0
106.28,0.0
106.34,21.0
106.41,32.0
106.47,21.0
106.53,37.0
106.6,38.0
106.66,30.0
106.72,29.0
106.79,28.0
106.85,12.0
106.91,20.0
106.97,17.0
107.04,16.0
107.1,16.0
107.16,2.0
107.23,2.0
107.29,22.0
107.35,40.0
107.42,30.0
107.48,19.0
107.54,48.0
107.6,40.0
107.67,32.0
107.73,48.0
107.79,17.0
107.86,15.0
107.92,30.0
107.98,47.0
108.05,35.0
108.11,38.0
108.17,40.0
108.23,35.0
108.3,36.0
108.36,58.0
108.42,43.0
108.49,56.0
108.55,51.0
108.61,54.0
108.68,56.0
108.74,70.0
108.8,81.0
108.86,85.0
108.93,91.0
108.99,66.0
109.05,59.0
109.12,63.0
109.18,53.0
109.24,60.0
109.31,57.0
109.37,84.0
109.43,99.0
109.49,84.0
109.56,93.0
109.62,96.0
109.68,78.0
109.75,77.0
109.81,86.0
109.87,87.0
109.94,88.0
110.0,87.0
110.06,77.0
110.12,86.0
110.19,102.0
110.25,96.0
110.31,98.0
110.38,92.0
110.44,94.0
110.5,101.0
110.57,121.0
110.63,112.0
110.69,98.0
110.75,100.0
110.82,99.0
110.88,83.0
110.94,97.0
111.01,74.0
111.07,81.0
111.13,71.0
111.2,68.0
111.26,90.0
111.32,82.0
111.38,89.0
111.45,87.0
111.51,80.0
111.57,95.0
111.64,74.0
111.7,85.0
111.76,73.0
111.83,68.0
111.89,69.0
111.95,65.0
112.01,78.0
112.08,69.0
112.14,65.0
112.2,45.0
112.27,56.0
112.33,48.0
112.39,33.0
112.46,25.0
112.52,27.0
112.58,30.0
112.64,49.0
112.71,40.0
112.77,28.0
112.83,33.0
112.9,30.0
112.96,13.0
113.02,20.0
113.09,21.0
113.15,27.0
113.21,27.0
113.27,40.0
113.34,12.0
113.4,0.0
113.46,16.0
113.53,21.0
113.59,-1.0
113.65,22.0
113.72,27.0
113.78,24.0
113.84,32.0
113.9,18.0
113.97,15.0
114.03,8.0
114.09,0.0
114.16,0.0
114.22,-14.0
114.28,-11.0
114.35,7.0
114.41,7.0
114.47,24.0
114.53,25.0
114.6,39.0
114.66,34.0
114.72,25.0
114.79,28.0
114.85,38.0
114.91,31.0
114.98,39.0
115.04,31.0
115.1,49.0
115.16,45.0
115.23,23.0
115.29,46.0
115.35,45.0
115.42,51.0
115.48,54.0
115.54,41.0
115.61,56.0
115.67,48.0
115.73,55.0
115.79,45.0
115.86,75.0
115.92,57.0
115.98,57.0
116.05,57.0
116.11,63.0
116.17,66.0
116.24,47.0
116.3,49.0
116.36,69.0
116.42,64.0
116.49,82.0
116.55,76.0
116.61,54.0
116.68,74.0
116.74,72.0
116.8,96.0
116.87,93.0
116.93,88.0
116.99,84.0
117.05,72.0
117.12,74.0
117.18,64.0
117.24,59.0
117.31,85.0
117.37,52.0
117.43,46.0
117.5,70.0
117.56,55.0
117.62,57.0
117.68,52.0
117.75,47.0
117.81,46.0
117.87,54.0
117.94,61.0
118.0,44.0
118.06,30.0
118.13,55.0
118.19,47.0
118.25,33.0
118.31,52.0
118.38,26.0
118.44,41.0
118.5,53.0
118.57,54.0
118.63,49.0
118.69,64.0
118.76,52.0
118.82,41.0
118.88,33.0
118.94,32.0
119.01,36.0
119.07,36.0
119.13,39.0
119.2,57.0
119.26,56.0
119.32,56.0
119.39,62.0
119.45,24.0
119.51,47.0
119.57,42.0
119.64,35.0
119.7,20.0
119.76,11.0
119.83,26.0
119.89,11.0
119.95,38.0
120.02,35.0
120.08,12.0
120.14,28.0
120.2,52.0
120.27,46.0
120.33,24.0
120.39,20.0
120.46,-4.0
120.52,17.0
120.58,19.0
120.65,2.0
120.71,13.0
120.77,12.0
120.83,12.0
120.9,1.0
120.96,-12.0
121.02,-19.0
121.09,-16.0
121.15,-39.0
121.21,-41.0
121.28,-27.0
121.34,-43.0
121.4,-41.0
121.46,-60.0
121.53,-55.0
121.59,-59.0
121.65,-63.0
121.72,-58.0
121.78,-37.0
121.84,-60.0
121.91,-65.0
121.97,-54.0
122.03,-53.0
122.09,-73.0
122.16,-85.0
122.22,-63.0
122.28,-49.0
122.35,-58.0
122.41,-71.0
122.47,-69.0
122.54,-59.0
122.6,-48.0
122.66,-57.0
122.72,-60.0
122.79,-64.0
122.85,-59.0
122.91,-45.0
122.98,-71.0
123.04,-71.0
123.1,-66.0
123.17,-46.0
123.23,-50.0
123.29,-50.0
123.35,-53.0
123.42,-58.0
123.48,-75.0
123.54,-58.0
123.61,-56.0
123.67,-51.0
123.73,-43.0
123.8,-41.0
123.86,-60.0
123.92,-54.0
123.98,-63.0
124.05,-56.0
124.11,-40.0
124.17,-35.0
124.24,-37.0
124.3,-36.0
124.36,-42.0
124.43,-30.0
124.49,-36.0
124.55,-40.0
124.61,-43.0
124.68,-42.0
124.74,-28.0
124.8,-42.0
124.87,-29.0
124.93,-41.0
124.99,-36.0
125.06,-2.0
125.12,-11.0
125.18,-3.0
125.24,-9.0
125.31,-1.0
125.37,6.0
125.43,-2.0
125.5,19.0
125.56,2.0
125.62,19.0
125.69,15.0
125.75,10.0
125.81,19.0
125.87,13.0
125.94,37.0
126.0,9.0
126.06,19.0
126.13,26.0
126.19,17.0
126.25,6.0
126.32,23.0
126.38,10.0
126.44,-8.0
126.5,-2.0
126.57,0.0
126.63,13.0
126.69,8.0
126.76,2.0
126.82,11.0
126.88,4.0
126.95,-2.0
127.01,-7.0
127.07,9.0
127.13,-1.0
127.2,-1.0
127.26,-5.0
127.32,-3.0
127.39,21.0
127.45,17.0
127.51,26.0
127.58,28.0
127.64,25.0
127.7,21.0
127.76,31.0
127.83,37.0
127.89,44.0
127.95,47.0
128.02,48.0
128.08,46.0
128.14,10.0
128.21,29.0
128.27,39.0
128.33,23.0
128.39,40.0
128.46,48.0
128.52,39.0
128.58,28.0
128.65,39.0
128.71,25.0
128.77,23.0
128.84,24.0
128.9,4.0
128.96,8.0
129.02,-7.0
129.09,-10.0
129.15,-11.0
129.21,-4.0
129.28,19.0
129.34,31.0
129.4,37.0
129.47,16.0
129.53,8.0
129.59,18.0
129.65,-8.0
129.72,-10.0
129.78,3.0
129.84,11.0
129.91,0.0
129.97,7.0
130.03,-11.0
130.1,-1.0
130.16,2.0
130.22,18.0
130.28,6.0
130.35,16.0
130.41,31.0
130.47,13.0
130.54,32.0
130.6,22.0
130.66,22.0
130.73,43.0
130.79,28.0
130.85,38.0
130.91,38.0
130.98,23.0
131.04,36.0
131.1,16.0
131.17,13.0
131.23,15.0
131.29,25.0
131.36,48.0
131.42,40.0
131.48,52.0
131.54,54.0
131.61,36.0
131.67,46.0
131.73,50.0
131.8,36.0
131.86,32.0
131.92,49.0
131.99,50.0
132.05,58.0
132.11,66.0
132.17,85.0
132.24,95.0
132.3,106.0
132.36,76.0
132.43,99.0
132.49,101.0
132.55,100.0
132.62,103.0
132.68,83.0
132.74,101.0
132.8,102.0
132.87,104.0
132.93,103.0
132.99,82.0
133.06,79.0
133.12,98.0
133.18,74.0
133.25,79.0
133.31,69.0
133.37,66.0
133.43,62.0
133.5,77.0
133.56,95.0
133.62,82.0
133.69,72.0
133.75,87.0
133.81,119.0
133.88,106.0
133.94,99.0
134.0,99.0
134.06,92.0
134.13,61.0
134.19,76.0
134.25,81.0
134.32,68.0
134.38,87.0
134.44,101.0
134.51,112.0
134.57,109.0
134.63,102.0
134.69,101.0
134.76,105.0
134.82,101.0
134.88,102.0
134.95,101.0
135.01,87.0
135.07,91.0
135.14,97.0
135.2,103.0
135.26,101.0
135.32,103.0
135.39,99.0
135.45,89.0
135.51,91.0
135.58,116.0
135.64,110.0
135.7,101.0
135.77,95.0
135.83,101.0
135.89,125.0
135.95,123.0
136.02,120.0
136.08,111.0
136.14,124.0
136.21,114.0
136.27,106.0
136.33,119.0
136.4,116.0
136.46,118.0
136.52,121.0
136.58,130.0
136.65,122.0
136.71,126.0
136.77,109.0
136.84,115.0
136.9,116.0
136.96,106.0
137.03,111.0
137.09,97.0
137.15,84.0
137.21,76.0
137.28,81.0
137.34,58.0
137.4,66.0
137.47,91.0
137.53,61.0
137.59,36.0
137.66,55.0
137.72,54.0
137.78,39.0
137.84,36.0
137.91,48.0
137.97,47.0
138.03,35.0
138.1,26.0
138.16,28.0
138.22,27.0
138.29,34.0
138.35,65.0
138.41,46.0
138.47,25.0
138.54,26.0
138.6,36.0
138.66,36.0
138.73,5.0
138.79,-2.0
138.85,16.0
138.92,31.0
138.98,9.0
139.04,17.0
139.1,1.0
139.17,10.0
139.23,19.0
139.29,23.0
139.36,48.0
139.42,55.0
139.48,53.0
139.55,66.0
139.61,39.0
139.67,36.0
139.73,45.0
139.8,35.0
139.86,33.0
139.92,41.0
139.99,30.0
140.05,44.0
140.11,28.0
140.18,38.0
140.24,39.0
140.3,43.0
140.36,39.0
140.43,46.0
140.49,29.0
140.55,16.0
140.62,39.0
140.68,44.0
140.74,38.0
140.81,39.0
140.87,33.0
140.93,49.0
140.99,59.0
141.06,20.0
141.12,36.0
141.18,25.0
141.25,33.0
141.31,35.0
141.37,38.0
141.44,40.0
141.5,47.0
141.56,57.0
141.62,49.0
141.69,29.0
141.75,25.0
141.81,44.0
141.88,34.0
141.94,19.0
142.0,36.0
142.07,47.0
142.13,49.0
142.19,36.0
142.25,30.0
142.32,42.0
142.38,28.0
142.44,45.0
142.51,61.0
142.57,63.0
142.63,39.0
142.7,52.0
142.76,22.0
142.82,23.0
142.88,35.0
142.95,39.0
143.01,31.0
143.07,28.0
143.14,55.0
143.2,56.0
143.26,47.0
143.33,54.0
143.39,47.0
143.45,61.0
143.51,71.0
143.58,60.0
143.64,69.0
143.7,69.0
143.77,58.0
143.83,50.0
143.89,47.0
143.96,55.0
144.02,45.0
144.08,30.0
144.14,37.0
144.21,38.0
144.27,33.0
144.33,49.0
144.4,36.0
144.46,26.0
144.52,32.0
144.59,22.0
144.65,14.0
144.71,26.0
144.77,17.0
144.84,17.0
144.9,-4.0
144.96,5.0
145.03,19.0
145.09,12.0
145.15,22.0
145.22,27.0
145.28,28.0
145.34,43.0
145.4,51.0
145.47,49.0
145.53,47.0
145.59,37.0
145.66,27.0
145.72,45.0
145.78,40.0
145.85,30.0
145.91,30.0
145.97,19.0
146.03,35.0
146.1,47.0
146.16,38.0
146.22,16.0
146.29,33.0
146.35,30.0
146.41,8.0
146.47,1.0
146.54,-9.0
146.6,-8.0
146.66,10.0
146.73,5.0
146.79,-3.0
146.85,-16.0
146.92,-3.0
146.98,-1.0
147.04,-25.0
147.1,-4.0
147.17,-1.0
147.23,-2.0
147.29,-10.0
147.36,-28.0
147.42,-10.0
147.48,5.0
147.55,-13.0
147.61,-5.0
147.67,19.0
147.73,2.0
147.8,17.0
147.86,27.0
147.92,17.0
147.99,23.0
148.05,26.0
148.11,18.0
148.18,29.0
148.24,27.0
148.3,27.0
148.36,13.0
148.43,31.0
148.49,45.0
148.55,17.0
148.62,38.0
148.68,34.0
148.74,15.0
148.81,12.0
148.87,13.0
148.93,-1.0
148.99,16.0
149.06,27.0
149.12,23.0
149.18,27.0
149.25,15.0
149.31,25.0
149.37,23.0
149.44,26.0
149.5,27.0
149.56,28.0
149.62,16.0
149.69,45.0
149.75,29.0
149.81,21.0
149.88,33.0
149.94,51.0
150.0,42.0
150.07,50.0
150.13,63.0
150.19,50.0
150.25,40.0
150.32,56.0
150.38,63.0
150.44,48.0
150.51,38.0
150.57,56.0
150.63,68.0
150.7,68.0
150.76,78.0
150.82,68.0
150.88,76.0
150.95,71.0
151.01,60.0
151.07,63.0
151.14,51.0
151.2,65.0
151.26,65.0
151.33,66.0
151.39,77.0
151.45,73.0
151.51,64.0
151.58,59.0
151.64,57.0
151.7,49.0
151.77,45.0
151.83,51.0
151.89,42.0
151.96,58.0
152.02,75.0
152.08,64.0
152.14,62.0
152.21,48.0
152.27,49.0
152.33,49.0
152.4,59.0
152.46,52.0
152.52,56.0
152.59,58.0
152.65,82.0
152.71,52.0
152.77,18.0
152.84,41.0
152.9,35.0
152.96,28.0
153.03,16.0
153.09,22.0
153.15,29.0
153.22,25.0
153.28,40.0
153.34,33.0
153.4,13.0
153.47,19.0
153.53,13.0
153.59,30.0
153.66,32.0
153.72,40.0
153.78,44.0
153.85,31.0
153.91,46.0
153.97,29.0
154.03,31.0
154.1,32.0
154.16,25.0
154.22,34.0
154.29,52.0
154.35,55.0
154.41,50.0
154.48,31.0
154.54,44.0
154.6,48.0
154.66,67.0
154.73,58.0
154.79,51.0
154.85,52.0
154.92,56.0
154.98,45.0
155.04,41.0
155.11,17.0
155.17,8.0
155.23,3.0
155.29,2.0
155.36,18.0
155.42,12.0
155.48,-12.0
155.55,2.0
155.61,-15.0
155.67,-12.0
155.74,-29.0
155.8,-41.0
155.86,-26.0
155.92,-21.0
155.99,-24.0
156.05,-18.0
156.11,-13.0
156.18,-30.0
156.24,-24.0
156.3,-26.0
156.37,-26.0
156.43,-12.0
156.49,-17.0
156.55,-5.0
156.62,-32.0
156.68,-35.0
156.74,-36.0
156.81,-10.0
156.87,2.0
156.93,-13.0
157.0,-3.0
157.06,3.0
157.12,19.0
157.18,12.0
157.25,-12.0
157.31,20.0
157.37,22.0
157.44,23.0
157.5,15.0
157.56,36.0
157.63,18.0
157.69,35.0
157.75,17.0
157.81,18.0
157.88,37.0
157.94,25.0
158.0,17.0
158.07,32.0
158.13,29.0
158.19,27.0
158.26,49.0
158.32,58.0
158.38,42.0
158.44,62.0
158.51,79.0
158.57,52.0
158.63,64.0
158.7,57.0
158.76,59.0
158.82,75.0
158.89,49.0
158.95,64.0
159.01,48.0
159.07,52.0
159.14,72.0
159.2,65.0
159.26,60.0
159.33,73.0
159.39,59.0
159.45,64.0
159.52,87.0
159.58,98.0
159.64,89.0
159.7,87.0
159.77,69.0
159.83,83.0
159.89,78.0
159.96,60.0
160.02,86.0
160.08,80.0
160.15,90.0
160.21,77.0
160.27,80.0
160.33,84.0
160.4,91.0
160.46,88.0
160.52,79.0
160.59,65.0
160.65,82.0
160.71,66.0
160.78,77.0
160.84,84.0
160.9,81.0
160.96,83.0
161.03,95.0
161.09,78.0
161.15,110.0
161.22,92.0
161.28,84.0
161.34,68.0
161.41,83.0
161.47,89.0
161.53,86.0
161.59,82.0
161.66,95.0
161.72,85.0
161.78,92.0
161.85,95.0
161.91,111.0
161.97,110.0
162.04,95.0
162.1,103.0
162.16,97.0
162.22,89.0
162.29,93.0
162.35,104.0
162.41,84.0
162.48,60.0
162.54,68.0
162.6,75.0
162.67,71.0
162.73,74.0
162.79,63.0
162.85,54.0
162.92,70.0
162.98,60.0
163.04,55.0
163.11,70.0
163.17,73.0
163.23,67.0
163.3,88.0
163.36,66.0
163.42,68.0
163.48,57.0
163.55,46.0
163.61,70.0
163.67,52.0
163.74,48.0
163.8,63.0
163.86,57.0
163.93,62.0
163.99,49.0
164.05,59.0
164.11,77.0
164.18,58.0
164.24,70.0
164.3,77.0
164.37,81.0
164.43,77.0
164.49,57.0
164.56,65.0
164.62,66.0
164.68,73.0
164.74,70.0
164.81,51.0
164.87,75.0
164.93,56.0
165.0,61.0
165.06,78.0
165.12,87.0
165.19,85.0
165.25,56.0
165.31,63.0
165.37,68.0
165.44,61.0
165.5,60.0
165.56,62.0
165.63,65.0
165.69,74.0
165.75,84.0
165.82,74.0
165.88,78.0
165.94,89.0
166.0,81.0
166.07,84.0
166.13,81.0
166.19,96.0
166.26,85.0
166.32,95.0
166.38,97.0
166.45,109.0
166.51,104.0
166.57,123.0
166.63,115.0
166.7,111.0
166.76,126.0
166.82,116.0
166.89,137.0
166.95,140.0
167.01,137.0
167.08,134.0
167.14,141.0
167.2,142.0
167.26,146.0
167.33,143.0
167.39,128.0
167.45,106.0
167.52,117.0
167.58,142.0
167.64,138.0
167.71,131.0
167.77,134.0
167.83,132.0
167.89,142.0
167.96,139.0
168.02,149.0
168.08,123.0
168.15,139.0
168.21,123.0
168.27,132.0
168.34,131.0
168.4,115.0
168.46,110.0
168.52,119.0
168.59,136.0
168.65,111.0
168.71,115.0
168.78,132.0
168.84,137.0
168.9,134.0
168.97,122.0
169.03,140.0
169.09,136.0
169.15,157.0
169.22,154.0
169.28,145.0
169.34,140.0
169.41,150.0
169.47,148.0
169.53,140.0
169.6,117.0
169.66,124.0
169.72,137.0
169.78,128.0
169.85,142.0
169.91,124.0
169.97,112.0
170.04,101.0
170.1,84.0
170.16,88.0
170.23,77.0
170.29,95.0
170.35,91.0
170.41,83.0
170.48,95.0
170.54,80.0
170.6,83.0
170.67,66.0
170.73,73.0
170.79,62.0
170.86,59.0
170.92,56.0
170.98,61.0
171.04,51.0
171.11,63.0
171.17,42.0
171.23,51.0
171.3,44.0
171.36,55.0
171.42,38.0
171.49,28.0
171.55,33.0
171.61,33.0
171.67,24.0
171.74,25.0
171.8,32.0
171.86,35.0
171.93,44.0
171.99,19.0
172.05,21.0
172.12,11.0
172.18,16.0
172.24,10.0
172.3,21.0
172.37,30.0
172.43,8.0
172.49,7.0
172.56,2.0
172.62,-14.0
172.68,-16.0
172.75,-36.0
172.81,-19.0
172.87,-25.0
172.93,-30.0
173.0,-12.0
173.06,-34.0
173.12,-15.0
173.19,-15.0
173.25,-25.0
173.31,-8.0
173.38,-4.0
173.44,-1.0
173.5,0.0
173.56,11.0
173.63,19.0
173.69,25.0
173.75,35.0
173.82,26.0
173.88,22.0
173.94,41.0
174.01,27.0
174.07,44.0
174.13,30.0
174.19,39.0
174.26,44.0
174.32,24.0
174.38,32.0
174.45,20.0
174.51,24.0
174.57,20.0
174.64,31.0
174.7,49.0
174.76,22.0
174.82,32.0
174.89,32.0
174.95,21.0
175.01,14.0
175.08,34.0
175.14,39.0
175.2,36.0
175.27,39.0
175.33,42.0
175.39,40.0
175.45,36.0
175.52,40.0
175.58,41.0
175.64,39.0
175.71,27.0
175.77,34.0
175.83,61.0
175.9,61.0
175.96,54.0
176.02,73.0
176.08,53.0
176.15,60.0
176.21,58.0
176.27,55.0
176.34,72.0
176.4,56.0
176.46,49.0
176.53,46.0
176.59,63.0
176.65,51.0
176.71,54.0
176.78,79.0
176.84,104.0
176.9,89.0
176.97,79.0
177.03,84.0
177.09,66.0
177.16,85.0
177.22,83.0
177.28,75.0
177.34,75.0
177.41,58.0
177.47,81.0
177.53,72.0
177.6,75.0
177.66,76.0
177.72,55.0
177.79,63.0
177.85,61.0
177.91,68.0
177.97,60.0
178.04,65.0
178.1,55.0
178.16,60.0
178.23,61.0
178.29,80.0
178.35,74.0
178.42,71.0
178.48,65.0
178.54,74.0
178.6,63.0
178.67,52.0
178.73,42.0
178.79,31.0
178.86,60.0
178.92,55.0
178.98,38.0
179.05,15.0
179.11,22.0
179.17,17.0
179.23,19.0
179.3,5.0
179.36,10.0
179.42,8.0
179.49,-6.0
179.55,12.0
179.61,9.0
179.68,17.0
179.74,28.0
179.8,3.0
179.86,16.0
179.93,16.0
179.99,2.0
180.05,15.0
180.12,-5.0
180.18,-10.0
180.24,4.0
180.31,5.0
180.37,-4.0
180.43,-18.0
180.49,-9.0
180.56,-16.0
180.62,-22.0
180.68,-37.0
180.75,-31.0
180.81,-14.0
180.87,-9.0
180.94,-15.0
181.0,-3.0
181.06,12.0
181.12,6.0
181.19,-3.0
181.25,-18.0
181.31,-7.0
181.38,2.0
181.44,27.0
181.5,-3.0
181.57,20.0
181.63,30.0
181.69,29.0
181.75,35.0
181.82,23.0
181.88,13.0
181.94,20.0
182.01,28.0
182.07,18.0
182.13,15.0
182.2,37.0
182.26,35.0
182.32,34.0
182.38,33.0
182.45,36.0
182.51,26.0
182.57,54.0
182.64,33.0
182.7,44.0
182.76,43.0
182.83,41.0
182.89,38.0
182.95,41.0
183.01,63.0
183.08,63.0
183.14,63.0
183.2,55.0
183.27,57.0
183.33,68.0
183.39,50.0
183.46,53.0
183.52,66.0
183.58,74.0
183.64,67.0
183.71,81.0
183.77,68.0
183.83,79.0
183.9,70.0
183.96,84.0
184.02,100.0
184.09,99.0
184.15,112.0
184.21,115.0
184.27,103.0
184.34,96.0
184.4,105.0
184.46,96.0
184.53,94.0
184.59,111.0
184.65,126.0
184.72,118.0
184.78,106.0
184.84,117.0
184.9,122.0
184.97,111.0
185.03,133.0
185.09,106.0
185.16,88.0
185.22,100.0
185.28,109.0
185.35,111.0
185.41,107.0
185.47,112.0
185.53,113.0
185.6,115.0
185.66,109.0
185.72,107.0
185.79,98.0
185.85,117.0
185.91,121.0
185.98,110.0
186.04,119.0
186.1,115.0
186.16,126.0
186.23,114.0
186.29,132.0
186.35,136.0
186.42,132.0
186.48,133.0
186.54,118.0
186.61,124.0
186.67,127.0
186.73,128.0
186.79,127.0
186.86,128.0
186.92,131.0
186.98,125.0
187.05,138.0
187.11,142.0
187.17,144.0
187.24,149.0
187.3,125.0
187.36,128.0
187.42,117.0
187.49,117.0
187.55,119.0
187.61,109.0
187.68,115.0
187.74,127.0
187.8,108.0
187.87,109.0
187.93,110.0
187.99,115.0
188.05,114.0
188.12,107.0
188.18,100.0
188.24,92.0
188.31,99.0
188.37,93.0
188.43,93.0
188.5,98.0
188.56,101.0
188.62,73.0
188.68,63.0
188.75,47.0
188.81,51.0
188.87,56.0
188.94,48.0
189.0,46.0
189.06,44.0
189.13,35.0
189.19,17.0
189.25,31.0
189.31,37.0
189.38,23.0
189.44,37.0
189.5,48.0
189.57,37.0
189.63,39.0
189.69,46.0
189.76,20.0
189.82,48.0
189.88,33.0
189.94,23.0
190.01,49.0
190.07,41.0
190.13,35.0
190.2,35.0
190.26,46.0
190.32,44.0
190.39,24.0
190.45,26.0
190.51,32.0
190.57,2.0
190.64,19.0
190.7,13.0
190.76,32.0
190.83,46.0
190.89,32.0
190.95,42.0
191.02,41.0
191.08,41.0
191.14,74.0
191.2,64.0
191.27,52.0
191.33,42.0
191.39,62.0
191.46,73.0
191.52,48.0
191.58,63.0
191.65,66.0
191.71,78.0
191.77,63.0
191.83,68.0
191.9,69.0
191.96,90.0
192.02,62.0
192.09,73.0
192.15,80.0
192.21,85.0
192.28,94.0
192.34,107.0
192.4,114.0
192.46,104.0
192.53,102.0
192.59,98.0
192.65,93.0
192.72,65.0
192.78,73.0
192.84,74.0
192.91,83.0
192.97,85.0
193.03,74.0
193.09,68.0
193.16,89.0
193.22,98.0
193.28,86.0
193.35,85.0
193.41,89.0
193.47,78.0
193.54,85.0
193.6,98.0
193.66,78.0
193.72,83.0
193.79,82.0
193.85,85.0
193.91,73.0
193.98,99.0
194.04,88.0
194.1,72.0
194.17,88.0
194.23,74.0
194.29,88.0
194.35,92.0
194.42,87.0
194.48,81.0
194.54,84.0
194.61,84.0
194.67,72.0
194.73,76.0
194.8,90.0
194.86,95.0
194.92,113.0
194.98,83.0
195.05,76.0
195.11,75.0
195.17,91.0
195.24,70.0
195.3,63.0
195.36,53.0
195.43,58.0
195.49,56.0
195.55,40.0
195.61,60.0
195.68,49.0
195.74,52.0
195.8,41.0
195.87,34.0
195.93,39.0
195.99,26.0
196.06,25.0
196.12,10.0
196.18,27.0
196.24,13.0
196.31,14.0
196.37,23.0
196.43,15.0
196.5,20.0
196.56,26.0
196.62,40.0
196.69,50.0
196.75,42.0
196.81,45.0
196.87,28.0
196.94,15.0
197.0,21.0
197.06,15.0
197.13,15.0
197.19,8.0
197.25,-3.0
197.32,-3.0
197.38,-8.0
197.44,-10.0
197.5,17.0
197.57,22.0
197.63,25.0
197.69,14.0
197.76,5.0
197.82,14.0
197.88,21.0
197.95,12.0
198.01,24.0
198.07,26.0
198.13,26.0
198.2,41.0
198.26,27.0
198.32,26.0
198.39,34.0
198.45,39.0
198.51,43.0
198.58,61.0
198.64,61.0
198.7,50.0
198.76,44.0
198.83,44.0
198.89,44.0
198.95,59.0
199.02,39.0
199.08,49.0
199.14,42.0
199.21,42.0
199.27,40.0
199.33,45.0
199.39,51.0
199.46,55.0
199.52,56.0
199.58,47.0
199.65,63.0
199.71,65.0
199.77,67.0
199.84,59.0
199.9,46.0
199.96,75.0
200.02,77.0
200.09,63.0
200.15,69.0
200.21,54.0
200.28,67.0
200.34,60.0
200.4,52.0
200.47,48.0
200.53,47.0
200.59,62.0
200.65,68.0
200.72,78.0
200.78,83.0
200.84,85.0
200.91,69.0
200.97,85.0
201.03,89.0
201.1,79.0
201.16,68.0
201.22,91.0
201.28,83.0
201.35,80.0
201.41,82.0
201.47,95.0
201.54,101.0
201.6,102.0
201.66,85.0
201.73,94.0
201.79,97.0
201.85,91.0
201.91,86.0
201.98,88.0
202.04,102.0
202.1,107.0
202.17,126.0
202.23,128.0
202.29,133.0
202.36,140.0
202.42,133.0
202.48,123.0
202.54,118.0
202.61,110.0
202.67,118.0
202.73,107.0
202.8,107.0
202.86,102.0
202.92,108.0
202.99,127.0
203.05,108.0
203.11,98.0
203.17,112.0
203.24,119.0
203.3,106.0
203.36,116.0
203.43,121.0
203.49,126.0
203.55,119.0
203.62,104.0
203.68,133.0
203.74,116.0
203.8,89.0
203.87,93.0
203.93,90.0
203.99,103.0
204.06,93.0
204.12,75.0
204.18,80.0
204.25,106.0
204.31,121.0
204.37,105.0
204.43,90.0
204.5,102.0
204.56,73.0
204.62,75.0
204.69,75.0
204.75,60.0
204.81,57.0
204.88,34.0
204.94,38.0
205.0,46.0
205.06,33.0
205.13,23.0
205.19,6.0
205.25,26.0
205.32,27.0
205.38,22.0
205.44,12.0
205.51,8.0
205.57,-1.0
205.63,-7.0
205.69,4.0
205.76,-9.0
205.82,-23.0
205.88,5.0
205.95,13.0
206.01,13.0
206.07,19.0
206.14,3.0
206.2,-1.0
206.26,5.0
206.32,0.0
206.39,1.0
206.45,6.0
206.51,14.0
206.58,2.0
206.64,2.0
206.7,4.0
206.77,3.0
206.83,4.0
206.89,29.0
206.95,32.0
207.02,51.0
207.08,35.0
207.14,28.0
207.21,9.0
207.27,2.0
207.33,19.0
207.4,2.0
207.46,12.0
207.52,-4.0
207.58,20.0
207.65,16.0
207.71,16.0
207.77,30.0
207.84,22.0
207.9,8.0
207.96,15.0
208.03,-6.0
208.09,15.0
208.15,22.0
208.21,24.0
208.28,10.0
208.34,0.0
208.4,30.0
208.47,19.0
208.53,29.0
208.59,35.0
208.66,19.0
208.72,18.0
208.78,31.0
208.84,48.0
208.91,13.0
208.97,19.0
209.03,36.0
209.1,42.0
209.16,30.0
209.22,19.0
209.29,18.0
209.35,39.0
209.41,49.0
209.47,54.0
209.54,48.0
209.6,42.0
209.66,49.0
209.73,55.0
209.79,64.0
209.85,72.0
209.92,63.0
209.98,52.0
210.04,55.0
210.1,59.0
210.17,55.0
210.23,60.0
210.29,79.0
210.36,59.0
210.42,63.0
210.48,69.0
210.55,66.0
210.61,70.0
210.67,81.0
210.73,75.0
210.8,60.0
210.86,75.0
210.92,60.0
210.99,69.0
211.05,67.0
211.11,49.0
211.18,67.0
211.24,55.0
211.3,74.0
211.36,78.0
211.43,67.0
211.49,74.0
211.55,83.0
211.62,83.0
211.68,63.0
211.74,60.0
211.81,55.0
211.87,66.0
211.93,67.0
211.99,63.0
212.06,55.0
212.12,75.0
212.18,70.0
212.25,58.0
212.31,52.0
212.37,74.0
212.44,58.0
212.5,68.0
212.56,52.0
212.62,70.0
212.69,63.0
212.75,58.0
212.81,58.0
212.88,60.0
212.94,62.0
213.0,75.0
213.07,93.0
213.13,67.0
213.19,69.0
213.25,65.0
213.32,82.0
213.38,89.0
213.44,93.0
213.51,88.0
213.57,65.0
213.63,77.0
213.7,84.0
213.76,66.0
213.82,85.0
213.88,95.0
213.95,102.0
214.01,86.0
214.07,92.0
214.14,107.0
214.2,91.0
214.26,105.0
214.33,112.0
214.39,98.0
214.45,114.0
214.51,81.0
214.58,75.0
214.64,96.0
214.7,106.0
214.77,83.0
214.83,65.0
214.89,99.0
214.96,92.0
215.02,89.0
215.08,85.0
215.14,96.0
215.21,93.0
215.27,101.0
215.33,92.0
215.4,98.0
215.46,100.0
215.52,110.0
215.59,90.0
215.65,91.0
215.71,92.0
215.77,92.0
215.84,90.0
215.9,106.0
215.96,117.0
216.03,107.0
216.09,116.0
216.15,110.0
216.22,103.0
216.28,101.0
216.34,89.0
216.4,104.0
216.47,117.0
216.53,113.0
216.59,114.0
216.66,114.0
216.72,112.0
216.78,102.0
216.85,106.0
216.91,108.0
216.97,101.0
217.03,114.0
217.1,95.0
217.16,105.0
217.22,104.0
217.29,106.0
217.35,124.0
217.41,131.0
217.48,111.0
217.54,93.0
217.6,104.0
217.66,115.0
217.73,110.0
217.79,120.0
217.85,135.0
217.92,116.0
217.98,117.0
218.04,114.0
218.11,109.0
218.17,104.0
218.23,115.0
218.29,122.0
218.36,139.0
218.42,136.0
218.48,126.0
218.55,123.0
218.61,136.0
218.67,158.0
218.74,139.0
218.8,150.0
218.86,150.0
218.92,171.0
218.99,156.0
219.05,138.0
219.11,140.0
219.18,150.0
219.24,144.0
219.3,133.0
219.37,136.0
219.43,155.0
219.49,149.0
219.55,146.0
219.62,149.0
219.68,141.0
219.74,164.0
219.81,142.0
219.87,147.0
219.93,167.0
220.0,175.0
220.06,150.0
220.12,162.0
220.18,171.0
220.25,149.0
220.31,143.0
220.37,173.0
220.44,154.0
220.5,151.0
220.56,166.0
220.63,156.0
220.69,151.0
220.75,176.0
220.81,159.0
220.88,128.0
220.94,138.0
221.0,125.0
221.07,143.0
221.13,127.0
221.19,116.0
221.26,140.0
221.32,125.0
221.38,127.0
221.44,101.0
221.51,110.0
221.57,104.0
221.63,93.0
221.7,126.0
221.76,106.0
221.82,119.0
221.89,102.0
221.95,92.0
222.01,96.0
222.07,89.0
222.14,90.0
222.2,68.0
222.26,60.0
222.33,73.0
222.39,84.0
222.45,51.0
222.52,53.0
222.58,56.0
222.64,48.0
222.7,44.0
222.77,33.0
222.83,40.0
222.89,33.0
222.96,37.0
223.02,19.0
223.08,19.0
223.15,0.0
223.21,3.0
223.27,16.0
223.33,24.0
223.4,-8.0
223.46,-5.0
223.52,11.0
223.59,-3.0
223.65,7.0
223.71,20.0
223.78,21.0
223.84,24.0
223.9,5.0
223.96,17.0
224.03,13.0
224.09,1.0
224.15,-11.0
224.22,-11.0
224.28,5.0
224.34,-3.0
224.41,-3.0
224.47,12.0
224.53,1.0
224.59,4.0
224.66,6.0
224.72,-26.0
224.78,-11.0
224.85,-16.0
224.91,-15.0
224.97,-14.0
225.04,-7.0
225.1,10.0
225.16,15.0
225.22,14.0
225.29,25.0
225.35,17.0
225.41,32.0
225.48,13.0
225.54,23.0
225.6,49.0
225.67,51.0
225.73,42.0
225.79,51.0
225.85,63.0
225.92,48.0
225.98,46.0
226.04,57.0
226.11,54.0
226.17,63.0
226.23,37.0
226.3,43.0
226.36,42.0
226.42,50.0
226.48,66.0
226.55,60.0
226.61,65.0
226.67,65.0
226.74,45.0
226.8,32.0
226.86,50.0
226.93,50.0
226.99,67.0
227.05,68.0
227.11,65.0
227.18,70.0
227.24,62.0
227.3,61.0
227.37,74.0
227.43,93.0
227.49,86.0
227.56,82.0
227.62,68.0
227.68,67.0
227.74,75.0
227.81,58.0
227.87,58.0
227.93,57.0
228.0,61.0
228.06,75.0
228.12,76.0
228.19,60.0
228.25,48.0
228.31,40.0
228.37,42.0
228.44,38.0
228.5,52.0
228.56,40.0
228.63,54.0
228.69,53.0
228.75,63.0
228.82,67.0
228.88,65.0
228.94,60.0
229.0,50.0
229.07,60.0
229.13,54.0
229.19,50.0
229.26,58.0
229.32,43.0
229.38,75.0
229.45,72.0
229.51,70.0
229.57,80.0
229.63,80.0
229.7,80.0
229.76,93.0
229.82,88.0
229.89,93.0
229.95,83.0
230.01,81.0
230.08,94.0
230.14,101.0
230.2,74.0
230.26,62.0
230.33,68.0
230.39,52.0
230.45,51.0
230.52,37.0
230.58,51.0
230.64,43.0
230.71,37.0
230.77,43.0
230.83,44.0
230.89,24.0
230.96,33.0
231.02,21.0
231.08,27.0
231.15,39.0
231.21,26.0
231.27,43.0
231.34,32.0
231.4,30.0
231.46,38.0
231.52,41.0
231.59,47.0
231.65,30.0
231.71,33.0
231.78,47.0
231.84,50.0
231.9,46.0
231.97,55.0
232.03,43.0
232.09,48.0
232.15,42.0
232.22,55.0
232.28,68.0
232.34,72.0
232.41,79.0
232.47,54.0
232.53,60.0
232.6,76.0
232.66,39.0
232.72,50.0
232.78,58.0
232.85,44.0
232.91,44.0
232.97,37.0
233.04,64.0
233.1,74.0
233.16,73.0
233.23,84.0
233.29,79.0
233.35,76.0
233.41,49.0
233.48,63.0
233.54,58.0
233.6,73.0
233.67,73.0
233.73,76.0
233.79,84.0
233.86,83.0
233.92,89.0
233.98,77.0
234.04,74.0
234.11,65.0
234.17,63.0
234.23,64.0
234.3,94.0
234.36,82.0
234.42,64.0
234.49,62.0
234.55,70.0
234.61,77.0
234.67,65.0
234.74,85.0
234.8,105.0
234.86,86.0
234.93,93.0
234.99,74.0
235.05,77.0
235.12,76.0
235.18,67.0
235.24,74.0
235.3,46.0
235.37,63.0
235.43,72.0
235.49,49.0
235.56,55.0
235.62,73.0
235.68,81.0
235.75,68.0
235.81,58.0
235.87,62.0
235.93,60.0
236.0,83.0
236.06,94.0
236.12,83.0
236.19,93.0
236.25,88.0
236.31,80.0
236.38,64.0
236.44,80.0
236.5,87.0
236.56,83.0
236.63,81.0
236.69,77.0
236.75,83.0
236.82,91.0
236.88,86.0
236.94,95.0
237.01,101.0
237.07,111.0
237.13,106.0
237.19,101.0
237.26,114.0
237.32,114.0
237.38,102.0
237.45,106.0
237.51,114.0
237.57,118.0
237.64,117.0
237.7,116.0
237.76,124.0
237.82,116.0
237.89,111.0
237.95,118.0
238.01,104.0
238.08,85.0
238.14,96.0
238.2,97.0
238.27,88.0
238.33,88.0
238.39,87.0
238.45,91.0
238.52,99.0
238.58,110.0
238.64,113.0
238.71,86.0
238.77,90.0
238.83,63.0
238.9,71.0
238.96,47.0
239.02,72.0
239.08,92.0
239.15,88.0
239.21,72.0
239.27,67.0
239.34,66.0
239.4,68.0
239.46,91.0
239.53,81.0
239.59,75.0
239.65,80.0
239.71,91.0
239.78,79.0
239.84,98.0
239.9,80.0
239.97,76.0
240.03,95.0
240.09,109.0
240.16,114.0
240.22,87.0
240.28,91.0
240.34,89.0
240.41,93.0
240.47,76.0
240.53,70.0
240.6,88.0
240.66,81.0
240.72,80.0
240.79,69.0
240.85,74.0
240.91,93.0
240.97,81.0
241.04,70.0
241.1,40.0
241.16,32.0
241.23,53.0
241.29,75.0
241.35,65.0
241.42,63.0
241.48,65.0
241.54,81.0
241.6,81.0
241.67,97.0
241.73,88.0
241.79,72.0
241.86,88.0
241.92,82.0
241.98,69.0
242.05,59.0
242.11,72.0
242.17,65.0
242.23,71.0
242.3,72.0
242.36,82.0
242.42,82.0
242.49,66.0
242.55,84.0
242.61,90.0
242.68,91.0
242.74,107.0
242.8,119.0
242.86,102.0
242.93,84.0
242.99,96.0
243.05,101.0
243.12,102.0
243.18,81.0
243.24,85.0
243.31,102.0
243.37,110.0
243.43,96.0
243.49,91.0
243.56,94.0
243.62,108.0
243.68,104.0
243.75,95.0
243.81,82.0
243.87,71.0
243.94,86.0
244.0,84.0
244.06,89.0
244.12,86.0
244.19,107.0
244.25,99.0
244.31,88.0
244.38,88.0
244.44,85.0
244.5,103.0
244.57,97.0
244.63,110.0
244.69,117.0
244.75,112.0
244.82,109.0
244.88,112.0
244.94,108.0
245.01,110.0
245.07,109.0
245.13,100.0
245.2,108.0
245.26,114.0
245.32,106.0
245.38,91.0
245.45,87.0
245.51,91.0
245.57,96.0
245.64,94.0
245.7,70.0
245.76,83.0
245.83,119.0
245.89,113.0
245.95,127.0
246.01,104.0
246.08,129.0
246.14,115.0
246.2,125.0
246.27,125.0
246.33,124.0
246.39,137.0
246.46,141.0
246.52,124.0
246.58,139.0
246.64,116.0
246.71,95.0
246.77,126.0
246.83,133.0
246.9,136.0
246.96,115.0
247.02,120.0
247.09,125.0
247.15,118.0
247.21,131.0
247.27,108.0
247.34,101.0
247.4,75.0
247.46,90.0
247.53,123.0
247.59,109.0
247.65,99.0
247.72,101.0
247.78,98.0
247.84,97.0
247.9,100.0
247.97,94.0
248.03,83.0
248.09,89.0
248.16,88.0
248.22,90.0
248.28,114.0
248.35,110.0
248.41,91.0
248.47,87.0
248.53,85.0
248.6,91.0
248.66,77.0
248.72,75.0
248.79,74.0
248.85,93.0
248.91,80.0
248.98,82.0
249.04,71.0
249.1,70.0
249.16,78.0
249.23,80.0
249.29,64.0
249.35,72.0
249.42,38.0
249.48,50.0
249.54,43.0
249.61,42.0
249.67,73.0
249.73,56.0
249.79,34.0
249.86,38.0
249.92,36.0
249.98,31.0
250.05,42.0
250.11,47.0
250.17,51.0
250.24,65.0
250.3,18.0
250.36,52.0
250.42,40.0
250.49,57.0
250.55,82.0
250.61,81.0
250.68,90.0
250.74,81.0
250.8,78.0
250.87,97.0
250.93,104.0
250.99,87.0
251.05,90.0
251.12,80.0
251.18,73.0
251.24,98.0
251.31,93.0
251.37,93.0
251.43,87.0
251.5,87.0
251.56,90.0
251.62,69.0
251.68,88.0
251.75,83.0
251.81,103.0
251.87,100.0
251.94,102.0
252.0,95.0
252.06,76.0
252.13,84.0
252.19,75.0
252.25,65.0
252.31,85.0
252.38,72.0
252.44,85.0
252.5,90.0
252.57,74.0
252.63,57.0
252.69,73.0
252.76,95.0
252.82,67.0
252.88,76.0
252.94,83.0
253.01,94.0
253.07,75.0
253.13,66.0
253.2,62.0
253.26,32.0
253.32,51.0
253.39,67.0
253.45,71.0
253.51,95.0
253.57,92.0
253.64,83.0
253.7,81.0
253.76,71.0
253.83,74.0
253.89,80.0
253.95,88.0
254.02,82.0
254.08,96.0
254.14,94.0
254.2,98.0
254.27,101.0
254.33,99.0
254.39,116.0
254.46,87.0
254.52,93.0
254.58,98.0
254.65,84.0
254.71,65.0
254.77,83.0
254.83,96.0
254.9,90.0
254.96,66.0
255.02,66.0
255.09,78.0
255.15,50.0
255.21,60.0
255.28,74.0
255.34,74.0
255.4,62.0
255.46,61.0
255.53,44.0
255.59,51.0
255.65,41.0
255.72,46.0
255.78,49.0
255.84,30.0
255.91,44.0
255.97,41.0
256.03,41.0
256.09,31.0
256.16,26.0
256.22,46.0
256.28,28.0
256.35,21.0
256.41,26.0
256.47,28.0
256.54,35.0
256.6,38.0
256.66,42.0
256.72,29.0
256.79,24.0
256.85,10.0
256.91,-6.0
256.98,-8.0
257.04,-7.0
257.1,-2.0
257.17,3.0
257.23,-10.0
257.29,4.0
257.35,-1.0
257.42,17.0
257.48,36.0
257.54,4.0
257.61,-1.0
257.67,1.0
257.73,12.0
257.8,20.0
257.86,0.0
257.92,3.0
257.98,15.0
258.05,6.0
258.11,26.0
258.17,29.0
258.24,45.0
258.3,17.0
258.36,18.0
258.43,11.0
258.49,12.0
258.55,9.0
258.61,17.0
258.68,21.0
258.74,19.0
258.8,16.0
258.87,31.0
258.93,7.0
258.99,-2.0
259.06,-16.0
259.12,-5.0
259.18,20.0
259.24,17.0
259.31,18.0
259.37,13.0
259.43,8.0
259.5,15.0
259.56,29.0
259.62,21.0
259.69,38.0
259.75,29.0
259.81,27.0
259.87,39.0
259.94,37.0
260.0,51.0
260.06,39.0
260.13,49.0
260.19,60.0
260.25,43.0
260.32,45.0
260.38,32.0
260.44,30.0
260.5,33.0
260.57,27.0
260.63,11.0
260.69,23.0
260.76,15.0
260.82,16.0
260.88,27.0
260.95,12.0
261.01,23.0
261.07,7.0
261.13,27.0
261.2,23.0
261.26,4.0
261.32,21.0
261.39,27.0
261.45,7.0
261.51,26.0
261.58,27.0
261.64,14.0
261.7,26.0
261.76,29.0
261.83,21.0
261.89,35.0
261.95,41.0
262.02,46.0
262.08,39.0
262.14,25.0
262.21,42.0
262.27,45.0
262.33,29.0
262.39,47.0
262.46,44.0
262.52,28.0
262.58,27.0
262.65,24.0
262.71,21.0
262.77,44.0
262.84,21.0
262.9,21.0
262.96,18.0
263.02,18.0
263.09,46.0
263.15,41.0
263.21,54.0
263.28,57.0
263.34,58.0
263.4,48.0
263.47,26.0
263.53,26.0
263.59,38.0
263.65,53.0
263.72,46.0
263.78,34.0
263.84,29.0
263.91,29.0
263.97,18.0
264.03,44.0
264.1,40.0
264.16,39.0
264.22,57.0
264.28,52.0
264.35,48.0
264.41,55.0
264.47,45.0
264.54,45.0
264.6,54.0
264.66,48.0
264.73,66.0
264.79,77.0
264.85,83.0
264.91,87.0
264.98,77.0
265.04,100.0
265.1,99.0
265.17,84.0
265.23,95.0
265.29,95.0
265.36,81.0
265.42,89.0
265.48,120.0
265.54,123.0
265.61,99.0
265.67,87.0
265.73,112.0
265.8,120.0
265.86,120.0
265.92,121.0
265.99,143.0
266.05,132.0
266.11,107.0
266.17,117.0
266.24,115.0
266.3,112.0
266.36,109.0
266.43,82.0
266.49,87.0
266.55,77.0
266.62,73.0
266.68,88.0
266.74,90.0
266.8,101.0
266.87,112.0
266.93,103.0
266.99,108.0
267.06,117.0
267.12,97.0
267.18,121.0
267.25,104.0
267.31,112.0
267.37,126.0
267.43,118.0
267.5,121.0
267.56,106.0
267.62,129.0
267.69,119.0
267.75,123.0
267.81,134.0
267.88,132.0
267.94,135.0
268.0,135.0
268.06,151.0
268.13,156.0
268.19,159.0
268.25,153.0
268.32,172.0
268.38,161.0
268.44,188.0
268.51,178.0
268.57,171.0
268.63,174.0
268.69,167.0
268.76,190.0
268.82,181.0
268.88,172.0
268.95,169.0
269.01,184.0
269.07,176.0
269.14,183.0
269.2,177.0
269.26,184.0
269.32,184.0
269.39,178.0
269.45,165.0
269.51,165.0
269.58,179.0
269.64,185.0
269.7,172.0
269.77,202.0
269.83,187.0
269.89,194.0
269.95,180.0
270.02,142.0
270.08,169.0
270.14,168.0
270.21,161.0
270.27,162.0
270.33,165.0
270.4,173.0
270.46,163.0
270.52,148.0
270.58,165.0
270.65,187.0
270.71,176.0
270.77,187.0
270.84,184.0
270.9,191.0
270.96,173.0
271.03,177.0
271.09,181.0
271.15,192.0
271.21,162.0
271.28,177.0
271.34,161.0
271.4,143.0
271.47,141.0
271.53,127.0
271.59,119.0
271.66,105.0
271.72,113.0
271.78,128.0
271.84,116.0
271.91,120.0
271.97,120.0
272.03,117.0
272.1,100.0
272.16,106.0
272.22,90.0
272.29,79.0
272.35,84.0
272.41,79.0
272.47,84.0
272.54,69.0
272.6,62.0
272.66,61.0
272.73,70.0
272.79,76.0
272.85,60.0
272.92,65.0
272.98,52.0
273.04,47.0
273.1,39.0
273.17,44.0
273.23,47.0
273.29,34.0
273.36,32.0
273.42,34.0
273.48,1.0
273.55,18.0
273.61,29.0
273.67,1.0
273.73,34.0
273.8,30.0
273.86,19.0
273.92,32.0
273.99,24.0
274.05,1.0
274.11,24.0
274.18,21.0
274.24,9.0
274.3,21.0
274.36,25.0
274.43,18.0
274.49,25.0
274.55,18.0
274.62,22.0
274.68,34.0
274.74,22.0
274.81,35.0
274.87,32.0
274.93,9.0
274.99,13.0
275.06,31.0
275.12,17.0
275.18,33.0
275.25,7.0
275.31,0.0
275.37,17.0
275.44,24.0
275.5,5.0
275.56,2.0
275.62,21.0
275.69,5.0
275.75,2.0
275.81,24.0
275.88,25.0
275.94,25.0
276.0,14.0
276.07,14.0
276.13,24.0
276.19,25.0
276.25,19.0
276.32,36.0
276.38,22.0
276.44,23.0
276.51,36.0
276.57,35.0
276.63,44.0
276.7,64.0
276.76,75.0
276.82,44.0
276.88,27.0
276.95,37.0
277.01,33.0
277.07,42.0
277.14,51.0
277.2,38.0
277.26,44.0
277.33,33.0
277.39,46.0
277.45,40.0
277.51,30.0
277.58,37.0
277.64,50.0
277.7,44.0
277.77,53.0
277.83,40.0
277.89,22.0
277.96,16.0
278.02,33.0
278.08,19.0
278.14,1.0
278.21,14.0
278.27,11.0
278.33,16.0
278.4,26.0
278.46,30.0
278.52,35.0
278.59,38.0
278.65,37.0
278.71,37.0
278.77,43.0
278.84,49.0
278.9,43.0
278.96,40.0
279.03,21.0
279.09,21.0
279.15,20.0
279.22,22.0
279.28,22.0
279.34,33.0
279.4,13.0
279.47,8.0
279.53,24.0
279.59,35.0
279.66,25.0
279.72,26.0
279.78,36.0
279.85,44.0
279.91,46.0
279.97,38.0
280.03,38.0
280.1,40.0
280.16,33.0
280.22,50.0
280.29,25.0
280.35,25.0
280.41,38.0
280.48,44.0
280.54,44.0
280.6,30.0
280.66,51.0
280.73,49.0
280.79,45.0
280.85,51.0
280.92,36.0
280.98,65.0
281.04,66.0
281.11,56.0
281.17,45.0
281.23,48.0
281.29,57.0
281.36,63.0
281.42,68.0
281.48,66.0
281.55,68.0
281.61,67.0
281.67,50.0
281.74,67.0
281.8,65.0
281.86,70.0
281.92,49.0
281.99,70.0
282.05,55.0
282.11,59.0
282.18,62.0
282.24,51.0
282.3,45.0
282.37,50.0
282.43,70.0
282.49,65.0
282.55,55.0
282.62,54.0
282.68,62.0
282.74,54.0
282.81,65.0
282.87,73.0
282.93,44.0
283.0,60.0
283.06,84.0
283.12,84.0
283.18,73.0
283.25,57.0
283.31,65.0
283.37,58.0
283.44,63.0
283.5,59.0
283.56,40.0
283.63,40.0
283.69,44.0
283.75,40.0
283.81,65.0
283.88,44.0
283.94,54.0
284.0,36.0
284.07,49.0
284.13,44.0
284.19,44.0
284.26,39.0
284.32,44.0
284.38,57.0
284.44,57.0
284.51,45.0
284.57,61.0
284.63,56.0
284.7,66.0
284.76,69.0
284.82,70.0
284.89,77.0
284.95,49.0
285.01,61.0
285.07,51.0
285.14,65.0
285.2,82.0
285.26,60.0
285.33,77.0
285.39,80.0
285.45,102.0
285.52,82.0
285.58,81.0
285.64,77.0
285.7,72.0
285.77,103.0
285.83,91.0
285.89,84.0
285.96,91.0
286.02,86.0
286.08,84.0
286.15,93.0
286.21,71.0
286.27,77.0
286.33,91.0
286.4,82.0
286.46,100.0
286.52,84.0
286.59,79.0
286.65,76.0
286.71,92.0
286.78,110.0
286.84,106.0
286.9,112.0
286.96,102.0
287.03,98.0
287.09,103.0
287.15,104.0
287.22,94.0
287.28,107.0
287.34,109.0
287.41,97.0
287.47,94.0
287.53,113.0
287.59,98.0
287.66,88.0
287.72,107.0
287.78,93.0
287.85,91.0
287.91,97.0
287.97,79.0
288.04,95.0
288.1,94.0
288.16,88.0
288.22,82.0
288.29,72.0
288.35,75.0
288.41,84.0
288.48,62.0
288.54,62.0
288.6,82.0
288.67,66.0
288.73,59.0
288.79,52.0
288.85,44.0
288.92,68.0
288.98,37.0
289.04,66.0
289.11,64.0
289.17,31.0
289.23,55.0
289.3,48.0
289.36,49.0
289.42,28.0
289.48,35.0
289.55,46.0
289.61,39.0
289.67,46.0
289.74,62.0
289.8,60.0
289.86,51.0
289.93,42.0
289.99,47.0
290.05,62.0
290.11,46.0
290.18,50.0
290.24,34.0
290.3,43.0
290.37,52.0
290.43,62.0
290.49,57.0
290.56,59.0
290.62,60.0
290.68,42.0
290.74,31.0
290.81,65.0
290.87,64.0
290.93,71.0
291.0,54.0
291.06,62.0
291.12,59.0
291.19,52.0
291.25,66.0
291.31,62.0
291.37,70.0
291.44,48.0
291.5,70.0
291.56,98.0
291.63,76.0
291.69,99.0
291.75,104.0
291.82,100.0
291.88,103.0
291.94,90.0
292.0,95.0
292.07,107.0
292.13,92.0
292.19,84.0
292.26,88.0
292.32,90.0
292.38,81.0
292.45,98.0
292.51,86.0
292.57,87.0
292.63,77.0
292.7,103.0
292.76,102.0
292.82,106.0
292.89,122.0
292.95,115.0
293.01,128.0
293.08,120.0
293.14,107.0
293.2,136.0
293.26,142.0
293.33,137.0
293.39,127.0
293.45,115.0
293.52,116.0
293.58,99.0
293.64,85.0
293.71,85.0
293.77,97.0
293.83,82.0
293.89,77.0
293.96,93.0
294.02,94.0
294.08,99.0
294.15,102.0
294.21,102.0
294.27,106.0
294.34,116.0
294.4,98.0
294.46,118.0
294.52,125.0
294.59,123.0
294.65,97.0
294.71,113.0
294.78,134.0
294.84,135.0
294.9,124.0
294.97,106.0
295.03,113.0
295.09,122.0
295.15,129.0
295.22,119.0
295.28,124.0
295.34,150.0
295.41,128.0
295.47,130.0
295.53,132.0
295.6,144.0
295.66,130.0
295.72,145.0
295.78,147.0
295.85,148.0
295.91,143.0
295.97,152.0
296.04,137.0
296.1,126.0
296.16,128.0
296.23,132.0
296.29,125.0
296.35,127.0
296.41,125.0
296.48,124.0
296.54,118.0
296.6,103.0
296.67,109.0
296.73,108.0
296.79,114.0
296.86,122.0
296.92,107.0
296.98,117.0
297.04,134.0
297.11,132.0
297.17,124.0
297.23,120.0
297.3,108.0
297.36,99.0
297.42,92.0
297.49,80.0
297.55,98.0
297.61,108.0
297.67,98.0
297.74,102.0
297.8,103.0
297.86,103.0
297.93,94.0
297.99,97.0
298.05,88.0
298.12,89.0
298.18,84.0
298.24,82.0
298.3,120.0
298.37,99.0
298.43,88.0
298.49,110.0
298.56,103.0
298.62,109.0
298.68,127.0
298.75,115.0
298.81,110.0
298.87,122.0
298.93,118.0
299.0,118.0
299.06,109.0
299.12,120.0
299.19,116.0
299.25,108.0
299.31,110.0
299.38,124.0
299.44,99.0
299.5,102.0
299.56,120.0
299.63,107.0
299.69,105.0
299.75,105.0
299.82,108.0
299.88,103.0
299.94,87.0
300.01,87.0
300.07,76.0
300.13,87.0
300.19,103.0
300.26,110.0
300.32,112.0
300.38,77.0
300.45,91.0
300.51,108.0
300.57,88.0
300.64,107.0
300.7,94.0
300.76,82.0
300.82,104.0
300.89,112.0
300.95,104.0
301.01,110.0
301.08,83.0
301.14,86.0
301.2,100.0
301.27,97.0
301.33,118.0
301.39,119.0
301.45,99.0
301.52,94.0
301.58,106.0
301.64,105.0
301.71,89.0
301.77,93.0
301.83,111.0
301.9,111.0
301.96,129.0
302.02,126.0
302.08,101.0
302.15,106.0
302.21,123.0
302.27,110.0
302.34,119.0
302.4,121.0
302.46,126.0
302.53,150.0
302.59,156.0
302.65,132.0
302.71,147.0
302.78,149.0
302.84,137.0
302.9,132.0
302.97,148.0
303.03,153.0
303.09,170.0
303.16,149.0
303.22,143.0
303.28,152.0
303.34,131.0
303.41,125.0
303.47,120.0
303.53,121.0
303.6,116.0
303.66,110.0
303.72,111.0
303.79,130.0
303.85,132.0
303.91,121.0
303.97,114.0
304.04,123.0
304.1,130.0
304.16,117.0
304.23,129.0
304.29,97.0
304.35,110.0
304.42,111.0
304.48,112.0
304.54,112.0
304.6,103.0
304.67,121.0
304.73,124.0
304.79,119.0
304.86,106.0
304.92,106.0
304.98,95.0
305.05,81.0
305.11,99.0
305.17,90.0
305.23,85.0
305.3,77.0
305.36,79.0
305.42,73.0
305.49,83.0
305.55,88.0
305.61,87.0
305.68,96.0
305.74,83.0
305.8,92.0
305.86,120.0
305.93,117.0
305.99,114.0
306.05,126.0
306.12,107.0
306.18,102.0
306.24,109.0
306.31,109.0
306.37,116.0
306.43,95.0
306.49,109.0
306.56,99.0
306.62,110.0
306.68,103.0
306.75,116.0
306.81,110.0
306.87,106.0
306.94,92.0
307.0,95.0
307.06,88.0
307.12,66.0
307.19,82.0
307.25,59.0
307.31,72.0
307.38,63.0
307.44,53.0
307.5,60.0
307.57,47.0
307.63,37.0
307.69,26.0
307.75,38.0
307.82,33.0
307.88,40.0
307.94,40.0
308.01,65.0
308.07,34.0
308.13,13.0
308.2,19.0
308.26,40.0
308.32,42.0
308.38,65.0
308.45,66.0
308.51,44.0
308.57,36.0
308.64,47.0
308.7,54.0
308.76,37.0
308.83,50.0
308.89,31.0
308.95,33.0
309.01,30.0
309.08,31.0
309.14,14.0
309.2,37.0
309.27,19.0
309.33,27.0
309.39,27.0
309.46,24.0
309.52,39.0
309.58,33.0
309.64,39.0
309.71,45.0
309.77,28.0
309.83,35.0
309.9,45.0
309.96,24.0
310.02,13.0
310.09,21.0
310.15,33.0
310.21,4.0
310.27,7.0
310.34,-7.0
310.4,3.0
310.46,6.0
310.53,7.0
310.59,14.0
310.65,27.0
310.72,37.0
310.78,44.0
310.84,29.0
310.9,23.0
310.97,43.0
311.03,46.0
311.09,51.0
311.16,29.0
311.22,36.0
311.28,49.0
311.35,53.0
311.41,44.0
311.47,44.0
311.53,62.0
311.6,49.0
311.66,50.0
311.72,32.0
311.79,30.0
311.85,29.0
311.91,37.0
311.98,32.0
312.04,47.0
312.1,47.0
312.16,43.0
312.23,57.0
312.29,33.0
312.35,46.0
312.42,39.0
312.48,43.0
312.54,43.0
312.61,34.0
312.67,37.0
312.73,30.0
312.79,33.0
312.86,32.0
312.92,21.0
312.98,50.0
313.05,49.0
313.11,48.0
313.17,39.0
313.24,64.0
313.3,54.0
313.36,58.0
313.42,40.0
313.49,40.0
313.55,45.0
313.61,54.0
313.68,51.0
313.74,33.0
313.8,29.0
313.87,34.0
313.93,5.0
313.99,3.0
314.05,15.0
314.12,21.0
314.18,6.0
314.24,19.0
314.31,1.0
314.37,10.0
314.43,-5.0
314.5,18.0
314.56,19.0
314.62,22.0
314.68,35.0
314.75,16.0
314.81,26.0
314.87,21.0
314.94,17.0
315.0,17.0
315.06,20.0
315.13,14.0
315.19,-27.0
315.25,-19.0
315.31,-13.0
315.38,-10.0
315.44,-4.0
315.5,10.0
315.57,9.0
315.63,18.0
315.69,28.0
315.76,21.0
315.82,13.0
315.88,7.0
315.94,9.0
316.01,5.0
316.07,-2.0
316.13,5.0
316.2,9.0
316.26,19.0
316.32,23.0
316.39,12.0
316.45,44.0
316.51,34.0
316.57,10.0
316.64,33.0
316.7,13.0
316.76,16.0
316.83,20.0
316.89,33.0
316.95,29.0
317.02,31.0
317.08,37.0
317.14,46.0
317.2,36.0
317.27,37.0
317.33,48.0
317.39,27.0
317.46,28.0
317.52,24.0
317.58,24.0
317.65,26.0
317.71,32.0
317.77,27.0
317.83,42.0
317.9,18.0
317.96,27.0
318.02,57.0
318.09,41.0
318.15,47.0
318.21,59.0
318.28,52.0
318.34,48.0
318.4,56.0
318.46,44.0
318.53,53.0
318.59,57.0
318.65,60.0
318.72,52.0
318.78,67.0
318.84,57.0
318.91,61.0
318.97,50.0
319.03,63.0
319.09,55.0
319.16,61.0
319.22,69.0
319.28,74.0
319.35,79.0
319.41,82.0
319.47,96.0
319.54,100.0
319.6,112.0
319.66,140.0
319.72,120.0
319.79,121.0
319.85,112.0
319.91,103.0
319.98,114.0
320.04,125.0
320.1,129.0
320.17,101.0
320.23,138.0
320.29,118.0
320.35,120.0
320.42,117.0
320.48,106.0
320.54,108.0
320.61,120.0
320.67,141.0
320.73,144.0
320.8,164.0
320.86,176.0
320.92,154.0
320.98,176.0
321.05,167.0
321.11,166.0
321.17,149.0
321.24,151.0
321.3,166.0
321.36,163.0
321.43,159.0
321.49,143.0
321.55,136.0
321.61,155.0
321.68,160.0
321.74,148.0
321.8,148.0
321.87,140.0
321.93,152.0
321.99,147.0
322.06,149.0
322.12,152.0
322.18,160.0
322.24,156.0
322.31,144.0
322.37,144.0
322.43,159.0
322.5,153.0
322.56,140.0
322.62,130.0
322.69,134.0
322.75,128.0
322.81,116.0
322.87,91.0
322.94,90.0
323.0,107.0
323.06,105.0
323.13,100.0
323.19,106.0
323.25,97.0
323.32,106.0
323.38,85.0
323.44,87.0
323.5,110.0
323.57,93.0
323.63,86.0
323.69,96.0
323.76,86.0
323.82,106.0
323.88,95.0
323.95,86.0
324.01,88.0
324.07,90.0
324.13,86.0
324.2,81.0
324.26,80.0
324.32,56.0
324.39,73.0
324.45,72.0
324.51,67.0
324.58,68.0
324.64,85.0
324.7,72.0
324.76,86.0
324.83,94.0
324.89,78.0
324.95,81.0
325.02,84.0
325.08,70.0
325.14,42.0
325.21,60.0
325.27,51.0
325.33,33.0
325.39,45.0
325.46,35.0
325.52,49.0
325.58,45.0
325.65,31.0
325.71,31.0
325.77,45.0
325.84,45.0
325.9,53.0
325.96,37.0
326.02,42.0
326.09,30.0
326.15,31.0
326.21,47.0
326.28,64.0
326.34,50.0
326.4,42.0
326.47,28.0
326.53,30.0
326.59,39.0
326.65,43.0
326.72,34.0
326.78,44.0
326.84,39.0
326.91,51.0
326.97,52.0
327.03,48.0
327.1,39.0
327.16,41.0
327.22,47.0
327.28,38.0
327.35,45.0
327.41,26.0
327.47,27.0
327.54,34.0
327.6,42.0
327.66,43.0
327.73,29.0
327.79,28.0
327.85,13.0
327.91,17.0
327.98,27.0
328.04,28.0
328.1,34.0
328.17,28.0
328.23,29.0
328.29,36.0
328.36,28.0
328.42,49.0
328.48,35.0
328.54,39.0
328.61,53.0
328.67,35.0
328.73,40.0
328.8,40.0
328.86,40.0
328.92,38.0
328.99,40.0
329.05,32.0
329.11,35.0
329.17,46.0
329.24,50.0
329.3,53.0
329.36,52.0
329.43,53.0
329.49,54.0
329.55,54.0
329.62,47.0
329.68,72.0
329.74,55.0
329.8,57.0
329.87,57.0
329.93,53.0
329.99,65.0
330.06,59.0
330.12,54.0
330.18,53.0
330.25,48.0
330.31,44.0
330.37,46.0
330.43,31.0
330.5,33.0
330.56,51.0
330.62,43.0
330.69,39.0
330.75,32.0
330.81,21.0
330.88,27.0
330.94,10.0
331.0,9.0
331.06,13.0
331.13,31.0
331.19,21.0
331.25,32.0
331.32,39.0
331.38,32.0
331.44,48.0
331.51,44.0
331.57,53.0
331.63,39.0
331.69,25.0
331.76,32.0
331.82,24.0
331.88,31.0
331.95,32.0
332.01,35.0
332.07,38.0
332.14,27.0
332.2,51.0
332.26,43.0
332.32,49.0
332.39,63.0
332.45,50.0
332.51,49.0
332.58,45.0
332.64,40.0
332.7,65.0
332.77,59.0
332.83,37.0
332.89,38.0
332.95,56.0
333.02,42.0
333.08,39.0
333.14,39.0
333.21,41.0
333.27,42.0
333.33,22.0
333.4,32.0
333.46,23.0
333.52,42.0
333.58,31.0
333.65,15.0
333.71,2.0
333.77,25.0
333.84,8.0
333.9,20.0
333.96,13.0
334.03,28.0
334.09,32.0
334.15,15.0
334.21,19.0
334.28,21.0
334.34,20.0
334.4,33.0
334.47,35.0
334.53,12.0
334.59,11.0
334.66,16.0
334.72,22.0
334.78,18.0
334.84,20.0
334.91,37.0
334.97,35.0
335.03,30.0
335.1,29.0
335.16,31.0
335.22,43.0
335.29,65.0
335.35,50.0
335.41,74.0
335.47,72.0
335.54,56.0
335.6,56.0
335.66,64.0
335.73,50.0
335.79,50.0
335.85,65.0
335.92,54.0
335.98,71.0
336.04,81.0
336.1,85.0
336.17,104.0
336.23,93.0
336.29,81.0
336.36,92.0
336.42,89.0
336.48,95.0
336.55,85.0
336.61,83.0
336.67,84.0
336.73,82.0
336.8,81.0
336.86,110.0
336.92,107.0
336.99,106.0
337.05,120.0
337.11,123.0
337.18,118.0
337.24,105.0
337.3,111.0
337.36,106.0
337.43,113.0
337.49,126.0
337.55,109.0
337.62,118.0
337.68,134.0
337.74,117.0
337.81,132.0
337.87,133.0
337.93,124.0
337.99,116.0
338.06,133.0
338.12,110.0
338.18,119.0
338.25,118.0
338.31,112.0
338.37,100.0
338.44,116.0
338.5,110.0
338.56,118.0
338.62,106.0
338.69,109.0
338.75,123.0
338.81,109.0
338.88,103.0
338.94,123.0
339.0,130.0
339.07,125.0
339.13,129.0
339.19,148.0
339.25,155.0
339.32,124.0
339.38,119.0
339.44,110.0
339.51,127.0
339.57,102.0
339.63,91.0
339.7,71.0
339.76,81.0
339.82,87.0
339.88,83.0
339.95,64.0
340.01,78.0
340.07,57.0
340.14,60.0
340.2,70.0
340.26,67.0
340.33,73.0
340.39,95.0
340.45,74.0
340.51,76.0
340.58,72.0
340.64,88.0
340.7,108.0
340.77,89.0
340.83,79.0
340.89,64.0
340.96,70.0
341.02,77.0
341.08,72.0
341.14,76.0
341.21,73.0
341.27,68.0
341.33,45.0
341.4,60.0
341.46,66.0
341.52,55.0
341.59,51.0
341.65,65.0
341.71,81.0
341.77,83.0
341.84,73.0
341.9,94.0
341.96,81.0
342.03,92.0
342.09,81.0
342.15,67.0
342.22,80.0
342.28,71.0
342.34,71.0
342.4,72.0
342.47,74.0
342.53,76.0
342.59,83.0
342.66,100.0
342.72,83.0
342.78,85.0
342.85,87.0
342.91,97.0
342.97,84.0
343.03,84.0
343.1,76.0
343.16,86.0
343.22,100.0
343.29,79.0
343.35,76.0
343.41,76.0
343.48,88.0
343.54,70.0
343.6,86.0
343.66,86.0
343.73,95.0
343.79,84.0
343.85,70.0
343.92,100.0
343.98,77.0
344.04,83.0
344.11,71.0
344.17,78.0
344.23,62.0
344.29,67.0
344.36,42.0
344.42,44.0
344.48,60.0
344.55,62.0
344.61,54.0
344.67,64.0
344.74,70.0
344.8,54.0
344.86,38.0
344.92,42.0
344.99,40.0
345.05,60.0
345.11,43.0
345.18,54.0
345.24,52.0
345.3,53.0
345.37,54.0
345.43,53.0
345.49,55.0
345.55,54.0
345.62,79.0
345.68,84.0
345.74,75.0
345.81,75.0
345.87,84.0
345.93,77.0
346.0,62.0
346.06,87.0
346.12,79.0
346.18,95.0
346.25,84.0
346.31,93.0
346.37,86.0
346.44,101.0
346.5,109.0
346.56,96.0
346.63,88.0
346.69,83.0
346.75,84.0
346.81,77.0
346.88,90.0
346.94,82.0
347.0,104.0
347.07,97.0
347.13,98.0
347.19,115.0
347.26,117.0
347.32,123.0
347.38,131.0
347.44,119.0
347.51,118.0
347.57,121.0
347.63,123.0
347.7,128.0
347.76,133.0
347.82,99.0
347.89,107.0
347.95,122.0
348.01,116.0
348.07,142.0
348.14,142.0
348.2,116.0
348.26,143.0
348.33,153.0
348.39,150.0
348.45,156.0
348.52,131.0
348.58,145.0
348.64,150.0
348.7,161.0
348.77,164.0
348.83,161.0
348.89,160.0
348.96,146.0
349.02,153.0
349.08,131.0
349.15,114.0
349.21,135.0
349.27,152.0
349.33,137.0
349.4,122.0
349.46,123.0
349.52,122.0
349.59,128.0
349.65,126.0
349.71,126.0
349.78,123.0
349.84,121.0
349.9,117.0
349.96,89.0
350.03,99.0
350.09,89.0
350.15,68.0
350.22,82.0
350.28,93.0
350.34,78.0
350.41,78.0
350.47,93.0
350.53,82.0
350.59,98.0
350.66,93.0
350.72,93.0
350.78,105.0
350.85,96.0
350.91,100.0
350.97,108.0
351.04,100.0
351.1,83.0
351.16,80.0
351.22,94.0
351.29,82.0
351.35,78.0
351.41,87.0
351.48,95.0
351.54,105.0
351.6,92.0
351.67,95.0
351.73,107.0
351.79,104.0
351.85,101.0
351.92,86.0
351.98,98.0
352.04,101.0
352.11,118.0
352.17,110.0
352.23,122.0
352.3,129.0
352.36,138.0
352.42,129.0
352.48,128.0
352.55,144.0
352.61,142.0
352.67,153.0
352.74,133.0
352.8,130.0
352.86,153.0
352.93,152.0
352.99,147.0
353.05,148.0
353.11,140.0
353.18,148.0
353.24,148.0
353.3,144.0
353.37,137.0
353.43,110.0
353.49,114.0
353.56,114.0
353.62,120.0
353.68,112.0
353.74,105.0
353.81,136.0
353.87,122.0
353.93,117.0
354.0,119.0
354.06,92.0
354.12,116.0
354.19,114.0
354.25,123.0
354.31,128.0
354.37,110.0
354.44,127.0
354.5,112.0
354.56,112.0
354.63,132.0
354.69,114.0
354.75,126.0
354.82,122.0
354.88,117.0
354.94,145.0
355.0,144.0
355.07,128.0
355.13,121.0
355.19,115.0
355.26,117.0
355.32,131.0
355.38,128.0
355.45,125.0
355.51,123.0
355.57,95.0
355.63,95.0
355.7,114.0
355.76,108.0
355.82,99.0
355.89,91.0
355.95,110.0
356.01,109.0
356.08,106.0
356.14,107.0
356.2,91.0
356.26,112.0
356.33,95.0
356.39,86.0
356.45,90.0
356.52,79.0
356.58,77.0
356.64,74.0
356.71,84.0
356.77,56.0
356.83,51.0
356.89,48.0
356.96,26.0
357.02,20.0
357.08,25.0
357.15,46.0
357.21,42.0
357.27,49.0
357.34,38.0
357.4,32.0
357.46,40.0
357.52,53.0
357.59,21.0
357.65,21.0
357.71,34.0
357.78,30.0
357.84,48.0
357.9,46.0
357.97,40.0
358.03,71.0
358.09,68.0
358.15,51.0
358.22,43.0
358.28,68.0
358.34,71.0
358.41,56.0
358.47,74.0
358.53,75.0
358.6,90.0
358.66,97.0
358.72,85.0
358.78,98.0
358.85,65.0
358.91,80.0
358.97,71.0
359.04,68.0
359.1,75.0
359.16,49.0
359.23,62.0
359.29,71.0
359.35,56.0
359.41,51.0
359.48,65.0
359.54,50.0
359.6,65.0
359.67,70.0
359.73,72.0
359.79,57.0
359.86,42.0
359.92,52.0
359.98,40.0
360.04,70.0
360.11,56.0
360.17,44.0
360.23,53.0
360.3,51.0
360.36,62.0
360.42,62.0
360.49,61.0
360.55,48.0
360.61,56.0
360.67,54.0
360.74,66.0
360.8,67.0
360.86,52.0
360.93,69.0
360.99,58.0
361.05,54.0
361.12,42.0
361.18,56.0
361.24,61.0
361.3,54.0
361.37,60.0
361.43,61.0
361.49,46.0
361.56,45.0
361.62,26.0
361.68,26.0
361.75,10.0
361.81,27.0
361.87,46.0
361.93,53.0
362.0,42.0
362.06,40.0
362.12,55.0
362.19,50.0
362.25,57.0
362.31,53.0
362.38,67.0
362.44,57.0
362.5,41.0
362.56,42.0
362.63,70.0
362.69,64.0
362.75,59.0
362.82,63.0
362.88,57.0
362.94,64.0
363.01,56.0
363.07,57.0
363.13,40.0
363.19,34.0
363.26,44.0
363.32,51.0
363.38,26.0
363.45,32.0
363.51,51.0
363.57,43.0
363.64,53.0
363.7,37.0
363.76,31.0
363.82,48.0
363.89,40.0
363.95,59.0
364.01,53.0
364.08,37.0
364.14,29.0
364.2,49.0
364.27,50.0
364.33,48.0
364.39,29.0
364.45,24.0
364.52,38.0
364.58,32.0
364.64,16.0
364.71,27.0
364.77,28.0
364.83,28.0
364.9,21.0
364.96,40.0
365.02,35.0
365.08,21.0
365.15,20.0
365.21,16.0
365.27,36.0
365.34,29.0
365.4,17.0
365.46,18.0
365.53,28.0
365.59,40.0
365.65,34.0
365.71,53.0
365.78,49.0
365.84,59.0
365.9,43.0
365.97,52.0
366.03,82.0
366.09,73.0
366.16,64.0
366.22,70.0
366.28,76.0
366.34,83.0
366.41,69.0
366.47,65.0
366.53,64.0
366.6,51.0
366.66,51.0
366.72,34.0
366.79,64.0
366.85,54.0
366.91,27.0
366.97,36.0
367.04,42.0
367.1,40.0
367.16,44.0
367.23,10.0
367.29,12.0
367.35,23.0
367.42,13.0
367.48,12.0
367.54,26.0
367.6,30.0
367.67,12.0
367.73,-7.0
367.79,-7.0
367.86,13.0
367.92,-19.0
367.98,-20.0
368.05,-22.0
368.11,-8.0
368.17,5.0
368.23,-25.0
368.3,-14.0
368.36,13.0
368.42,7.0
368.49,34.0
368.55,8.0
368.61,29.0
368.68,33.0
368.74,32.0
368.8,22.0
368.86,24.0
368.93,16.0
368.99,48.0
369.05,28.0
369.12,32.0
369.18,36.0
369.24,42.0
369.31,42.0
369.37,51.0
369.43,72.0
369.49,58.0
369.56,66.0
369.62,83.0
369.68,82.0
369.75,94.0
369.81,76.0
369.87,71.0
369.94,84.0
370.0,56.0
370.06,56.0
370.12,77.0
370.19,91.0
370.25,66.0
370.31,89.0
370.38,103.0
370.44,82.0
370.5,77.0
370.57,78.0
370.63,77.0
370.69,61.0
370.75,71.0
370.82,76.0
370.88,75.0
370.94,75.0
371.01,92.0
371.07,81.0
371.13,101.0
371.2,131.0
371.26,114.0
371.32,103.0
371.38,110.0
371.45,103.0
371.51,114.0
371.57,83.0
371.64,88.0
371.7,102.0
371.76,100.0
371.83,105.0
371.89,106.0
371.95,113.0
372.01,128.0
372.08,114.0
372.14,113.0
372.2,121.0
372.27,116.0
372.33,124.0
372.39,124.0
372.46,106.0
372.52,129.0
372.58,130.0
372.64,129.0
372.71,125.0
372.77,124.0
372.83,129.0
372.9,121.0
372.96,123.0
373.02,135.0
373.09,146.0
373.15,152.0
373.21,154.0
373.27,143.0
373.34,156.0
373.4,142.0
373.46,148.0
373.53,162.0
373.59,159.0
373.65,137.0
373.72,146.0
373.78,157.0
373.84,143.0
373.9,156.0
373.97,151.0
374.03,158.0
374.09,141.0
374.16,171.0
374.22,155.0
374.28,151.0
374.35,150.0
374.41,153.0
374.47,143.0
374.53,158.0
374.6,159.0
374.66,174.0
374.72,174.0
374.79,189.0
374.85,175.0
374.91,165.0
374.98,169.0
375.04,170.0
375.1,168.0
375.16,169.0
375.23,156.0
375.29,147.0
375.35,148.0
375.42,151.0
375.48,137.0
375.54,149.0
375.61,136.0
375.67,136.0
375.73,145.0
375.79,136.0
375.86,150.0
375.92,150.0
375.98,141.0
376.05,135.0
376.11,115.0
376.17,136.0
376.24,129.0
376.3,144.0
376.36,160.0
376.42,162.0
376.49,178.0
376.55,165.0
376.61,145.0
376.68,150.0
376.74,136.0
376.8,148.0
376.87,154.0
376.93,130.0
376.99,123.0
377.05,108.0
377.12,113.0
377.18,99.0
377.24,114.0
377.31,114.0
377.37,118.0
377.43,98.0
377.5,114.0
377.56,115.0
377.62,101.0
377.68,84.0
377.75,92.0
377.81,90.0
377.87,91.0
377.94,110.0
378.0,100.0
378.06,99.0
378.13,99.0
378.19,106.0
378.25,85.0
378.31,113.0
378.38,111.0
378.44,119.0
378.5,113.0
378.57,105.0
378.63,87.0
378.69,88.0
378.76,103.0
378.82,103.0
378.88,107.0
378.94,104.0
379.01,93.0
379.07,95.0
379.13,88.0
379.2,73.0
379.26,77.0
379.32,57.0
379.39,64.0
379.45,84.0
379.51,78.0
379.57,75.0
379.64,69.0
379.7,73.0
379.76,70.0
379.83,72.0
379.89,89.0
379.95,92.0
380.02,101.0
380.08,108.0
380.14,104.0
380.2,92.0
380.27,96.0
380.33,98.0
380.39,96.0
380.46,111.0
380.52,113.0
380.58,100.0
380.65,103.0
380.71,84.0
380.77,81.0
380.83,75.0
380.9,70.0
380.96,78.0
381.02,66.0
381.09,75.0
381.15,41.0
381.21,61.0
381.28,63.0
381.34,50.0
381.4,51.0
381.46,72.0
381.53,66.0
381.59,48.0
381.65,51.0
381.72,46.0
381.78,40.0
381.84,64.0
381.91,63.0
381.97,50.0
382.03,49.0
382.09,59.0
382.16,59.0
382.22,58.0
382.28,66.0
382.35,65.0
382.41,66.0
382.47,66.0
382.54,62.0
382.6,72.0
382.66,66.0
382.72,70.0
382.79,70.0
382.85,68.0
382.91,61.0
382.98,56.0
383.04,59.0
383.1,43.0
383.17,63.0
383.23,53.0
383.29,62.0
383.35,59.0
383.42,43.0
383.48,41.0
383.54,26.0
383.61,33.0
383.67,33.0
383.73,35.0
383.8,20.0
383.86,25.0
383.92,11.0
383.98,9.0
384.05,19.0
384.11,10.0
384.17,13.0
384.24,24.0
384.3,13.0
384.36,29.0
384.43,31.0
384.49,14.0
384.55,28.0
384.61,41.0
384.68,44.0
384.74,49.0
384.8,30.0
384.87,52.0
384.93,34.0
384.99,39.0
385.06,61.0
385.12,45.0
385.18,47.0
385.24,42.0
385.31,16.0
385.37,34.0
385.43,74.0
385.5,57.0
385.56,67.0
385.62,68.0
385.69,76.0
385.75,86.0
385.81,84.0
385.87,93.0
385.94,69.0
386.0,69.0
386.06,80.0
386.13,77.0
386.19,59.0
386.25,70.0
386.32,70.0
386.38,76.0
386.44,72.0
386.5,79.0
386.57,85.0
386.63,79.0
386.69,74.0
386.76,74.0
386.82,87.0
386.88,83.0
386.95,90.0
387.01,82.0
387.07,80.0
387.13,95.0
387.2,92.0
387.26,100.0
387.32,99.0
387.39,103.0
387.45,106.0
387.51,105.0
387.58,99.0
387.64,107.0
387.7,97.0
387.76,118.0
387.83,142.0
387.89,133.0
387.95,114.0
388.02,119.0
388.08,116.0
388.14,116.0
388.21,126.0
388.27,139.0
388.33,131.0
388.39,130.0
388.46,124.0
388.52,126.0
388.58,115.0
388.65,131.0
388.71,128.0
388.77,125.0
388.84,132.0
388.9,121.0
388.96,118.0
389.02,135.0
389.09,131.0
389.15,126.0
389.21,110.0
389.28,115.0
389.34,124.0
389.4,135.0
389.47,153.0
389.53,126.0
389.59,144.0
389.65,124.0
389.72,139.0
389.78,130.0
389.84,134.0
389.91,130.0
389.97,121.0
390.03,113.0
390.1,105.0
390.16,115.0
390.22,101.0
390.28,102.0
390.35,127.0
390.41,118.0
390.47,110.0
390.54,131.0
390.6,118.0
390.66,128.0
390.73,117.0
390.79,119.0
390.85,139.0
390.91,135.0
390.98,112.0
391.04,98.0
391.1,112.0
391.17,127.0
391.23,138.0
391.29,130.0
391.36,133.0
391.42,136.0
391.48,140.0
391.54,119.0
391.61,119.0
391.67,121.0
391.73,116.0
391.8,133.0
391.86,124.0
391.92,144.0
391.99,121.0
392.05,103.0
392.11,124.0
392.17,115.0
392.24,126.0
392.3,121.0
392.36,133.0
392.43,135.0
392.49,126.0
392.55,140.0
392.62,140.0
392.68,123.0
392.74,122.0
392.8,122.0
392.87,117.0
392.93,113.0
392.99,92.0
393.06,102.0
393.12,110.0
393.18,113.0
393.25,96.0
393.31,103.0
393.37,102.0
393.43,92.0
393.5,85.0
393.56,100.0
393.62,107.0
393.69,106.0
393.75,68.0
393.81,64.0
393.88,71.0
393.94,53.0
394.0,67.0
394.06,49.0
394.13,44.0
394.19,56.0
394.25,45.0
394.32,43.0
394.38,56.0
394.44,47.0
394.51,51.0
394.57,20.0
394.63,44.0
394.69,34.0
394.76,33.0
394.82,47.0
394.88,39.0
394.95,39.0
395.01,39.0
395.07,76.0
395.14,50.0
395.2,32.0
395.26,55.0
395.32,53.0
395.39,55.0
395.45,32.0
395.51,22.0
395.58,9.0
395.64,16.0
395.7,12.0
395.77,26.0
395.83,51.0
395.89,13.0
395.95,24.0
396.02,19.0
396.08,25.0
396.14,33.0
396.21,24.0
396.27,30.0
396.33,40.0
396.4,39.0
396.46,21.0
396.52,20.0
396.58,31.0
396.65,37.0
396.71,36.0
396.77,62.0
396.84,48.0
396.9,48.0
396.96,55.0
397.03,47.0
397.09,67.0
397.15,50.0
397.21,52.0
397.28,59.0
397.34,66.0
397.4,51.0
397.47,57.0
397.53,49.0
397.59,46.0
397.66,66.0
397.72,44.0
397.78,37.0
397.84,39.0
397.91,46.0
397.97,59.0
398.03,63.0
398.1,44.0
398.16,65.0
398.22,53.0
398.29,49.0
398.35,40.0
398.41,49.0
398.47,37.0
398.54,71.0
398.6,36.0
398.66,51.0
398.73,66.0
398.79,69.0
398.85,78.0
398.92,71.0
398.98,92.0
399.04,95.0
399.1,81.0
399.17,78.0
399.23,86.0
399.29,96.0
399.36,105.0
399.42,93.0
399.48,89.0
399.55,108.0
399.61,99.0
399.67,102.0
399.73,92.0
399.8,83.0
399.86,91.0
399.92,97.0
399.99,100.0
400.05,100.0
400.11,110.0
400.18,94.0
400.24,85.0
400.3,85.0
400.36,69.0
400.43,85.0
400.49,85.0
400.55,82.0
400.62,67.0
400.68,78.0
400.74,77.0
400.81,68.0
400.87,69.0
400.93,70.0
400.99,68.0
401.06,46.0
401.12,61.0
401.18,56.0
401.25,69.0
401.31,41.0
401.37,72.0
401.44,58.0
401.5,59.0
401.56,83.0
401.62,71.0
401.69,66.0
401.75,72.0
401.81,74.0
401.88,75.0
401.94,86.0
402.0,70.0
402.07,79.0
402.13,77.0
402.19,62.0
402.25,76.0
402.32,71.0
402.38,83.0
402.44,75.0
402.51,48.0
402.57,75.0
402.63,73.0
402.7,65.0
402.76,70.0
402.82,68.0
402.88,57.0
402.95,70.0
403.01,57.0
403.07,57.0
403.14,65.0
403.2,68.0
403.26,92.0
403.33,85.0
403.39,96.0
403.45,81.0
403.51,87.0
403.58,102.0
403.64,91.0
403.7,95.0
403.77,84.0
403.83,109.0
403.89,100.0
403.96,92.0
404.02,87.0
404.08,103.0
404.14,108.0
404.21,109.0
404.27,110.0
404.33,88.0
404.4,107.0
404.46,120.0
404.52,125.0
404.59,117.0
404.65,108.0
404.71,89.0
404.77,97.0
404.84,81.0
404.9,80.0
404.96,117.0
405.03,121.0
405.09,107.0
405.15,106.0
405.22,114.0
405.28,123.0
405.34,95.0
405.4,97.0
405.47,107.0
405.53,98.0
405.59,97.0
405.66,94.0
405.72,89.0
405.78,96.0
405.85,101.0
405.91,122.0
405.97,127.0
406.03,117.0
406.1,106.0
406.16,101.0
406.22,107.0
406.29,110.0
406.35,100.0
406.41,103.0
406.48,99.0
406.54,95.0
406.6,105.0
406.66,95.0
406.73,111.0
406.79,125.0
406.85,116.0
406.92,88.0
406.98,76.0
407.04,86.0
407.11,93.0
407.17,101.0
407.23,94.0
407.29,95.0
407.36,110.0
407.42,100.0
407.48,94.0
407.55,95.0
407.61,97.0
407.67,99.0
407.74,105.0
407.8,99.0
407.86,81.0
407.92,88.0
407.99,95.0
408.05,115.0
408.11,91.0
408.18,106.0
408.24,92.0
408.3,117.0
408.37,103.0
408.43,83.0
408.49,102.0
408.55,80.0
408.62,92.0
408.68,112.0
408.74,100.0
408.81,94.0
408.87,60.0
408.93,63.0
409.0,64.0
409.06,80.0
409.12,90.0
409.18,89.0
409.25,95.0
409.31,89.0
409.37,63.0
409.44,64.0
409.5,59.0
409.56,87.0
409.63,68.0
409.69,66.0
409.75,76.0
409.81,59.0
409.88,75.0
409.94,54.0
410.0,61.0
410.07,64.0
410.13,56.0
410.19,48.0
410.26,54.0
410.32,64.0
410.38,55.0
410.44,56.0
410.51,55.0
410.57,59.0
410.63,65.0
410.7,50.0
410.76,70.0
410.82,51.0
410.89,44.0
410.95,42.0
411.01,71.0
411.07,66.0
411.14,43.0
411.2,44.0
411.26,14.0
411.33,26.0
411.39,30.0
411.45,21.0
411.52,21.0
411.58,-2.0
411.64,12.0
411.7,3.0
411.77,14.0
411.83,11.0
411.89,18.0
411.96,17.0
412.02,20.0
412.08,4.0
412.15,18.0
412.21,26.0
412.27,20.0
412.33,14.0
412.4,8.0
412.46,26.0
412.52,28.0
412.59,7.0
412.65,25.0
412.71,26.0
412.78,26.0
412.84,43.0
412.9,11.0
412.96,20.0
413.03,12.0
413.09,19.0
413.15,26.0
413.22,11.0
413.28,34.0
413.34,33.0
413.41,30.0
413.47,29.0
413.53,15.0
413.59,1.0
413.66,16.0
413.72,7.0
413.78,30.0
413.85,10.0
413.91,31.0
413.97,37.0
414.04,32.0
414.1,29.0
414.16,26.0
414.22,25.0
414.29,47.0
414.35,58.0
414.41,45.0
414.48,64.0
414.54,37.0
414.6,22.0
414.67,32.0
414.73,22.0
414.79,32.0
414.85,25.0
414.92,34.0
414.98,23.0
415.04,10.0
415.11,23.0
415.17,37.0
415.23,50.0
415.3,40.0
415.36,45.0
415.42,28.0
415.48,41.0
415.55,31.0
415.61,24.0
415.67,28.0
415.74,27.0
415.8,36.0
415.86,21.0
415.93,43.0
415.99,36.0
416.05,26.0
416.11,53.0
416.18,53.0
416.24,54.0
416.3,62.0
416.37,47.0
416.43,36.0
416.49,41.0
416.56,36.0
416.62,71.0
416.68,56.0
416.74,53.0
416.81,52.0
416.87,59.0
416.93,59.0
417.0,54.0
417.06,42.0
417.12,39.0
417.19,11.0
417.25,13.0
417.31,54.0
417.37,47.0
417.44,53.0
417.5,53.0
417.56,49.0
417.63,28.0
417.69,57.0
417.75,79.0
417.82,58.0
417.88,42.0
417.94,43.0
418.0,57.0
418.07,48.0
418.13,48.0
418.19,67.0
418.26,62.0
418.32,72.0
418.38,51.0
418.45,60.0
418.51,66.0
418.57,81.0
418.63,60.0
418.7,73.0
418.76,65.0
418.82,61.0
418.89,70.0
418.95,73.0
419.01,78.0
419.08,71.0
419.14,83.0
419.2,67.0
419.26,83.0
419.33,69.0
419.39,64.0
419.45,69.0
419.52,80.0
419.58,69.0
419.64,98.0
419.71,96.0
419.77,89.0
419.83,64.0
419.89,73.0
419.96,65.0
420.02,51.0
420.08,79.0
420.15,67.0
420.21,67.0
420.27,73.0
420.34,77.0
420.4,59.0
420.46,66.0
420.52,84.0
420.59,79.0
420.65,84.0
420.71,100.0
420.78,92.0
420.84,117.0
420.9,104.0
420.97,91.0
421.03,95.0
421.09,83.0
421.15,97.0
421.22,122.0
421.28,106.0
421.34,94.0
421.41,105.0
421.47,86.0
421.53,97.0
421.6,111.0
421.66,96.0
421.72,105.0
421.78,84.0
421.85,92.0
421.91,105.0
421.97,95.0
422.04,113.0
422.1,84.0
422.16,89.0
422.23,80.0
422.29,100.0
422.35,97.0
422.41,85.0
422.48,70.0
422.54,75.0
422.6,68.0
422.67,72.0
422.73,83.0
422.79,75.0
422.86,74.0
422.92,65.0
422.98,65.0
423.04,78.0
423.11,67.0
423.17,69.0
423.23,88.0
423.3,82.0
423.36,69.0
423.42,60.0
423.49,75.0
423.55,65.0
423.61,60.0
423.67,72.0
423.74,74.0
423.8,88.0
423.86,94.0
423.93,80.0
423.99,84.0
424.05,83.0
424.12,83.0
424.18,96.0
424.24,95.0
424.3,108.0
424.37,85.0
424.43,92.0
424.49,98.0
424.56,110.0
424.62,105.0
424.68,113.0
424.75,108.0
424.81,113.0
424.87,108.0
424.93,103.0
425.0,109.0
425.06,122.0
425.12,127.0
425.19,117.0
425.25,116.0
425.31,102.0
425.38,90.0
425.44,106.0
425.5,103.0
425.56,117.0
425.63,117.0
425.69,98.0
425.75,117.0
425.82,130.0
425.88,116.0
425.94,130.0
426.01,121.0
426.07,125.0
426.13,124.0
426.19,124.0
426.26,124.0
426.32,124.0
426.38,109.0
426.45,127.0
426.51,123.0
426.57,131.0
426.64,126.0
426.7,124.0
426.76,144.0
426.82,133.0
426.89,126.0
426.95,119.0
427.01,134.0
427.08,132.0
427.14,126.0
427.2,139.0
427.27,108.0
427.33,117.0
427.39,140.0
427.45,136.0
427.52,116.0
427.58,125.0
427.64,98.0
427.71,92.0
427.77,85.0
427.83,83.0
427.9,84.0
427.96,88.0
428.02,82.0
428.08,84.0
428.15,86.0
428.21,61.0
428.27,68.0
428.34,86.0
428.4,87.0
428.46,73.0
428.53,85.0
428.59,94.0
428.65,86.0
428.71,97.0
428.78,73.0
428.84,82.0
428.9,66.0
428.97,78.0
429.03,73.0
429.09,91.0
429.16,84.0
429.22,66.0
429.28,49.0
429.34,69.0
429.41,61.0
429.47,59.0
429.53,73.0
429.6,64.0
429.66,79.0
429.72,58.0
429.79,44.0
429.85,57.0
429.91,62.0
429.97,54.0
430.04,59.0
430.1,58.0
430.16,68.0
430.23,64.0
430.29,66.0
430.35,54.0
430.42,49.0
430.48,59.0
430.54,66.0
430.6,77.0
430.67,84.0
430.73,84.0
430.79,53.0
430.86,65.0
430.92,69.0
430.98,56.0
431.05,65.0
431.11,81.0
431.17,70.0
431.23,69.0
431.3,70.0
431.36,71.0
431.42,84.0
431.49,99.0
431.55,93.0
431.61,94.0
431.68,103.0
431.74,104.0
431.8,66.0
431.86,89.0
431.93,76.0
431.99,87.0
432.05,96.0
432.12,87.0
432.18,94.0
432.24,91.0
432.31,100.0
432.37,92.0
432.43,110.0
432.49,103.0
432.56,100.0
432.62,88.0
432.68,87.0
432.75,86.0
432.81,80.0
432.87,66.0
432.94,58.0
433.0,62.0
433.06,76.0
433.12,73.0
433.19,45.0
433.25,56.0
433.31,54.0
433.38,56.0
433.44,47.0
433.5,34.0
433.57,62.0
433.63,47.0
433.69,45.0
433.75,40.0
433.82,38.0
433.88,26.0
433.94,20.0
434.01,25.0
434.07,37.0
434.13,18.0
434.2,12.0
434.26,36.0
434.32,44.0
434.38,26.0
434.45,31.0
434.51,33.0
434.57,57.0
434.64,33.0
434.7,22.0
434.76,33.0
434.83,40.0
434.89,39.0
434.95,43.0
435.01,39.0
435.08,31.0
435.14,31.0
435.2,23.0
435.27,44.0
435.33,50.0
435.39,51.0
435.46,55.0
435.52,37.0
435.58,29.0
435.64,31.0
435.71,30.0
435.77,46.0
435.83,35.0
435.9,40.0
435.96,58.0
436.02,36.0
436.09,34.0
436.15,41.0
436.21,40.0
436.27,40.0
436.34,36.0
436.4,51.0
436.46,50.0
436.53,52.0
436.59,67.0
436.65,68.0
436.72,80.0
436.78,78.0
436.84,65.0
436.9,56.0
436.97,56.0
437.03,59.0
437.09,75.0
437.16,60.0
437.22,75.0
437.28,73.0
437.35,59.0
437.41,78.0
437.47,75.0
437.53,71.0
437.6,83.0
437.66,67.0
437.72,84.0
437.79,82.0
437.85,66.0
437.91,73.0
437.98,86.0
438.04,58.0
438.1,81.0
438.16,85.0
438.23,88.0
438.29,95.0
438.35,86.0
438.42,95.0
438.48,100.0
438.54,72.0
438.61,83.0
438.67,89.0
438.73,73.0
438.79,70.0
438.86,77.0
438.92,66.0
438.98,64.0
439.05,67.0
439.11,64.0
439.17,61.0
439.24,73.0
439.3,68.0
439.36,51.0
439.42,69.0
439.49,75.0
439.55,78.0
439.61,85.0
439.68,84.0
439.74,91.0
439.8,87.0
439.87,95.0
439.93,98.0
439.99,93.0
440.05,92.0
440.12,94.0
440.18,91.0
440.24,89.0
440.31,109.0
440.37,113.0
440.43,111.0
440.5,106.0
440.56,110.0
440.62,111.0
440.68,91.0
440.75,92.0
440.81,98.0
440.87,100.0
440.94,106.0
441.0,113.0
441.06,105.0
441.13,85.0
441.19,90.0
441.25,88.0
441.31,102.0
441.38,99.0
441.44,101.0
441.5,113.0
441.57,136.0
441.63,118.0
441.69,120.0
441.76,99.0
441.82,125.0
441.88,119.0
441.94,117.0
442.01,132.0
442.07,113.0
442.13,116.0
442.2,111.0
442.26,112.0
442.32,117.0
442.39,116.0
442.45,115.0
442.51,136.0
442.57,142.0
442.64,128.0
442.7,150.0
442.76,134.0
442.83,122.0
442.89,138.0
442.95,157.0
443.02,140.0
443.08,130.0
443.14,122.0
443.2,130.0
443.27,161.0
443.33,161.0
443.39,149.0
443.46,140.0
443.52,163.0
443.58,147.0
443.65,141.0
443.71,160.0
443.77,164.0
443.83,163.0
443.9,170.0
443.96,177.0
444.02,163.0
444.09,163.0
444.15,160.0
444.21,165.0
444.28,164.0
444.34,158.0
444.4,174.0
444.46,181.0
444.53,146.0
444.59,154.0
444.65,160.0
444.72,170.0
444.78,131.0
444.84,143.0
444.91,122.0
444.97,127.0
445.03,143.0
445.09,124.0
445.16,135.0
445.22,108.0
445.28,111.0
445.35,110.0
445.41,116.0
445.47,122.0
445.54,116.0
445.6,125.0
445.66,125.0
445.72,131.0
445.79,98.0
445.85,109.0
445.91,96.0
445.98,89.0
446.04,100.0
446.1,89.0
446.17,98.0
446.23,108.0
446.29,105.0
446.35,91.0
446.42,102.0
446.48,87.0
446.54,111.0
446.61,118.0
446.67,100.0
446.73,114.0
446.8,105.0
446.86,76.0
446.92,67.0
446.98,88.0
447.05,98.0
447.11,108.0
447.17,73.0
447.24,75.0
447.3,90.0
447.36,95.0
447.43,80.0
447.49,79.0
447.55,83.0
447.61,71.0
447.68,63.0
447.74,69.0
447.8,59.0
447.87,46.0
447.93,48.0
447.99,56.0
448.06,40.0
448.12,59.0
448.18,55.0
448.24,84.0
448.31,75.0
448.37,65.0
448.43,68.0
448.5,52.0
448.56,34.0
448.62,59.0
448.69,69.0
448.75,64.0
448.81,58.0
448.87,44.0
448.94,44.0
449.0,73.0
449.06,68.0
449.13,27.0
449.19,59.0
449.25,58.0
449.32,39.0
449.38,47.0
449.44,44.0
449.5,42.0
449.57,46.0
449.63,58.0
449.69,32.0
449.76,52.0
449.82,44.0
449.88,28.0
449.95,38.0
450.01,38.0
450.07,36.0
450.13,8.0
450.2,40.0
450.26,24.0
450.32,34.0
450.39,64.0
450.45,39.0
450.51,47.0
450.58,37.0
450.64,26.0
450.7,35.0
450.76,29.0
450.83,28.0
450.89,33.0
450.95,41.0
451.02,28.0
451.08,20.0
451.14,14.0
451.21,23.0
451.27,31.0
451.33,33.0
451.39,20.0
451.46,21.0
451.52,1.0
451.58,9.0
451.65,-5.0
451.71,5.0
451.77,29.0
451.84,25.0
451.9,42.0
451.96,37.0
452.02,33.0
452.09,52.0
452.15,43.0
452.21,36.0
452.28,42.0
452.34,44.0
452.4,63.0
452.47,60.0
452.53,54.0
452.59,45.0
452.65,55.0
452.72,72.0
452.78,67.0
452.84,69.0
452.91,72.0
452.97,83.0
453.03,69.0
453.1,74.0
453.16,83.0
453.22,85.0
453.28,76.0
453.35,76.0
453.41,71.0
453.47,90.0
453.54,73.0
453.6,66.0
453.66,65.0
453.73,61.0
453.79,74.0
453.85,67.0
453.91,66.0
453.98,47.0
454.04,47.0
454.1,60.0
454.17,70.0
454.23,77.0
454.29,72.0
454.36,81.0
454.42,84.0
454.48,95.0
454.54,84.0
454.61,98.0
454.67,99.0
454.73,96.0
454.8,104.0
454.86,97.0
454.92,101.0
454.99,120.0
455.05,125.0
455.11,119.0
455.17,135.0
455.24,134.0
455.3,131.0
455.36,110.0
455.43,130.0
455.49,121.0
455.55,111.0
455.62,125.0
455.68,102.0
455.74,122.0
455.8,125.0
455.87,114.0
455.93,104.0
455.99,94.0
456.06,115.0
456.12,103.0
456.18,95.0
456.25,100.0
456.31,112.0
456.37,122.0
456.43,116.0
456.5,99.0
456.56,138.0
456.62,113.0
456.69,107.0
456.75,115.0
456.81,101.0
456.88,116.0
456.94,81.0
457.0,109.0
457.06,107.0
457.13,114.0
457.19,116.0
457.25,91.0
457.32,89.0
457.38,108.0
457.44,104.0
457.51,102.0
457.57,106.0
457.63,87.0
457.69,95.0
457.76,94.0
457.82,104.0
457.88,102.0
457.95,96.0
458.01,116.0
458.07,102.0
458.14,94.0
458.2,97.0
458.26,91.0
458.32,80.0
458.39,102.0
458.45,111.0
458.51,111.0
458.58,104.0
458.64,97.0
458.7,107.0
458.77,86.0
458.83,109.0
458.89,108.0
458.95,104.0
459.02,99.0
459.08,97.0
459.14,112.0
459.21,114.0
459.27,112.0
459.33,98.0
459.4,120.0
459.46,113.0
459.52,95.0
459.58,89.0
459.65,98.0
459.71,94.0
459.77,80.0
459.84,81.0
459.9,84.0
459.96,83.0
460.03,74.0
460.09,103.0
460.15,89.0
460.21,103.0
460.28,102.0
460.34,105.0
460.4,90.0
460.47,104.0
460.53,97.0
460.59,94.0
460.66,81.0
460.72,90.0
460.78,106.0
460.84,90.0
460.91,86.0
460.97,85.0
461.03,100.0
461.1,85.0
461.16,107.0
461.22,86.0
461.29,98.0
461.35,103.0
461.41,100.0
461.47,104.0
461.54,93.0
461.6,116.0
461.66,90.0
461.73,80.0
461.79,79.0
461.85,87.0
461.92,80.0
461.98,74.0
462.04,86.0
462.1,67.0
462.17,48.0
462.23,39.0
462.29,57.0
462.36,73.0
462.42,61.0
462.48,52.0
462.55,67.0
462.61,78.0
462.67,64.0
462.73,61.0
462.8,65.0
462.86,73.0
462.92,57.0
462.99,54.0
463.05,45.0
463.11,28.0
463.18,39.0
463.24,42.0
463.3,50.0
463.36,67.0
463.43,41.0
463.49,48.0
463.55,48.0
463.62,42.0
463.68,29.0
463.74,30.0
463.81,54.0
463.87,63.0
463.93,71.0
463.99,74.0
464.06,56.0
464.12,59.0
464.18,64.0
464.25,57.0
464.31,61.0
464.37,42.0
464.44,23.0
464.5,24.0
464.56,15.0
464.62,-3.0
464.69,9.0
464.75,16.0
464.81,32.0
464.88,24.0
464.94,18.0
465.0,17.0
465.07,29.0
465.13,27.0
465.19,28.0
465.25,23.0
465.32,18.0
465.38,20.0
465.44,26.0
465.51,31.0
465.57,11.0
465.63,35.0
465.7,37.0
465.76,47.0
465.82,31.0
465.88,34.0
465.95,39.0
466.01,35.0
466.07,21.0
466.14,20.0
466.2,21.0
466.26,8.0
466.33,35.0
466.39,43.0
466.45,35.0
466.51,17.0
466.58,9.0
466.64,35.0
466.7,45.0
466.77,44.0
466.83,51.0
466.89,61.0
466.96,57.0
467.02,90.0
467.08,74.0
467.14,56.0
467.21,84.0
467.27,57.0
467.33,57.0
467.4,50.0
467.46,67.0
467.52,61.0
467.59,69.0
467.65,58.0
467.71,54.0
467.77,65.0
467.84,56.0
467.9,49.0
467.96,61.0
468.03,68.0
468.09,69.0
468.15,51.0
468.22,45.0
468.28,64.0
468.34,65.0
468.4,58.0
468.47,48.0
468.53,57.0
468.59,89.0
468.66,83.0
468.72,70.0
468.78,52.0
468.85,58.0
468.91,64.0
468.97,83.0
469.03,61.0
469.1,73.0
469.16,78.0
469.22,75.0
469.29,75.0
469.35,63.0
469.41,65.0
469.48,79.0
469.54,66.0
469.6,64.0
469.66,66.0
469.73,74.0
469.79,97.0
469.85,78.0
469.92,66.0
469.98,87.0
470.04,75.0
470.11,89.0
470.17,62.0
470.23,82.0
470.29,93.0
470.36,83.0
470.42,82.0
470.48,71.0
470.55,87.0
470.61,58.0
470.67,92.0
470.74,93.0
470.8,94.0
470.86,94.0
470.92,84.0
470.99,105.0
471.05,103.0
471.11,97.0
471.18,109.0
471.24,91.0
471.3,100.0
471.37,111.0
471.43,91.0
471.49,90.0
471.55,101.0
471.62,97.0
471.68,103.0
471.74,94.0
471.81,104.0
471.87,97.0
471.93,91.0
472.0,93.0
472.06,90.0
472.12,97.0
472.18,114.0
472.25,93.0
472.31,78.0
472.37,88.0
472.44,79.0
472.5,81.0
472.56,83.0
472.63,92.0
472.69,93.0
472.75,96.0
472.81,105.0
472.88,85.0
472.94,93.0
473.0,84.0
473.07,84.0
473.13,91.0
473.19,100.0
473.26,90.0
473.32,99.0
473.38,100.0
473.44,86.0
473.51,75.0
473.57,79.0
473.63,71.0
473.7,67.0
473.76,90.0
473.82,78.0
473.89,76.0
473.95,83.0
474.01,65.0
474.07,72.0
474.14,74.0
474.2,65.0
474.26,75.0
474.33,71.0
474.39,71.0
474.45,85.0
474.52,72.0
474.58,56.0
474.64,78.0
474.7,55.0
474.77,41.0
474.83,53.0
474.89,57.0
474.96,60.0
475.02,57.0
475.08,50.0
475.15,51.0
475.21,68.0
475.27,54.0
475.33,68.0
475.4,70.0
475.46,54.0
475.52,41.0
475.59,30.0
475.65,38.0
475.71,51.0
475.78,46.0
475.84,48.0
475.9,56.0
475.96,64.0
476.03,72.0
476.09,52.0
476.15,64.0
476.22,83.0
476.28,95.0
476.34,68.0
476.41,70.0
476.47,101.0
476.53,65.0
476.59,73.0
476.66,103.0
476.72,115.0
476.78,112.0
476.85,106.0
476.91,114.0
476.97,105.0
477.04,109.0
477.1,95.0
477.16,96.0
477.22,95.0
477.29,90.0
477.35,82.0
477.41,79.0
477.48,80.0
477.54,74.0
477.6,89.0
477.67,68.0
477.73,83.0
477.79,98.0
477.85,83.0
477.92,98.0
477.98,94.0
478.04,93.0
478.11,93.0
478.17,107.0
478.23,116.0
478.3,101.0
478.36,100.0
478.42,103.0
478.48,116.0
478.55,81.0
478.61,86.0
478.67,97.0
478.74,100.0
478.8,89.0
478.86,84.0
478.93,85.0
478.99,84.0
479.05,71.0
479.11,63.0
479.18,64.0
479.24,95.0
479.3,89.0
479.37,64.0
479.43,79.0
479.49,85.0
479.56,102.0
479.62,86.0
479.68,84.0
479.74,97.0
479.81,78.0
479.87,79.0
479.93,82.0
480.0,64.0
480.06,73.0
480.12,78.0
480.19,67.0
480.25,67.0
480.31,81.0
480.37,79.0
480.44,77.0
480.5,93.0
480.56,94.0
480.63,77.0
480.69,74.0
480.75,94.0
480.82,92.0
480.88,94.0
480.94,108.0
481.0,109.0
481.07,98.0
481.13,87.0
481.19,115.0
481.26,113.0
481.32,103.0
481.38,97.0
481.45,85.0
481.51,102.0
481.57,98.0
481.63,101.0
481.7,117.0
481.76,102.0
481.82,103.0
481.89,115.0
481.95,115.0
482.01,103.0
482.08,107.0
482.14,97.0
482.2,103.0
482.26,105.0
482.33,114.0
482.39,88.0
482.45,104.0
482.52,94.0
482.58,108.0
482.64,104.0
482.71,90.0
482.77,112.0
482.83,114.0
482.89,95.0
482.96,75.0
483.02,88.0
483.08,89.0
483.15,93.0
483.21,90.0
483.27,101.0
483.34,97.0
483.4,86.0
483.46,97.0
483.52,89.0
483.59,89.0
483.65,75.0
483.71,97.0
483.78,90.0
483.84,96.0
483.9,97.0
483.97,82.0
484.03,76.0
484.09,100.0
484.15,101.0
484.22,101.0
484.28,87.0
484.34,99.0
484.41,108.0
484.47,114.0
484.53,120.0
484.6,97.0
484.66,114.0
484.72,101.0
484.78,103.0
484.85,91.0
484.91,96.0
484.97,108.0
485.04,98.0
485.1,123.0
485.16,115.0
485.23,108.0
485.29,101.0
485.35,92.0
485.41,93.0
485.48,102.0
485.54,118.0
485.6,96.0
485.67,125.0
485.73,127.0
485.79,125.0
485.86,119.0
485.92,118.0
485.98,98.0
486.04,114.0
486.11,134.0
486.17,108.0
486.23,111.0
486.3,114.0
486.36,120.0
486.42,130.0
486.49,145.0
486.55,125.0
486.61,122.0
486.67,139.0
486.74,120.0
486.8,122.0
486.86,131.0
486.93,146.0
486.99,137.0
487.05,130.0
487.12,135.0
487.18,156.0
487.24,144.0
487.3,149.0
487.37,161.0
487.43,123.0
487.49,166.0
487.56,159.0
487.62,145.0
487.68,153.0
487.75,119.0
487.81,136.0
487.87,130.0
487.93,122.0
488.0,127.0
488.06,130.0
488.12,122.0
488.19,129.0
488.25,134.0
488.31,133.0
488.38,131.0
488.44,133.0
488.5,130.0
488.56,121.0
488.63,119.0
488.69,117.0
488.75,119.0
488.82,108.0
488.88,134.0
488.94,122.0
489.01,120.0
489.07,118.0
489.13,130.0
489.19,100.0
489.26,99.0
489.32,111.0
489.38,105.0
489.45,117.0
489.51,116.0
489.57,133.0
489.64,107.0
489.7,104.0
489.76,104.0
489.82,113.0
489.89,124.0
489.95,120.0
490.01,107.0
490.08,121.0
490.14,97.0
490.2,99.0
490.27,96.0
490.33,87.0
490.39,97.0
490.45,79.0
490.52,86.0
490.58,104.0
490.64,97.0
490.71,94.0
490.77,96.0
490.83,92.0
490.9,99.0
490.96,83.0
491.02,74.0
491.08,81.0
491.15,74.0
491.21,78.0
491.27,86.0
491.34,68.0
491.4,87.0
491.46,83.0
491.53,115.0
491.59,131.0
491.65,138.0
491.71,130.0
491.78,105.0
491.84,115.0
491.9,102.0
491.97,109.0
492.03,101.0
492.09,119.0
492.16,120.0
492.22,126.0
492.28,114.0
492.34,113.0
492.41,137.0
492.47,141.0
492.53,122.0
492.6,133.0
492.66,138.0
492.72,124.0
492.79,134.0
492.85,120.0
492.91,126.0
492.97,155.0
493.04,130.0
493.1,118.0
493.16,117.0
493.23,120.0
493.29,147.0
493.35,152.0
493.42,155.0
493.48,150.0
493.54,139.0
493.6,127.0
493.67,149.0
493.73,167.0
493.79,141.0
493.86,132.0
493.92,136.0
493.98,134.0
494.05,124.0
494.11,139.0
494.17,127.0
494.23,119.0
494.3,137.0
494.36,109.0
494.42,120.0
494.49,137.0
494.55,140.0
494.61,121.0
494.68,119.0
494.74,142.0
494.8,150.0
494.86,140.0
494.93,141.0
494.99,133.0
495.05,115.0
495.12,121.0
495.18,138.0
495.24,123.0
495.31,111.0
495.37,108.0
495.43,123.0
495.49,123.0
495.56,111.0
495.62,115.0
495.68,109.0
495.75,95.0
495.81,105.0
495.87,112.0
495.94,101.0
496.0,89.0
496.06,112.0
496.12,112.0
496.19,96.0
496.25,100.0
496.31,118.0
496.38,130.0
496.44,105.0
496.5,122.0
496.57,128.0
496.63,108.0
496.69,89.0
496.75,95.0
496.82,101.0
496.88,114.0
496.94,103.0
497.01,100.0
497.07,104.0
497.13,89.0
497.2,98.0
497.26,88.0
497.32,86.0
497.38,75.0
497.45,77.0
497.51,98.0
497.57,90.0
497.64,72.0
497.7,79.0
497.76,48.0
497.83,56.0
497.89,69.0
497.95,59.0
498.01,35.0
498.08,68.0
498.14,63.0
498.2,56.0
498.27,51.0
498.33,50.0
498.39,50.0
498.46,49.0
498.52,34.0
498.58,48.0
498.64,52.0
498.71,64.0
498.77,62.0
498.83,46.0
498.9,66.0
498.96,48.0
499.02,24.0
499.09,45.0
499.15,41.0
499.21,40.0
499.27,16.0
499.34,33.0
499.4,15.0
499.46,20.0
499.53,46.0
499.59,27.0
499.65,27.0
499.72,59.0
499.78,38.0
499.84,37.0
499.9,43.0
499.97,41.0
500.03,54.0
500.09,51.0
500.16,42.0
500.22,46.0
500.28,36.0
500.35,15.0
500.41,34.0
500.47,31.0
500.53,13.0
500.6,6.0
500.66,12.0
500.72,-9.0
500.79,-2.0
500.85,12.0
500.91,21.0
500.98,-4.0
501.04,-26.0
501.1,-12.0
501.16,-11.0
501.23,-13.0
501.29,-22.0
501.35,3.0
501.42,16.0
501.48,3.0
501.54,-4.0
501.61,8.0
501.67,7.0
501.73,-8.0
501.79,2.0
501.86,5.0
501.92,31.0
501.98,25.0
502.05,10.0
502.11,17.0
502.17,24.0
502.24,39.0
502.3,17.0
502.36,17.0
502.42,20.0
502.49,-7.0
502.55,1.0
502.61,3.0
502.68,25.0
502.74,16.0
502.8,13.0
502.87,38.0
502.93,32.0
502.99,30.0
503.05,56.0
503.12,59.0
503.18,48.0
503.24,31.0
503.31,46.0
503.37,50.0
503.43,66.0
503.5,72.0
503.56,61.0
503.62,52.0
503.68,60.0
503.75,68.0
503.81,61.0
503.87,53.0
503.94,70.0
504.0,72.0
504.06,72.0
504.13,70.0
504.19,76.0
504.25,73.0
504.31,85.0
504.38,91.0
504.44,77.0
504.5,91.0
504.57,74.0
504.63,83.0
504.69,82.0
504.76,89.0
504.82,94.0
504.88,99.0
504.94,98.0
505.01,81.0
505.07,81.0
505.13,92.0
505.2,95.0
505.26,72.0
505.32,87.0
505.39,80.0
505.45,68.0
505.51,68.0
505.57,64.0
505.64,51.0
505.7,48.0
505.76,70.0
505.83,71.0
505.89,87.0
505.95,67.0
506.02,61.0
506.08,78.0
506.14,101.0
506.2,70.0
506.27,112.0
506.33,94.0
506.39,103.0
506.46,90.0
506.52,86.0
506.58,89.0
506.65,82.0
506.71,97.0
506.77,88.0
506.83,88.0
506.9,82.0
506.96,101.0
507.02,93.0
507.09,105.0
507.15,86.0
507.21,74.0
507.28,77.0
507.34,70.0
507.4,106.0
507.46,83.0
507.53,97.0
507.59,101.0
507.65,108.0
507.72,90.0
507.78,105.0
507.84,120.0
507.91,108.0
507.97,112.0
508.03,115.0
508.09,112.0
508.16,114.0
508.22,128.0
508.28,140.0
508.35,136.0
508.41,131.0
508.47,134.0
508.54,132.0
508.6,137.0
508.66,133.0
508.72,114.0
508.79,116.0
508.85,123.0
508.91,139.0
508.98,118.0
509.04,104.0
509.1,137.0
509.17,107.0
509.23,108.0
509.29,127.0
509.35,125.0
509.42,140.0
509.48,125.0
509.54,119.0
509.61,144.0
509.67,131.0
509.73,134.0
509.8,134.0
509.86,134.0
509.92,140.0
509.98,132.0
510.05,116.0
510.11,127.0
510.17,142.0
510.24,133.0
510.3,150.0
510.36,141.0
510.43,160.0
510.49,167.0
510.55,174.0
510.61,158.0
510.68,155.0
510.74,167.0
510.8,161.0
510.87,174.0
510.93,172.0
510.99,172.0
511.06,150.0
511.12,166.0
511.18,164.0
511.24,158.0
511.31,157.0
511.37,134.0
511.43,162.0
511.5,167.0
511.56,180.0
511.62,186.0
511.69,172.0
511.75,171.0
511.81,192.0
511.87,192.0
511.94,178.0
512.0,174.0
512.06,196.0
512.13,179.0
512.19,181.0
512.25,187.0
512.32,178.0
512.38,165.0
512.44,149.0
512.5,148.0
512.57,142.0
512.63,153.0
512.69,145.0
512.76,149.0
512.82,136.0
512.88,164.0
512.95,174.0
513.01,163.0
513.07,153.0
513.13,150.0
513.2,162.0
513.26,142.0
513.32,155.0
513.39,157.0
513.45,158.0
513.51,150.0
513.58,140.0
513.64,150.0
513.7,136.0
513.76,111.0
513.83,123.0
513.89,139.0
513.95,126.0
514.02,135.0
514.08,150.0
514.14,130.0
514.21,127.0
514.27,130.0
514.33,111.0
514.39,120.0
514.46,113.0
514.52,133.0
514.58,127.0
514.65,126.0
514.71,129.0
514.77,147.0
514.84,133.0
514.9,125.0
514.96,122.0
515.02,120.0
515.09,134.0
515.15,144.0
515.21,142.0
515.28,127.0
515.34,140.0
515.4,128.0
515.47,116.0
515.53,141.0
515.59,147.0
515.65,127.0
515.72,111.0
515.78,108.0
515.84,97.0
515.91,102.0
515.97,91.0
516.03,90.0
516.1,86.0
516.16,90.0
516.22,83.0
516.28,97.0
516.35,92.0
516.41,94.0
516.47,66.0
516.54,61.0
516.6,75.0
516.66,66.0
516.73,54.0
516.79,50.0
516.85,56.0
516.91,65.0
516.98,68.0
517.04,61.0
517.1,60.0
517.17,56.0
517.23,41.0
517.29,46.0
517.36,52.0
517.42,42.0
517.48,51.0
517.54,41.0
517.61,52.0
517.67,54.0
517.73,67.0
517.8,79.0
517.86,68.0
517.92,65.0
517.99,53.0
518.05,46.0
518.11,53.0
518.17,49.0
518.24,45.0
518.3,62.0
518.36,51.0
518.43,45.0
518.49,51.0
518.55,54.0
518.62,51.0
518.68,42.0
518.74,44.0
518.8,47.0
518.87,64.0
518.93,54.0
518.99,59.0
519.06,60.0
519.12,60.0
519.18,58.0
519.25,51.0
519.31,46.0
519.37,60.0
519.43,59.0
519.5,81.0
519.56,86.0
519.62,68.0
519.69,82.0
519.75,70.0
519.81,86.0
519.88,78.0
519.94,73.0
520.0,60.0
520.06,56.0
520.13,57.0
520.19,53.0
520.25,54.0
520.32,83.0
520.38,73.0
520.44,68.0
520.51,71.0
520.57,87.0
520.63,82.0
520.69,78.0
520.76,65.0
520.82,60.0
520.88,77.0
520.95,79.0
521.01,76.0
521.07,87.0
521.14,64.0
521.2,74.0
521.26,81.0
521.32,91.0
521.39,62.0
521.45,73.0
521.51,89.0
521.58,87.0
521.64,102.0
521.7,81.0
521.77,81.0
521.83,88.0
521.89,80.0
521.95,91.0
522.02,80.0
522.08,73.0
522.14,87.0
522.21,94.0
522.27,118.0
522.33,98.0
522.4,94.0
522.46,75.0
522.52,78.0
522.58,75.0
522.65,76.0
522.71,67.0
522.77,80.0
522.84,82.0
522.9,84.0
522.96,72.0
523.03,70.0
523.09,62.0
523.15,50.0
523.21,50.0
523.28,51.0
523.34,46.0
523.4,53.0
523.47,40.0
523.53,38.0
523.59,-1.0
523.66,30.0
523.72,44.0
523.78,28.0
523.84,32.0
523.91,29.0
523.97,28.0
524.03,22.0
524.1,19.0
524.16,20.0
524.22,37.0
524.29,18.0
524.35,19.0
524.41,12.0
524.47,12.0
524.54,-3.0
524.6,9.0
524.66,3.0
524.73,4.0
524.79,12.0
524.85,22.0
524.92,19.0
524.98,21.0
525.04,21.0
525.1,16.0
525.17,31.0
525.23,25.0
525.29,16.0
525.36,-2.0
525.42,11.0
525.48,11.0
525.55,6.0
525.61,4.0
525.67,13.0
525.73,19.0
525.8,3.0
525.86,2.0
525.92,13.0
525.99,7.0
526.05,16.0
526.11,24.0
526.18,31.0
526.24,18.0
526.3,22.0
526.36,25.0
526.43,23.0
526.49,24.0
526.55,23.0
526.62,22.0
526.68,50.0
526.74,32.0
526.81,20.0
526.87,35.0
526.93,47.0
526.99,30.0
527.06,18.0
527.12,35.0
527.18,36.0
527.25,50.0
527.31,63.0
527.37,56.0
527.44,69.0
527.5,36.0
527.56,45.0
527.62,40.0
527.69,36.0
527.75,48.0
527.81,50.0
527.88,43.0
527.94,62.0
528.0,66.0
528.07,64.0
528.13,62.0
528.19,40.0
528.25,48.0
528.32,64.0
528.38,66.0
528.44,53.0
528.51,46.0
528.57,23.0
528.63,37.0
528.7,54.0
528.76,49.0
528.82,66.0
528.88,51.0
528.95,51.0
529.01,48.0
529.07,64.0
529.14,72.0
529.2,58.0
529.26,50.0
529.33,69.0
529.39,81.0
529.45,55.0
529.51,62.0
529.58,50.0
529.64,61.0
529.7,51.0
529.77,53.0
529.83,33.0
529.89,22.0
529.96,39.0
530.02,28.0
530.08,29.0
530.14,37.0
530.21,29.0
530.27,17.0
530.33,23.0
530.4,22.0
530.46,18.0
530.52,5.0
530.59,0.0
530.65,-11.0
530.71,4.0
530.77,-4.0
530.84,-6.0
530.9,-6.0
530.96,-11.0
531.03,-6.0
531.09,-22.0
531.15,8.0
531.22,18.0
531.28,7.0
531.34,15.0
531.4,15.0
531.47,2.0
531.53,15.0
531.59,0.0
531.66,9.0
531.72,8.0
531.78,-2.0
531.85,12.0
531.91,-6.0
531.97,14.0
532.03,3.0
532.1,-8.0
532.16,-18.0
532.22,3.0
532.29,-8.0
532.35,3.0
532.41,26.0
532.48,11.0
532.54,17.0
532.6,22.0
532.66,18.0
532.73,36.0
532.79,25.0
532.85,32.0
532.92,23.0
532.98,25.0
533.04,30.0
533.11,47.0
533.17,43.0
533.23,48.0
533.29,68.0
533.36,44.0
533.42,43.0
533.48,45.0
533.55,41.0
533.61,31.0
533.67,40.0
533.74,63.0
533.8,56.0
533.86,56.0
533.92,68.0
533.99,58.0
534.05,57.0
534.11,42.0
534.18,46.0
534.24,54.0
534.3,55.0
534.37,47.0
534.43,63.0
534.49,62.0
534.55,60.0
534.62,70.0
534.68,82.0
534.74,91.0
534.81,95.0
534.87,109.0
534.93,96.0
535.0,98.0
535.06,83.0
535.12,105.0
535.18,95.0
535.25,95.0
535.31,95.0
535.37,104.0
535.44,104.0
535.5,106.0
535.56,105.0
535.63,98.0
535.69,116.0
535.75,112.0
535.81,102.0
535.88,100.0
535.94,99.0
536.0,102.0
536.07,94.0
536.13,109.0
536.19,116.0
536.26,110.0
536.32,116.0
536.38,130.0
536.44,130.0
536.51,141.0
536.57,134.0
536.63,140.0
536.7,150.0
536.76,137.0
536.82,152.0
536.89,159.0
536.95,178.0
537.01,176.0
537.07,160.0
537.14,173.0
537.2,196.0
537.26,186.0
537.33,197.0
537.39,179.0
537.45,184.0
537.52,194.0
537.58,198.0
537.64,215.0
537.7,206.0
537.77,206.0
537.83,201.0
537.89,189.0
537.96,195.0
538.02,181.0
538.08,184.0
538.15,185.0
538.21,179.0
538.27,194.0
538.33,205.0
538.4,205.0
538.46,201.0
538.52,208.0
538.59,187.0
538.65,209.0
538.71,201.0
538.78,182.0
538.84,178.0
538.9,189.0
538.96,184.0
539.03,195.0
539.09,175.0
539.15,171.0
539.22,178.0
539.28,189.0
539.34,170.0
539.41,147.0
539.47,162.0
539.53,156.0
539.59,154.0
539.66,150.0
539.72,142.0
539.78,154.0
539.85,155.0
539.91,157.0
539.97,147.0
540.04,139.0
540.1,164.0
540.16,156.0
540.22,141.0
540.29,150.0
540.35,165.0
540.41,143.0
540.48,137.0
540.54,146.0
540.6,146.0
540.67,142.0
540.73,120.0
540.79,113.0
540.85,109.0
540.92,109.0
540.98,110.0
541.04,112.0
541.11,116.0
541.17,109.0
541.23,132.0
541.3,132.0
541.36,149.0
541.42,132.0
541.48,126.0
541.55,129.0
541.61,123.0
541.67,126.0
541.74,126.0
541.8,152.0
541.86,147.0
541.93,141.0
541.99,132.0
542.05,147.0
542.11,139.0
542.18,134.0
542.24,140.0
542.3,114.0
542.37,122.0
542.43,122.0
542.49,110.0
542.56,102.0
542.62,117.0
542.68,97.0
542.74,104.0
542.81,90.0
542.87,92.0
542.93,116.0
543.0,112.0
543.06,98.0
543.12,97.0
543.19,113.0
543.25,116.0
543.31,134.0
543.37,137.0
543.44,163.0
543.5,149.0
543.56,155.0
543.63,160.0
543.69,176.0
543.75,161.0
543.82,149.0
543.88,142.0
543.94,168.0
544.0,159.0
544.07,169.0
544.13,155.0
544.19,162.0
544.26,169.0
544.32,156.0
544.38,169.0
544.45,162.0
544.51,173.0
544.57,163.0
544.63,176.0
544.7,167.0
544.76,161.0
544.82,154.0
544.89,122.0
544.95,126.0
545.01,117.0
545.08,114.0
545.14,125.0
545.2,95.0
545.26,120.0
545.33,131.0
545.39,127.0
545.45,133.0
545.52,127.0
545.58,131.0
545.64,138.0
545.71,132.0
545.77,118.0
545.83,131.0
545.89,126.0
545.96,143.0
546.02,125.0
546.08,106.0
546.15,113.0
546.21,93.0
546.27,94.0
546.34,113.0
546.4,103.0
546.46,102.0
546.52,84.0
546.59,68.0
546.65,87.0
546.71,80.0
546.78,90.0
546.84,89.0
546.9,85.0
546.97,100.0
547.03,96.0
547.09,91.0
547.15,96.0
547.22,94.0
547.28,90.0
547.34,84.0
547.41,77.0
547.47,72.0
547.53,54.0
547.6,87.0
547.66,65.0
547.72,85.0
547.78,79.0
547.85,82.0
547.91,86.0
547.97,89.0
548.04,80.0
548.1,68.0
548.16,83.0
548.23,106.0
548.29,95.0
548.35,81.0
548.41,71.0
548.48,58.0
548.54,77.0
548.6,62.0
548.67,58.0
548.73,45.0
548.79,61.0
548.86,73.0
548.92,40.0
548.98,34.0
549.04,41.0
549.11,52.0
549.17,51.0
549.23,33.0
549.3,37.0
549.36,55.0
549.42,52.0
549.49,41.0
549.55,50.0
549.61,43.0
549.67,36.0
549.74,34.0
549.8,41.0
549.86,41.0
549.93,33.0
549.99,5.0
550.05,21.0
550.12,24.0
550.18,10.0
550.24,-13.0
550.3,-20.0
550.37,-13.0
550.43,-12.0
550.49,-9.0
550.56,3.0
550.62,-18.0
550.68,-22.0
550.75,-2.0
550.81,-2.0
550.87,0.0
550.93,7.0
551.0,-18.0
551.06,-23.0
551.12,-7.0
551.19,-12.0
551.25,-6.0
551.31,-17.0
551.38,1.0
551.44,-9.0
551.5,-17.0
551.56,10.0
551.63,-13.0
551.69,17.0
551.75,21.0
551.82,22.0
551.88,20.0
551.94,12.0
552.01,30.0
552.07,24.0
552.13,23.0
552.19,17.0
552.26,22.0
552.32,1.0
552.38,17.0
552.45,35.0
552.51,35.0
552.57,32.0
552.64,46.0
552.7,78.0
552.76,81.0
552.82,76.0
552.89,85.0
552.95,64.0
553.01,70.0
553.08,69.0
553.14,57.0
553.2,46.0
553.27,42.0
553.33,57.0
553.39,65.0
553.45,73.0
553.52,43.0
553.58,42.0
553.64,48.0
553.71,43.0
553.77,57.0
553.83,40.0
553.9,50.0
553.96,66.0
554.02,72.0
554.08,71.0
554.15,74.0
554.21,98.0
554.27,85.0
554.34,89.0
554.4,79.0
554.46,76.0
554.53,83.0
554.59,87.0
554.65,93.0
554.71,101.0
554.78,91.0
554.84,79.0
554.9,109.0
554.97,93.0
555.03,104.0
555.09,101.0
555.16,86.0
555.22,94.0
555.28,70.0
555.34,82.0
555.41,94.0
555.47,96.0
555.53,86.0
555.6,106.0
555.66,109.0
555.72,72.0
555.79,71.0
555.85,72.0
555.91,86.0
555.97,80.0
556.04,78.0
556.1,103.0
556.16,97.0
556.23,89.0
556.29,105.0
556.35,91.0
556.42,86.0
556.48,86.0
556.54,66.0
556.6,75.0
556.67,96.0
556.73,62.0
556.79,57.0
556.86,62.0
556.92,60.0
556.98,71.0
557.05,50.0
557.11,59.0
557.17,66.0
557.23,46.0
557.3,42.0
557.36,51.0
557.42,42.0
557.49,56.0
557.55,54.0
557.61,36.0
557.68,42.0
557.74,51.0
557.8,54.0
557.86,51.0
557.93,38.0
557.99,35.0
558.05,61.0
558.12,48.0
558.18,31.0
558.24,57.0
558.31,61.0
558.37,78.0
558.43,53.0
558.49,35.0
558.56,48.0
558.62,48.0
558.68,57.0
558.75,59.0
558.81,53.0
558.87,59.0
558.94,58.0
559.0,62.0
559.06,81.0
559.12,45.0
559.19,62.0
559.25,69.0
559.31,70.0
559.38,68.0
559.44,63.0
559.5,62.0
559.57,72.0
559.63,67.0
559.69,61.0
559.75,79.0
559.82,58.0
559.88,76.0
559.94,100.0
560.01,100.0
560.07,102.0
560.13,96.0
560.2,100.0
560.26,103.0
560.32,100.0
560.38,105.0
560.45,97.0
560.51,101.0
560.57,97.0
560.64,110.0
560.7,130.0
560.76,132.0
560.83,128.0
560.89,139.0
560.95,124.0
561.01,116.0
561.08,127.0
561.14,127.0
561.2,134.0
561.27,119.0
561.33,111.0
561.39,125.0
561.46,96.0
561.52,115.0
561.58,131.0
561.64,128.0
561.71,133.0
561.77,124.0
561.83,112.0
561.9,106.0
561.96,102.0
562.02,111.0
562.09,121.0
562.15,106.0
562.21,122.0
562.27,150.0
562.34,134.0
562.4,145.0
562.46,157.0
562.53,149.0
562.59,145.0
562.65,133.0
562.72,146.0
562.78,120.0
562.84,115.0
562.9,130.0
562.97,114.0
563.03,132.0
563.09,135.0
563.16,137.0
563.22,146.0
563.28,149.0
563.35,148.0
563.41,159.0
563.47,166.0
563.53,150.0
563.6,156.0
563.66,162.0
563.72,163.0
563.79,180.0
563.85,174.0
563.91,153.0
563.98,155.0
564.04,151.0
564.1,162.0
564.16,152.0
564.23,144.0
564.29,155.0
564.35,162.0
564.42,158.0
564.48,159.0
564.54,180.0
564.61,164.0
564.67,170.0
564.73,178.0
564.79,155.0
564.86,155.0
564.92,146.0
564.98,138.0
565.05,147.0
565.11,150.0
565.17,158.0
565.24,153.0
565.3,145.0
565.36,138.0
565.42,124.0
565.49,114.0
565.55,97.0
565.61,104.0
565.68,98.0
565.74,106.0
565.8,105.0
565.87,93.0
565.93,90.0
565.99,81.0
566.05,81.0
566.12,86.0
566.18,97.0
566.24,85.0
566.31,76.0
566.37,78.0
566.43,71.0
566.5,87.0
566.56,74.0
566.62,95.0
566.68,66.0
566.75,78.0
566.81,53.0
566.87,68.0
566.94,61.0
567.0,45.0
567.06,48.0
567.13,32.0
567.19,44.0
567.25,58.0
567.31,42.0
567.38,39.0
567.44,35.0
567.5,20.0
567.57,29.0
567.63,19.0
567.69,29.0
567.76,31.0
567.82,19.0
567.88,16.0
567.94,20.0
568.01,26.0
568.07,14.0
568.13,11.0
568.2,34.0
568.26,19.0
568.32,20.0
568.39,32.0
568.45,13.0
568.51,15.0
568.57,16.0
568.64,28.0
568.7,8.0
568.76,5.0
568.83,6.0
568.89,-5.0
568.95,5.0
569.02,12.0
569.08,8.0
569.14,0.0
569.2,9.0
569.27,13.0
569.33,21.0
569.39,35.0
569.46,38.0
569.52,52.0
569.58,42.0
569.65,34.0
569.71,63.0
569.77,62.0
569.83,57.0
569.9,69.0
569.96,60.0
570.02,81.0
570.09,83.0
570.15,71.0
570.21,60.0
570.28,77.0
570.34,64.0
570.4,77.0
570.46,76.0
570.53,47.0
570.59,67.0
570.65,57.0
570.72,60.0
570.78,67.0
570.84,60.0
570.91,69.0
570.97,73.0
571.03,74.0
571.09,68.0
571.16,65.0
571.22,72.0
571.28,76.0
571.35,68.0
571.41,73.0
571.47,105.0
571.54,106.0
571.6,116.0
571.66,119.0
571.72,81.0
571.79,86.0
571.85,76.0
571.91,93.0
571.98,111.0
572.04,82.0
572.1,106.0
572.17,92.0
572.23,72.0
572.29,64.0
572.35,60.0
572.42,39.0
572.48,56.0
572.54,50.0
572.61,48.0
572.67,30.0
572.73,59.0
572.8,60.0
572.86,46.0
572.92,48.0
572.98,50.0
573.05,43.0
573.11,40.0
573.17,33.0
573.24,45.0
573.3,42.0
573.36,29.0
573.43,22.0
573.49,24.0
573.55,39.0
573.61,53.0
573.68,36.0
573.74,39.0
573.8,64.0
573.87,67.0
573.93,82.0
573.99,69.0
574.06,63.0
574.12,46.0
574.18,51.0
574.24,55.0
574.31,60.0
574.37,62.0
574.43,45.0
574.5,56.0
574.56,52.0
574.62,71.0
574.69,54.0
574.75,48.0
574.81,33.0
574.87,34.0
574.94,46.0
575.0,66.0
575.06,38.0
575.13,33.0
575.19,46.0
575.25,45.0
575.32,48.0
575.38,48.0
575.44,43.0
575.5,45.0
575.57,51.0
575.63,39.0
575.69,40.0
575.76,31.0
575.82,48.0
575.88,46.0
575.95,34.0
576.01,25.0
576.07,13.0
576.13,15.0
576.2,33.0
576.26,40.0
576.32,-6.0
576.39,22.0
576.45,8.0
576.51,23.0
576.58,34.0
576.64,37.0
576.7,49.0
576.76,58.0
576.83,56.0
576.89,29.0
576.95,34.0
577.02,41.0
577.08,65.0
577.14,65.0
577.21,50.0
577.27,52.0
577.33,74.0
577.39,63.0
577.46,71.0
577.52,77.0
577.58,63.0
577.65,57.0
577.71,49.0
577.77,77.0
577.84,80.0
577.9,74.0
577.96,79.0
578.02,82.0
578.09,77.0
578.15,99.0
578.21,118.0
578.28,101.0
578.34,105.0
578.4,112.0
578.47,124.0
578.53,139.0
578.59,139.0
578.65,128.0
578.72,114.0
578.78,113.0
578.84,123.0
578.91,133.0
578.97,127.0
579.03,111.0
579.1,111.0
579.16,114.0
579.22,112.0
579.28,118.0
579.35,112.0
579.41,123.0
579.47,118.0
579.54,123.0
579.6,100.0
579.66,94.0
579.73,99.0
579.79,118.0
579.85,110.0
579.91,111.0
579.98,106.0
580.04,112.0
580.1,96.0
580.17,114.0
580.23,115.0
580.29,96.0
580.36,98.0
580.42,80.0
580.48,79.0
580.54,93.0
580.61,78.0
580.67,83.0
580.73,94.0
580.8,96.0
580.86,89.0
580.92,98.0
580.99,93.0
581.05,96.0
581.11,81.0
581.17,88.0
581.24,79.0
581.3,73.0
581.36,74.0
581.43,95.0
581.49,91.0
581.55,74.0
581.62,85.0
581.68,82.0
581.74,76.0
581.8,87.0
581.87,75.0
581.93,82.0
581.99,78.0
582.06,70.0
582.12,76.0
582.18,83.0
582.25,76.0
582.31,58.0
582.37,66.0
582.43,56.0
582.5,72.0
582.56,56.0
582.62,44.0
582.69,67.0
582.75,56.0
582.81,38.0
582.88,30.0
582.94,28.0
583.0,25.0
583.06,15.0
583.13,15.0
583.19,19.0
583.25,21.0
583.32,10.0
583.38,10.0
583.44,5.0
583.51,0.0
583.57,1.0
583.63,-4.0
583.69,2.0
583.76,3.0
583.82,-11.0
583.88,-4.0
583.95,2.0
584.01,-14.0
584.07,-20.0
584.14,-27.0
584.2,-7.0
584.26,9.0
584.32,17.0
584.39,-8.0
584.45,2.0
584.51,2.0
584.58,0.0
584.64,12.0
584.7,10.0
584.77,4.0
584.83,12.0
584.89,9.0
584.95,6.0
585.02,-8.0
585.08,-12.0
585.14,-2.0
585.21,7.0
585.27,14.0
585.33,19.0
585.4,5.0
585.46,10.0
585.52,10.0
585.58,21.0
585.65,35.0
585.71,22.0
585.77,9.0
585.84,26.0
585.9,24.0
585.96,24.0
586.03,49.0
586.09,59.0
586.15,54.0
586.21,55.0
586.28,69.0
586.34,76.0
586.4,73.0
586.47,82.0
586.53,82.0
586.59,79.0
586.66,74.0
586.72,67.0
586.78,70.0
586.84,79.0
586.91,78.0
586.97,92.0
587.03,101.0
587.1,104.0
587.16,111.0
587.22,114.0
587.29,88.0
587.35,82.0
587.41,99.0
587.47,104.0
587.54,121.0
587.6,112.0
587.66,103.0
587.73,106.0
587.79,106.0
587.85,109.0
587.92,121.0
587.98,99.0
588.04,120.0
588.1,107.0
588.17,124.0
588.23,125.0
588.29,144.0
588.36,157.0
588.42,155.0
588.48,148.0
588.55,149.0
588.61,156.0
588.67,170.0
588.73,162.0
588.8,169.0
588.86,177.0
588.92,191.0
588.99,172.0
589.05,180.0
589.11,206.0
589.18,178.0
589.24,184.0
589.3,195.0
589.36,195.0
589.43,194.0
589.49,181.0
589.55,178.0
589.62,195.0
589.68,208.0
589.74,208.0
589.81,191.0
589.87,176.0
589.93,181.0
589.99,172.0
590.06,189.0
590.12,204.0
590.18,195.0
590.25,174.0
590.31,174.0
590.37,172.0
590.44,170.0
590.5,171.0
590.56,168.0
590.62,168.0
590.69,160.0
590.75,159.0
590.81,152.0
590.88,169.0
590.94,169.0
591.0,171.0
591.07,167.0
591.13,166.0
591.19,159.0
591.25,167.0
591.32,173.0
591.38,166.0
591.44,148.0
591.51,145.0
591.57,162.0
591.63,134.0
591.7,154.0
591.76,162.0
591.82,124.0
591.88,118.0
591.95,96.0
592.01,105.0
592.07,100.0
592.14,121.0
592.2,109.0
592.26,112.0
592.33,113.0
592.39,109.0
592.45,122.0
592.51,117.0
592.58,103.0
592.64,111.0
592.7,116.0
592.77,104.0
592.83,108.0
592.89,112.0
592.96,129.0
593.02,117.0
593.08,123.0
593.14,118.0
593.21,137.0
593.27,130.0
593.33,140.0
593.4,101.0
593.46,100.0
593.52,95.0
593.59,118.0
593.65,120.0
593.71,140.0
593.77,136.0
593.84,119.0
593.9,127.0
593.96,107.0
594.03,124.0
594.09,129.0
594.15,140.0
594.22,132.0
594.28,129.0
594.34,157.0
594.4,149.0
594.47,151.0
594.53,152.0
594.59,157.0
594.66,176.0
594.72,166.0
594.78,164.0
594.85,162.0
594.91,159.0
594.97,166.0
595.03,179.0
595.1,158.0
595.16,150.0
595.22,122.0
595.29,124.0
595.35,148.0
595.41,148.0
595.48,150.0
595.54,165.0
595.6,159.0
595.66,152.0
595.73,135.0
595.79,151.0
595.85,152.0
595.92,155.0
595.98,153.0
596.04,144.0
596.11,147.0
596.17,159.0
596.23,152.0
596.29,150.0
596.36,144.0
596.42,138.0
596.48,115.0
596.55,137.0
596.61,139.0
596.67,122.0
596.74,121.0
596.8,137.0
596.86,138.0
596.92,147.0
596.99,139.0
597.05,149.0
597.11,151.0
597.18,161.0
597.24,147.0
597.3,148.0
597.37,148.0
597.43,154.0
597.49,153.0
597.55,140.0
597.62,147.0
597.68,147.0
597.74,142.0
597.81,128.0
597.87,126.0
597.93,130.0
598.0,114.0
598.06,126.0
598.12,112.0
598.18,99.0
598.25,117.0
598.31,123.0
598.37,117.0
598.44,133.0
598.5,115.0
598.56,109.0
598.63,100.0
598.69,101.0
598.75,111.0
598.81,111.0
598.88,103.0
598.94,97.0
599.0,99.0
599.07,104.0
599.13,93.0
599.19,82.0
599.26,74.0
599.32,76.0
599.38,67.0
599.44,56.0
599.51,81.0
599.57,66.0
599.63,57.0
599.7,79.0
599.76,85.0
599.82,81.0
599.89,67.0
599.95,55.0
600.01,54.0
600.07,59.0
600.14,65.0
600.2,58.0
600.26,59.0
600.33,47.0
600.39,54.0
600.45,56.0
600.52,40.0
600.58,41.0
600.64,63.0
600.7,52.0
600.77,24.0
600.83,27.0
600.89,36.0
600.96,27.0
601.02,46.0
601.08,34.0
601.15,45.0
601.21,60.0
601.27,49.0
601.33,34.0
601.4,41.0
601.46,48.0
601.52,28.0
601.59,38.0
601.65,45.0
601.71,46.0
601.78,40.0
601.84,48.0
601.9,70.0
601.96,52.0
602.03,32.0
602.09,44.0
602.15,65.0
602.22,40.0
602.28,40.0
602.34,31.0
602.41,56.0
602.47,44.0
602.53,39.0
602.59,58.0
602.66,56.0
602.72,49.0
602.78,48.0
602.85,45.0
602.91,52.0
602.97,53.0
603.04,54.0
603.1,54.0
603.16,67.0
603.22,73.0
603.29,60.0
603.35,54.0
603.41,73.0
603.48,73.0
603.54,81.0
603.6,88.0
603.67,88.0
603.73,89.0
603.79,88.0
603.85,87.0
603.92,78.0
603.98,103.0
604.04,118.0
604.11,103.0
604.17,93.0
604.23,102.0
604.3,102.0
604.36,99.0
604.42,118.0
604.48,138.0
604.55,104.0
604.61,134.0
604.67,147.0
604.74,145.0
604.8,150.0
604.86,148.0
604.93,158.0
604.99,161.0
605.05,165.0
605.11,177.0
605.18,173.0
605.24,168.0
605.3,173.0
605.37,150.0
605.43,152.0
605.49,159.0
605.56,148.0
605.62,140.0
605.68,146.0
605.74,158.0
605.81,143.0
605.87,147.0
605.93,151.0
606.0,147.0
606.06,154.0
606.12,130.0
606.19,160.0
606.25,164.0
606.31,156.0
606.37,162.0
606.44,151.0
606.5,132.0
606.56,149.0
606.63,140.0
606.69,122.0
606.75,145.0
606.82,146.0
606.88,148.0
606.94,128.0
607.0,136.0
607.07,127.0
607.13,137.0
607.19,127.0
607.26,125.0
607.32,139.0
607.38,128.0
607.45,133.0
607.51,131.0
607.57,142.0
607.63,132.0
607.7,94.0
607.76,99.0
607.82,134.0
607.89,107.0
607.95,107.0
608.01,118.0
608.08,93.0
608.14,89.0
608.2,76.0
608.26,67.0
608.33,76.0
608.39,65.0
608.45,51.0
608.52,49.0
608.58,51.0
608.64,60.0
608.71,74.0
608.77,65.0
608.83,75.0
608.89,55.0
608.96,64.0
609.02,42.0
609.08,52.0
609.15,55.0
609.21,63.0
609.27,56.0
609.34,60.0
609.4,68.0
609.46,70.0
609.52,67.0
609.59,66.0
609.65,70.0
609.71,77.0
609.78,66.0
609.84,76.0
609.9,73.0
609.97,67.0
610.03,87.0
610.09,76.0
610.15,54.0
610.22,63.0
610.28,44.0
610.34,27.0
610.41,56.0
610.47,68.0
610.53,63.0
610.6,91.0
610.66,83.0
610.72,85.0
610.78,96.0
610.85,94.0
610.91,101.0
610.97,97.0
611.04,104.0
611.1,106.0
611.16,88.0
611.23,120.0
611.29,113.0
611.35,119.0
611.41,112.0
611.48,131.0
611.54,124.0
611.6,119.0
611.67,120.0
611.73,124.0
611.79,128.0
611.86,136.0
611.92,140.0
611.98,133.0
612.04,152.0
612.11,140.0
612.17,135.0
612.23,137.0
612.3,140.0
612.36,171.0
612.42,154.0
612.49,140.0
612.55,163.0
612.61,140.0
612.67,139.0
612.74,145.0
612.8,142.0
612.86,150.0
612.93,136.0
612.99,156.0
613.05,169.0
613.12,134.0
613.18,114.0
613.24,137.0
613.3,157.0
613.37,168.0
613.43,168.0
613.49,166.0
613.56,166.0
613.62,150.0
613.68,154.0
613.75,162.0
613.81,170.0
613.87,174.0
613.93,184.0
614.0,176.0
614.06,173.0
614.12,181.0
614.19,170.0
614.25,176.0
614.31,172.0
614.38,162.0
614.44,166.0
614.5,166.0
614.56,159.0
614.63,147.0
614.69,161.0
614.75,140.0
614.82,136.0
614.88,140.0
614.94,129.0
615.01,141.0
615.07,133.0
615.13,142.0
615.19,141.0
615.26,136.0
615.32,143.0
615.38,156.0
615.45,160.0
615.51,119.0
615.57,142.0
615.64,145.0
615.7,165.0
615.76,144.0
615.82,146.0
615.89,140.0
615.95,161.0
616.01,167.0
616.08,154.0
616.14,156.0
616.2,155.0
616.27,162.0
616.33,166.0
616.39,150.0
616.45,151.0
616.52,137.0
616.58,136.0
616.64,138.0
616.71,145.0
616.77,160.0
616.83,157.0
616.9,146.0
616.96,133.0
617.02,132.0
617.08,140.0
617.15,133.0
617.21,143.0
617.27,139.0
617.34,149.0
617.4,124.0
617.46,130.0
617.53,125.0
617.59,128.0
617.65,113.0
617.71,111.0
617.78,104.0
617.84,95.0
617.9,91.0
617.97,87.0
618.03,85.0
618.09,96.0
618.16,90.0
618.22,86.0
618.28,70.0
618.34,66.0
618.41,75.0
618.47,74.0
618.53,77.0
618.6,85.0
618.66,93.0
618.72,84.0
618.79,73.0
618.85,51.0
618.91,54.0
618.97,90.0
619.04,88.0
619.1,76.0
619.16,58.0
619.23,54.0
619.29,69.0
619.35,60.0
619.42,50.0
619.48,70.0
619.54,90.0
619.6,69.0
619.67,65.0
619.73,67.0
619.79,49.0
619.86,67.0
619.92,39.0
619.98,48.0
620.05,69.0
620.11,68.0
620.17,62.0
620.23,58.0
620.3,83.0
620.36,95.0
620.42,98.0
620.49,79.0
620.55,79.0
620.61,100.0
620.68,87.0
620.74,105.0
620.8,79.0
620.86,108.0
620.93,108.0
620.99,110.0
621.05,101.0
621.12,116.0
621.18,118.0
621.24,125.0
621.31,131.0
621.37,110.0
621.43,112.0
621.49,107.0
621.56,109.0
621.62,122.0
621.68,124.0
621.75,119.0
621.81,103.0
621.87,112.0
621.94,126.0
622.0,114.0
622.06,101.0
622.12,111.0
622.19,112.0
622.25,104.0
622.31,111.0
622.38,81.0
622.44,115.0
622.5,128.0
622.57,107.0
622.63,129.0
622.69,121.0
622.75,133.0
622.82,123.0
622.88,115.0
622.94,107.0
623.01,130.0
623.07,113.0
623.13,117.0
623.2,135.0
623.26,137.0
623.32,136.0
623.38,134.0
623.45,121.0
623.51,117.0
623.57,92.0
623.64,89.0
623.7,87.0
623.76,86.0
623.83,97.0
623.89,89.0
623.95,95.0
624.01,112.0
624.08,99.0
624.14,103.0
624.2,75.0
624.27,78.0
624.33,88.0
624.39,99.0
624.46,103.0
624.52,99.0
624.58,83.0
624.64,86.0
624.71,85.0
624.77,82.0
624.83,85.0
624.9,96.0
624.96,96.0
625.02,96.0
625.09,87.0
625.15,66.0
625.21,70.0
625.27,62.0
625.34,54.0
625.4,62.0
625.46,34.0
625.53,33.0
625.59,44.0
625.65,32.0
625.72,32.0
625.78,46.0
625.84,58.0
625.9,46.0
625.97,27.0
626.03,30.0
626.09,30.0
626.16,30.0
626.22,24.0
626.28,38.0
626.35,41.0
626.41,20.0
626.47,18.0
626.53,14.0
626.6,8.0
626.66,19.0
626.72,24.0
626.79,34.0
626.85,34.0
626.91,40.0
626.98,37.0
627.04,46.0
627.1,46.0
627.16,52.0
627.23,60.0
627.29,57.0
627.35,63.0
627.42,62.0
627.48,61.0
627.54,37.0
627.61,40.0
627.67,55.0
627.73,41.0
627.79,59.0
627.86,60.0
627.92,61.0
627.98,56.0
628.05,49.0
628.11,67.0
628.17,88.0
628.24,102.0
628.3,77.0
628.36,86.0
628.42,85.0
628.49,72.0
628.55,74.0
628.61,74.0
628.68,81.0
628.74,70.0
628.8,74.0
628.87,92.0
628.93,105.0
628.99,96.0
629.05,92.0
629.12,103.0
629.18,91.0
629.24,76.0
629.31,103.0
629.37,123.0
629.43,114.0
629.5,100.0
629.56,96.0
629.62,90.0
629.68,99.0
629.75,110.0
629.81,129.0
629.87,101.0
629.94,99.0
630.0,116.0
630.06,115.0
630.13,93.0
630.19,99.0
630.25,101.0
630.31,107.0
630.38,109.0
630.44,101.0
630.5,114.0
630.57,98.0
630.63,95.0
630.69,106.0
630.76,107.0
630.82,108.0
630.88,115.0
630.94,102.0
631.01,119.0
631.07,148.0
631.13,145.0
631.2,115.0
631.26,149.0
631.32,124.0
631.39,116.0
631.45,117.0
631.51,124.0
631.57,154.0
631.64,134.0
631.7,121.0
631.76,104.0
631.83,102.0
631.89,98.0
631.95,111.0
632.02,104.0
632.08,112.0
632.14,113.0
632.2,102.0
632.27,97.0
632.33,87.0
632.39,83.0
632.46,106.0
632.52,106.0
632.58,106.0
632.65,103.0
632.71,107.0
632.77,108.0
632.83,84.0
632.9,81.0
632.96,80.0
633.02,112.0
633.09,99.0
633.15,88.0
633.21,81.0
633.28,99.0
633.34,117.0
633.4,93.0
633.46,85.0
633.53,75.0
633.59,84.0
633.65,91.0
633.72,80.0
633.78,92.0
633.84,85.0
633.91,75.0
633.97,93.0
634.03,93.0
634.09,75.0
634.16,86.0
634.22,83.0
634.28,71.0
634.35,52.0
634.41,53.0
634.47,41.0
634.54,49.0
634.6,48.0
634.66,24.0
634.72,41.0
634.79,44.0
634.85,13.0
634.91,2.0
634.98,1.0
635.04,16.0
635.1,-6.0
635.17,6.0
635.23,8.0
635.29,23.0
635.35,26.0
635.42,3.0
635.48,-4.0
635.54,-11.0
635.61,-13.0
635.67,-14.0
635.73,-5.0
635.8,16.0
635.86,-5.0
635.92,-18.0
635.98,-1.0
636.05,-3.0
636.11,-2.0
636.17,9.0
636.24,15.0
636.3,11.0
636.36,18.0
636.43,16.0
636.49,18.0
636.55,19.0
636.61,7.0
636.68,13.0
636.74,37.0
636.8,45.0
636.87,43.0
636.93,33.0
636.99,38.0
637.06,45.0
637.12,48.0
637.18,24.0
637.24,35.0
637.31,38.0
637.37,56.0
637.43,57.0
637.5,71.0
637.56,71.0
637.62,55.0
637.69,52.0
637.75,44.0
637.81,59.0
637.87,78.0
637.94,72.0
638.0,70.0
638.06,68.0
638.13,82.0
638.19,78.0
638.25,75.0
638.32,58.0
638.38,73.0
638.44,95.0
638.5,81.0
638.57,91.0
638.63,96.0
638.69,106.0
638.76,108.0
638.82,103.0
638.88,99.0
638.95,101.0
639.01,98.0
639.07,102.0
639.13,104.0
639.2,95.0
639.26,117.0
639.32,115.0
639.39,104.0
639.45,108.0
639.51,89.0
639.58,77.0
639.64,101.0
639.7,108.0
639.76,113.0
639.83,106.0
639.89,97.0
639.95,117.0
640.02,98.0
640.08,112.0
640.14,103.0
640.21,116.0
640.27,110.0
640.33,109.0
640.39,115.0
640.46,123.0
640.52,113.0
640.58,127.0
640.65,132.0
640.71,118.0
640.77,114.0
640.84,112.0
640.9,108.0
640.96,98.0
641.02,122.0
641.09,122.0
641.15,110.0
641.21,112.0
641.28,132.0
641.34,128.0
641.4,117.0
641.47,120.0
641.53,126.0
641.59,126.0
641.65,115.0
641.72,107.0
641.78,109.0
641.84,111.0
641.91,105.0
641.97,94.0
642.03,93.0
642.1,136.0
642.16,98.0
642.22,85.0
642.28,104.0
642.35,101.0
642.41,97.0
642.47,104.0
642.54,107.0
642.6,111.0
642.66,121.0
642.73,104.0
642.79,111.0
642.85,112.0
642.91,129.0
642.98,112.0
643.04,103.0
643.1,95.0
643.17,101.0
643.23,129.0
643.29,96.0
643.36,104.0
643.42,112.0
643.48,117.0
643.54,120.0
643.61,122.0
643.67,115.0
643.73,133.0
643.8,126.0
643.86,112.0
643.92,103.0
643.99,118.0
644.05,129.0
644.11,115.0
644.17,124.0
644.24,127.0
644.3,138.0
644.36,131.0
644.43,121.0
644.49,121.0
644.55,118.0
644.62,110.0
644.68,122.0
644.74,113.0
644.8,108.0
644.87,106.0
644.93,129.0
644.99,126.0
645.06,121.0
645.12,142.0
645.18,151.0
645.25,141.0
645.31,136.0
645.37,136.0
645.43,154.0
645.5,150.0
645.56,136.0
645.62,134.0
645.69,154.0
645.75,148.0
645.81,165.0
645.88,181.0
645.94,168.0
646.0,157.0
646.06,157.0
646.13,170.0
646.19,169.0
646.25,155.0
646.32,162.0
646.38,170.0
646.44,172.0
646.51,180.0
646.57,175.0
646.63,176.0
646.69,191.0
646.76,189.0
646.82,180.0
646.88,172.0
646.95,169.0
647.01,190.0
647.07,192.0
647.14,185.0
647.2,181.0
647.26,173.0
647.32,165.0
647.39,165.0
647.45,161.0
647.51,145.0
647.58,170.0
647.64,174.0
647.7,154.0
647.77,163.0
647.83,168.0
647.89,163.0
647.95,153.0
648.02,169.0
648.08,177.0
648.14,178.0
648.21,194.0
648.27,172.0
648.33,169.0
648.4,162.0
648.46,149.0
648.52,148.0
648.58,133.0
648.65,146.0
648.71,124.0
648.77,129.0
648.84,128.0
648.9,136.0
648.96,121.0
649.03,100.0
649.09,126.0
649.15,126.0
649.21,135.0
649.28,139.0
649.34,131.0
649.4,134.0
649.47,128.0
649.53,128.0
649.59,136.0
649.66,122.0
649.72,115.0
649.78,137.0
649.84,125.0
649.91,139.0
649.97,112.0
650.03,108.0
650.1,116.0
650.16,110.0
650.22,101.0
650.29,79.0
650.35,107.0
650.41,92.0
650.47,67.0
650.54,64.0
650.6,59.0
650.66,56.0
650.73,46.0
650.79,44.0
650.85,27.0
650.92,29.0
650.98,51.0
651.04,44.0
651.1,33.0
651.17,26.0
651.23,26.0
651.29,25.0
651.36,25.0
651.42,24.0
651.48,24.0
651.55,32.0
651.61,37.0
651.67,23.0
651.73,30.0
651.8,23.0
651.86,24.0
651.92,32.0
651.99,20.0
652.05,19.0
652.11,9.0
652.18,14.0
652.24,21.0
652.3,-9.0
652.36,-8.0
652.43,-9.0
652.49,-11.0
652.55,-17.0
652.62,-13.0
652.68,-8.0
652.74,12.0
652.81,35.0
652.87,23.0
652.93,18.0
652.99,41.0
653.06,25.0
653.12,15.0
653.18,14.0
653.25,29.0
653.31,48.0
653.37,36.0
653.44,31.0
653.5,37.0
653.56,40.0
653.62,36.0
653.69,58.0
653.75,77.0
653.81,58.0
653.88,56.0
653.94,62.0
654.0,62.0
654.07,54.0
654.13,69.0
654.19,59.0
654.25,66.0
654.32,69.0
654.38,55.0
654.44,61.0
654.51,64.0
654.57,58.0
654.63,55.0
654.7,44.0
654.76,61.0
654.82,68.0
654.88,73.0
654.95,78.0
655.01,86.0
655.07,84.0
655.14,78.0
655.2,87.0
655.26,91.0
655.33,93.0
655.39,88.0
655.45,122.0
655.51,108.0
655.58,128.0
655.64,136.0
655.7,112.0
655.77,117.0
655.83,117.0
655.89,115.0
655.96,128.0
656.02,124.0
656.08,128.0
656.14,127.0
656.21,117.0
656.27,130.0
656.33,108.0
656.4,105.0
656.46,97.0
656.52,95.0
656.59,90.0
656.65,110.0
656.71,124.0
656.77,123.0
656.84,111.0
656.9,120.0
656.96,122.0
657.03,131.0
657.09,137.0
657.15,133.0
657.22,152.0
657.28,121.0
657.34,101.0
657.4,109.0
657.47,123.0
657.53,108.0
657.59,109.0
657.66,102.0
657.72,125.0
657.78,128.0
657.85,89.0
657.91,69.0
657.97,105.0
658.03,91.0
658.1,78.0
658.16,92.0
658.22,82.0
658.29,93.0
658.35,71.0
658.41,71.0
658.48,75.0
658.54,81.0
658.6,86.0
658.66,102.0
658.73,96.0
658.79,58.0
658.85,73.0
658.92,80.0
658.98,67.0
659.04,80.0
659.11,73.0
659.17,72.0
659.23,84.0
659.29,96.0
659.36,84.0
659.42,77.0
659.48,76.0
659.55,82.0
659.61,86.0
659.67,75.0
659.74,72.0
659.8,79.0
659.86,70.0
659.92,83.0
659.99,84.0
660.05,61.0
660.11,50.0
660.18,69.0
660.24,65.0
660.3,67.0
660.37,66.0
660.43,84.0
660.49,88.0
660.55,101.0
660.62,79.0
660.68,70.0
660.74,92.0
660.81,77.0
660.87,88.0
660.93,96.0
661.0,86.0
661.06,86.0
661.12,74.0
661.18,80.0
661.25,81.0
661.31,91.0
661.37,94.0
661.44,102.0
661.5,97.0
661.56,124.0
661.63,119.0
661.69,127.0
661.75,133.0
661.81,131.0
661.88,125.0
661.94,124.0
662.0,122.0
662.07,133.0
662.13,114.0
662.19,130.0
662.26,127.0
662.32,146.0
662.38,138.0
662.44,134.0
662.51,151.0
662.57,146.0
662.63,139.0
662.7,142.0
662.76,139.0
662.82,143.0
662.89,132.0
662.95,136.0
663.01,142.0
663.07,117.0
663.14,123.0
663.2,122.0
663.26,131.0
663.33,125.0
663.39,142.0
663.45,154.0
663.52,175.0
663.58,183.0
663.64,165.0
663.7,169.0
663.77,164.0
663.83,169.0
663.89,150.0
663.96,160.0
664.02,174.0
664.08,163.0
664.15,166.0
664.21,154.0
664.27,147.0
664.33,151.0
664.4,131.0
664.46,143.0
664.52,165.0
664.59,158.0
664.65,135.0
664.71,132.0
664.78,136.0
664.84,136.0
664.9,133.0
664.96,164.0
665.03,158.0
665.09,127.0
665.15,130.0
665.22,131.0
665.28,110.0
665.34,125.0
665.41,145.0
665.47,139.0
665.53,162.0
665.59,163.0
665.66,156.0
665.72,150.0
665.78,146.0
665.85,157.0
665.91,138.0
665.97,147.0
666.04,130.0
666.1,98.0
666.16,105.0
666.22,103.0
666.29,115.0
666.35,106.0
666.41,116.0
666.48,135.0
666.54,114.0
666.6,131.0
666.67,112.0
666.73,116.0
666.79,90.0
666.85,104.0
666.92,124.0
666.98,103.0
667.04,110.0
667.11,95.0
667.17,84.0
667.23,88.0
667.3,80.0
667.36,69.0
667.42,74.0
667.48,84.0
667.55,84.0
667.61,82.0
667.67,80.0
667.74,85.0
667.8,77.0
667.86,80.0
667.93,76.0
667.99,79.0
668.05,78.0
668.11,69.0
668.18,71.0
668.24,58.0
668.3,58.0
668.37,46.0
668.43,44.0
668.49,55.0
668.56,78.0
668.62,96.0
668.68,67.0
668.74,51.0
668.81,36.0
668.87,52.0
668.93,41.0
669.0,39.0
669.06,39.0
669.12,59.0
669.19,51.0
669.25,22.0
669.31,38.0
669.37,34.0
669.44,36.0
669.5,22.0
669.56,37.0
669.63,37.0
669.69,31.0
669.75,19.0
669.82,38.0
669.88,51.0
669.94,58.0
670.0,47.0
670.07,62.0
670.13,43.0
670.19,50.0
670.26,54.0
670.32,44.0
670.38,29.0
670.45,48.0
670.51,47.0
670.57,44.0
670.63,38.0
670.7,42.0
670.76,55.0
670.82,50.0
670.89,56.0
670.95,69.0
671.01,71.0
671.08,83.0
671.14,101.0
671.2,108.0
671.26,95.0
671.33,95.0
671.39,90.0
671.45,97.0
671.52,95.0
671.58,79.0
671.64,100.0
671.71,103.0
671.77,99.0
671.83,92.0
671.89,100.0
671.96,111.0
672.02,101.0
672.08,89.0
672.15,97.0
672.21,95.0
672.27,83.0
672.34,103.0
672.4,111.0
672.46,115.0
672.52,118.0
672.59,126.0
672.65,161.0
672.71,133.0
672.78,136.0
672.84,142.0
672.9,155.0
672.97,128.0
673.03,138.0
673.09,140.0
673.15,123.0
673.22,135.0
673.28,129.0
673.34,143.0
673.41,142.0
673.47,158.0
673.53,153.0
673.6,148.0
673.66,138.0
673.72,146.0
673.78,124.0
673.85,144.0
673.91,149.0
673.97,138.0
674.04,131.0
674.1,110.0
674.16,116.0
674.23,122.0
674.29,123.0
674.35,121.0
674.41,125.0
674.48,147.0
674.54,137.0
674.6,142.0
674.67,130.0
674.73,122.0
674.79,127.0
674.86,116.0
674.92,106.0
674.98,105.0
675.04,91.0
675.11,102.0
675.17,96.0
675.23,95.0
675.3,82.0
675.36,101.0
675.42,76.0
675.49,55.0
675.55,68.0
675.61,62.0
675.67,89.0
675.74,72.0
675.8,61.0
675.86,45.0
675.93,47.0
675.99,53.0
676.05,52.0
676.12,52.0
676.18,40.0
676.24,61.0
676.3,38.0
676.37,54.0
676.43,62.0
676.49,66.0
676.56,49.0
676.62,73.0
676.68,65.0
676.75,59.0
676.81,57.0
676.87,45.0
676.93,50.0
677.0,60.0
677.06,62.0
677.12,50.0
677.19,51.0
677.25,55.0
677.31,53.0
677.38,62.0
677.44,79.0
677.5,52.0
677.56,57.0
677.63,61.0
677.69,49.0
677.75,64.0
677.82,60.0
677.88,59.0
677.94,53.0
678.01,56.0
678.07,55.0
678.13,60.0
678.19,65.0
678.26,70.0
678.32,71.0
678.38,65.0
678.45,78.0
678.51,69.0
678.57,73.0
678.64,90.0
678.7,100.0
678.76,102.0
678.82,113.0
678.89,128.0
678.95,123.0
679.01,125.0
679.08,134.0
679.14,129.0
679.2,129.0
679.27,114.0
679.33,108.0
679.39,139.0
679.45,128.0
679.52,135.0
679.58,123.0
679.64,119.0
679.71,112.0
679.77,101.0
679.83,116.0
679.9,124.0
679.96,123.0
680.02,125.0
680.08,131.0
680.15,122.0
680.21,131.0
680.27,120.0
680.34,128.0
680.4,104.0
680.46,113.0
680.53,124.0
680.59,103.0
680.65,113.0
680.71,116.0
680.78,119.0
680.84,141.0
680.9,135.0
680.97,141.0
681.03,147.0
681.09,147.0
681.16,158.0
681.22,152.0
681.28,150.0
681.34,152.0
681.41,131.0
681.47,143.0
681.53,157.0
681.6,168.0
681.66,165.0
681.72,150.0
681.79,129.0
681.85,149.0
681.91,154.0
681.97,135.0
682.04,132.0
682.1,142.0
682.16,133.0
682.23,137.0
682.29,135.0
682.35,114.0
682.42,130.0
682.48,134.0
682.54,141.0
682.6,132.0
682.67,121.0
682.73,138.0
682.79,136.0
682.86,132.0
682.92,144.0
682.98,134.0
683.05,119.0
683.11,137.0
683.17,134.0
683.23,130.0
683.3,148.0
683.36,147.0
683.42,126.0
683.49,145.0
683.55,129.0
683.61,117.0
683.68,108.0
683.74,101.0
683.8,95.0
683.86,79.0
683.93,97.0
683.99,96.0
684.05,85.0
684.12,99.0
684.18,75.0
684.24,73.0
684.31,67.0
684.37,76.0
684.43,77.0
684.49,66.0
684.56,66.0
684.62,54.0
684.68,58.0
684.75,73.0
684.81,65.0
684.87,50.0
684.94,55.0
685.0,44.0
685.06,38.0
685.12,44.0
685.19,42.0
685.25,54.0
685.31,54.0
685.38,30.0
685.44,30.0
685.5,39.0
685.57,27.0
685.63,7.0
685.69,14.0
685.75,11.0
685.82,11.0
685.88,10.0
685.94,14.0
686.01,8.0
686.07,-20.0
686.13,-10.0
686.2,-17.0
686.26,16.0
686.32,16.0
686.38,21.0
686.45,38.0
686.51,23.0
686.57,12.0
686.64,19.0
686.7,23.0
686.76,11.0
686.83,17.0
686.89,22.0
686.95,27.0
687.01,4.0
687.08,19.0
687.14,35.0
687.2,19.0
687.27,1.0
687.33,22.0
687.39,37.0
687.46,27.0
687.52,37.0
687.58,43.0
687.64,29.0
687.71,27.0
687.77,49.0
687.83,52.0
687.9,36.0
687.96,38.0
688.02,35.0
688.09,53.0
688.15,60.0
688.21,46.0
688.27,56.0
688.34,62.0
688.4,60.0
688.46,52.0
688.53,75.0
688.59,87.0
688.65,84.0
688.72,48.0
688.78,67.0
688.84,96.0
688.9,91.0
688.97,75.0
689.03,95.0
689.09,101.0
689.16,132.0
689.22,133.0
689.28,108.0
689.35,134.0
689.41,121.0
689.47,108.0
689.53,111.0
689.6,125.0
689.66,109.0
689.72,112.0
689.79,108.0
689.85,102.0
689.91,108.0
689.98,104.0
690.04,102.0
690.1,105.0
690.16,115.0
690.23,123.0
690.29,119.0
690.35,126.0
690.42,122.0
690.48,117.0
690.54,106.0
690.61,104.0
690.67,117.0
690.73,106.0
690.79,107.0
690.86,124.0
690.92,107.0
690.98,89.0
691.05,86.0
691.11,103.0
691.17,103.0
691.24,85.0
691.3,76.0
691.36,88.0
691.42,87.0
691.49,69.0
691.55,82.0
691.61,95.0
691.68,84.0
691.74,93.0
691.8,89.0
691.87,101.0
691.93,108.0
691.99,109.0
692.05,101.0
692.12,109.0
692.18,127.0
692.24,110.0
692.31,105.0
692.37,97.0
692.43,92.0
692.5,82.0
692.56,100.0
692.62,80.0
692.68,97.0
692.75,122.0
692.81,113.0
692.87,117.0
692.94,90.0
693.0,100.0
693.06,96.0
693.13,93.0
693.19,86.0
693.25,92.0
693.31,87.0
693.38,72.0
693.44,86.0
693.5,85.0
693.57,101.0
693.63,115.0
693.69,98.0
693.76,90.0
693.82,98.0
693.88,96.0
693.94,75.0
694.01,93.0
694.07,122.0
694.13,134.0
694.2,131.0
694.26,114.0
694.32,115.0
694.39,117.0
694.45,120.0
694.51,124.0
694.57,112.0
694.64,109.0
694.7,140.0
694.76,120.0
694.83,131.0
694.89,155.0
694.95,146.0
695.02,127.0
695.08,112.0
695.14,128.0
695.2,130.0
695.27,148.0
695.33,141.0
695.39,133.0
695.46,135.0
695.52,139.0
695.58,140.0
695.65,148.0
695.71,153.0
695.77,145.0
695.83,152.0
695.9,141.0
695.96,146.0
696.02,158.0
696.09,142.0
696.15,150.0
696.21,176.0
696.28,164.0
696.34,184.0
696.4,171.0
696.46,194.0
696.53,166.0
696.59,155.0
696.65,186.0
696.72,179.0
696.78,186.0
696.84,187.0
696.91,201.0
696.97,181.0
697.03,160.0
697.09,180.0
697.16,194.0
697.22,194.0
697.28,203.0
697.35,213.0
697.41,181.0
697.47,182.0
697.54,205.0
697.6,185.0
697.66,186.0
697.72,200.0
697.79,205.0
697.85,177.0
697.91,192.0
697.98,182.0
698.04,203.0
698.1,197.0
698.17,188.0
698.23,203.0
698.29,227.0
698.35,225.0
698.42,188.0
698.48,180.0
698.54,220.0
698.61,216.0
698.67,206.0
698.73,201.0
698.8,218.0
698.86,199.0
698.92,233.0
698.98,221.0
699.05,221.0
699.11,203.0
699.17,230.0
699.24,235.0
699.3,213.0
699.36,211.0
699.43,224.0
699.49,214.0
699.55,210.0
699.61,188.0
699.68,206.0
699.74,202.0
699.8,191.0
699.87,203.0
699.93,183.0
699.99,197.0
700.06,186.0
700.12,183.0
700.18,196.0
700.24,191.0
700.31,181.0
700.37,173.0
700.43,190.0
700.5,159.0
700.56,168.0
700.62,161.0
700.69,179.0
700.75,180.0
700.81,181.0
700.87,177.0
700.94,159.0
701.0,160.0
701.06,166.0
701.13,168.0
701.19,143.0
701.25,146.0
701.32,136.0
701.38,122.0
701.44,126.0
701.5,117.0
701.57,93.0
701.63,103.0
701.69,86.0
701.76,115.0
701.82,108.0
701.88,112.0
701.95,128.0
702.01,119.0
702.07,91.0
702.13,90.0
702.2,87.0
702.26,84.0
702.32,79.0
702.39,60.0
702.45,76.0
702.51,73.0
702.58,83.0
702.64,74.0
702.7,78.0
702.76,93.0
702.83,76.0
702.89,58.0
702.95,68.0
703.02,76.0
703.08,75.0
703.14,82.0
703.21,73.0
703.27,108.0
703.33,109.0
703.39,96.0
703.46,97.0
703.52,84.0
703.58,83.0
703.65,81.0
703.71,76.0
703.77,92.0
703.84,98.0
703.9,92.0
703.96,89.0
704.02,84.0
704.09,92.0
704.15,101.0
704.21,75.0
704.28,85.0
704.34,79.0
704.4,90.0
704.47,96.0
704.53,92.0
704.59,97.0
704.65,109.0
704.72,109.0
704.78,98.0
704.84,114.0
704.91,112.0
704.97,94.0
705.03,106.0
705.1,111.0
705.16,113.0
705.22,114.0
705.28,122.0
705.35,115.0
705.41,113.0
705.47,89.0
705.54,98.0
705.6,108.0
705.66,104.0
705.73,114.0
705.79,127.0
705.85,125.0
705.91,125.0
705.98,125.0
706.04,137.0
706.1,128.0
706.17,103.0
706.23,102.0
706.29,119.0
706.36,122.0
706.42,112.0
706.48,120.0
706.54,115.0
706.61,127.0
706.67,116.0
706.73,115.0
706.8,113.0
706.86,97.0
706.92,122.0
706.99,133.0
707.05,117.0
707.11,125.0
707.17,119.0
707.24,115.0
707.3,132.0
707.36,122.0
707.43,114.0
707.49,108.0
707.55,121.0
707.62,123.0
707.68,124.0
707.74,105.0
707.8,99.0
707.87,103.0
707.93,109.0
707.99,103.0
708.06,103.0
708.12,96.0
708.18,89.0
708.25,96.0
708.31,98.0
708.37,108.0
708.43,114.0
708.5,107.0
708.56,123.0
708.62,142.0
708.69,126.0
708.75,128.0
708.81,128.0
708.88,132.0
708.94,148.0
709.0,145.0
709.06,112.0
709.13,121.0
709.19,126.0
709.25,120.0
709.32,115.0
709.38,115.0
709.44,137.0
709.51,128.0
709.57,108.0
709.63,139.0
709.69,129.0
709.76,125.0
709.82,125.0
709.88,137.0
709.95,146.0
710.01,113.0
710.07,126.0
710.14,127.0
710.2,119.0
710.26,104.0
710.32,113.0
710.39,114.0
710.45,107.0
710.51,109.0
710.58,135.0
710.64,152.0
710.7,129.0
710.77,135.0
710.83,133.0
710.89,129.0
710.95,122.0
711.02,127.0
711.08,148.0
711.14,128.0
711.21,112.0
711.27,122.0
711.33,87.0
711.4,104.0
711.46,115.0
711.52,104.0
711.58,96.0
711.65,89.0
711.71,115.0
711.77,118.0
711.84,114.0
711.9,93.0
711.96,101.0
712.03,92.0
712.09,86.0
712.15,107.0
712.21,115.0
712.28,119.0
712.34,96.0
712.4,82.0
712.47,100.0
712.53,89.0
712.59,86.0
712.66,81.0
712.72,81.0
712.78,84.0
712.84,95.0
712.91,81.0
712.97,82.0
713.03,71.0
713.1,77.0
713.16,82.0
713.22,81.0
713.29,96.0
713.35,85.0
713.41,96.0
713.47,100.0
713.54,99.0
713.6,118.0
713.66,120.0
713.73,112.0
713.79,114.0
713.85,118.0
713.92,122.0
713.98,133.0
714.04,109.0
714.1,133.0
714.17,127.0
714.23,153.0
714.29,140.0
714.36,119.0
714.42,122.0
714.48,116.0
714.55,125.0
714.61,129.0
714.67,129.0
714.73,124.0
714.8,132.0
714.86,115.0
714.92,117.0
714.99,129.0
715.05,104.0
715.11,137.0
715.18,117.0
715.24,129.0
715.3,121.0
715.36,130.0
715.43,133.0
715.49,119.0
715.55,126.0
715.62,131.0
715.68,142.0
715.74,138.0
715.81,157.0
715.87,128.0
715.93,137.0
715.99,114.0
716.06,129.0
716.12,133.0
716.18,110.0
716.25,115.0
716.31,114.0
716.37,112.0
716.44,113.0
716.5,133.0
716.56,117.0
716.62,112.0
716.69,112.0
716.75,111.0
716.81,111.0
716.88,99.0
716.94,117.0
717.0,104.0
717.07,115.0
717.13,108.0
717.19,103.0
717.25,107.0
717.32,100.0
717.38,93.0
717.44,78.0
717.51,100.0
717.57,104.0
717.63,80.0
717.7,88.0
717.76,92.0
717.82,96.0
717.88,95.0
717.95,90.0
718.01,60.0
718.07,38.0
718.14,55.0
718.2,61.0
718.26,49.0
718.33,78.0
718.39,69.0
718.45,65.0
718.51,59.0
718.58,60.0
718.64,44.0
718.7,45.0
718.77,56.0
718.83,31.0
718.89,28.0
718.96,37.0
719.02,52.0
719.08,29.0
719.14,29.0
719.21,28.0
719.27,0.0
719.33,26.0
719.4,14.0
719.46,26.0
719.52,36.0
719.59,26.0
719.65,30.0
719.71,44.0
719.77,29.0
719.84,21.0
719.9,35.0
719.96,41.0
720.03,43.0
720.09,41.0
720.15,13.0
720.22,31.0
720.28,21.0
720.34,35.0
720.4,41.0
720.47,7.0
720.53,36.0
720.59,19.0
720.66,21.0
720.72,32.0
720.78,27.0
720.85,20.0
720.91,20.0
720.97,11.0
721.03,23.0
721.1,23.0
721.16,22.0
721.22,33.0
721.29,34.0
721.35,16.0
721.41,32.0
721.48,23.0
721.54,24.0
721.6,26.0
721.66,29.0
721.73,20.0
721.79,24.0
721.85,42.0
721.92,60.0
721.98,53.0
722.04,64.0
722.11,82.0
722.17,67.0
722.23,93.0
722.29,90.0
722.36,95.0
722.42,95.0
722.48,89.0
722.55,75.0
722.61,78.0
722.67,97.0
722.74,100.0
722.8,113.0
722.86,98.0
722.92,111.0
722.99,112.0
723.05,100.0
723.11,100.0
723.18,97.0
723.24,114.0
723.3,120.0
723.37,117.0
723.43,136.0
723.49,140.0
723.55,118.0
723.62,114.0
723.68,132.0
723.74,124.0
723.81,134.0
723.87,133.0
723.93,132.0
724.0,136.0
724.06,129.0
724.12,126.0
724.18,117.0
724.25,129.0
724.31,141.0
724.37,144.0
724.44,115.0
724.5,136.0
724.56,129.0
724.63,136.0
724.69,130.0
724.75,121.0
724.81,119.0
724.88,111.0
724.94,126.0
725.0,129.0
725.07,127.0
725.13,132.0
725.19,104.0
725.26,123.0
725.32,115.0
725.38,107.0
725.44,100.0
725.51,103.0
725.57,105.0
725.63,89.0
725.7,103.0
725.76,107.0
725.82,97.0
725.89,100.0
725.95,108.0
726.01,106.0
726.07,93.0
726.14,93.0
726.2,112.0
726.26,111.0
726.33,110.0
726.39,115.0
726.45,119.0
726.52,118.0
726.58,141.0
726.64,133.0
726.7,121.0
726.77,108.0
726.83,100.0
726.89,78.0
726.96,69.0
727.02,87.0
727.08,84.0
727.15,84.0
727.21,75.0
727.27,70.0
727.33,78.0
727.4,74.0
727.46,88.0
727.52,86.0
727.59,102.0
727.65,110.0
727.71,109.0
727.78,101.0
727.84,89.0
727.9,99.0
727.96,83.0
728.03,99.0
728.09,93.0
728.15,86.0
728.22,92.0
728.28,108.0
728.34,98.0
728.41,96.0
728.47,107.0
728.53,76.0
728.59,94.0
728.66,80.0
728.72,76.0
728.78,80.0
728.85,84.0
728.91,84.0
728.97,70.0
729.04,81.0
729.1,70.0
729.16,80.0
729.22,82.0
729.29,90.0
729.35,102.0
729.41,74.0
729.48,88.0
729.54,65.0
729.6,74.0
729.67,71.0
729.73,68.0
729.79,73.0
729.85,99.0
729.92,113.0
729.98,106.0
730.04,93.0
730.11,85.0
730.17,74.0
730.23,83.0
730.3,96.0
730.36,102.0
730.42,108.0
730.48,99.0
730.55,110.0
730.61,135.0
730.67,120.0
730.74,103.0
730.8,108.0
730.86,119.0
730.93,124.0
730.99,127.0
731.05,141.0
731.11,137.0
731.18,137.0
731.24,137.0
731.3,115.0
731.37,113.0
731.43,108.0
731.49,117.0
731.56,110.0
731.62,111.0
731.68,114.0
731.74,103.0
731.81,117.0
731.87,109.0
731.93,120.0
732.0,130.0
732.06,118.0
732.12,129.0
732.19,146.0
732.25,139.0
732.31,133.0
732.37,144.0
732.44,131.0
732.5,134.0
732.56,151.0
732.63,152.0
732.69,137.0
732.75,144.0
732.82,152.0
732.88,150.0
732.94,140.0
733.0,141.0
733.07,140.0
733.13,134.0
733.19,122.0
733.26,145.0
733.32,152.0
733.38,130.0
733.45,129.0
733.51,126.0
733.57,116.0
733.63,122.0
733.7,121.0
733.76,126.0
733.82,132.0
733.89,107.0
733.95,104.0
734.01,106.0
734.08,89.0
734.14,88.0
734.2,96.0
734.26,85.0
734.33,99.0
734.39,71.0
734.45,85.0
734.52,72.0
734.58,79.0
734.64,80.0
734.71,84.0
734.77,84.0
734.83,66.0
734.89,72.0
734.96,82.0
735.02,59.0
735.08,83.0
735.15,75.0
735.21,63.0
735.27,58.0
735.34,60.0
735.4,65.0
735.46,59.0
735.52,67.0
735.59,46.0
735.65,49.0
735.71,32.0
735.78,45.0
735.84,35.0
735.9,31.0
735.97,17.0
736.03,20.0
736.09,38.0
736.15,26.0
736.22,3.0
736.28,18.0
736.34,8.0
736.41,8.0
736.47,12.0
736.53,-4.0
736.6,3.0
736.66,19.0
736.72,21.0
736.78,10.0
736.85,3.0
736.91,5.0
736.97,8.0
737.04,18.0
737.1,34.0
737.16,42.0
737.23,37.0
737.29,40.0
737.35,35.0
737.41,17.0
737.48,38.0
737.54,41.0
737.6,28.0
737.67,37.0
737.73,26.0
737.79,29.0
737.86,46.0
737.92,24.0
737.98,16.0
738.04,24.0
738.11,-2.0
738.17,8.0
738.23,18.0
738.3,17.0
738.36,36.0
738.42,22.0
738.49,46.0
738.55,35.0
738.61,43.0
738.67,47.0
738.74,32.0
738.8,26.0
738.86,-1.0
738.93,13.0
738.99,14.0
739.05,19.0
739.12,25.0
739.18,29.0
739.24,28.0
739.3,23.0
739.37,16.0
739.43,25.0
739.49,16.0
739.56,29.0
739.62,14.0
739.68,21.0
739.75,34.0
739.81,26.0
739.87,37.0
739.93,41.0
740.0,43.0
740.06,43.0
740.12,35.0
740.19,69.0
740.25,56.0
740.31,49.0
740.38,45.0
740.44,43.0
740.5,55.0
740.56,44.0
740.63,46.0
740.69,53.0
740.75,58.0
740.82,64.0
740.88,76.0
740.94,87.0
741.01,82.0
741.07,77.0
741.13,104.0
741.19,106.0
741.26,98.0
741.32,102.0
741.38,110.0
741.45,124.0
741.51,108.0
741.57,119.0
741.64,96.0
741.7,91.0
741.76,88.0
741.82,85.0
741.89,89.0
741.95,91.0
742.01,88.0
742.08,86.0
742.14,104.0
742.2,90.0
742.27,101.0
742.33,89.0
742.39,102.0
742.45,91.0
742.52,98.0
742.58,95.0
742.64,85.0
742.71,73.0
742.77,65.0
742.83,91.0
742.9,52.0
742.96,80.0
743.02,90.0
743.08,79.0
743.15,68.0
743.21,60.0
743.27,46.0
743.34,55.0
743.4,66.0
743.46,55.0
743.53,73.0
743.59,75.0
743.65,85.0
743.71,70.0
743.78,73.0
743.84,71.0
743.9,55.0
743.97,67.0
744.03,72.0
744.09,81.0
744.16,80.0
744.22,66.0
744.28,63.0
744.34,80.0
744.41,83.0
744.47,91.0
744.53,110.0
744.6,113.0
744.66,105.0
744.72,92.0
744.79,96.0
744.85,90.0
744.91,92.0
744.97,95.0
745.04,107.0
745.1,103.0
745.16,91.0
745.23,105.0
745.29,102.0
745.35,96.0
745.42,104.0
745.48,99.0
745.54,116.0
745.6,120.0
745.67,98.0
745.73,106.0
745.79,104.0
745.86,120.0
745.92,129.0
745.98,112.0
746.05,110.0
746.11,121.0
746.17,108.0
746.23,114.0
746.3,116.0
746.36,135.0
746.42,123.0
746.49,120.0
746.55,109.0
746.61,105.0
746.68,93.0
746.74,84.0
746.8,104.0
746.86,133.0
746.93,130.0
746.99,113.0
747.05,124.0
747.12,127.0
747.18,111.0
747.24,103.0
747.31,116.0
747.37,127.0
747.43,126.0
747.49,113.0
747.56,131.0
747.62,119.0
747.68,132.0
747.75,148.0
747.81,131.0
747.87,145.0
747.94,139.0
748.0,158.0
748.06,138.0
748.12,159.0
748.19,174.0
748.25,146.0
748.31,158.0
748.38,156.0
748.44,160.0
748.5,165.0
748.57,153.0
748.63,143.0
748.69,135.0
748.75,157.0
748.82,167.0
748.88,165.0
748.94,182.0
749.01,162.0
749.07,157.0
749.13,166.0
749.2,168.0
749.26,168.0
749.32,161.0
749.38,142.0
749.45,148.0
749.51,164.0
749.57,175.0
749.64,179.0
749.7,182.0
749.76,176.0
749.83,168.0
749.89,167.0
749.95,171.0
750.01,160.0
750.08,172.0
750.14,182.0
750.2,183.0
750.27,192.0
750.33,181.0
750.39,197.0
750.46,194.0
750.52,199.0
750.58,206.0
750.64,195.0
750.71,199.0
750.77,200.0
750.83,178.0
750.9,182.0
750.96,191.0
751.02,167.0
751.09,157.0
751.15,174.0
751.21,175.0
751.27,173.0
751.34,151.0
751.4,161.0
751.46,153.0
751.53,139.0
751.59,156.0
751.65,158.0
751.72,143.0
751.78,137.0
751.84,135.0
751.9,148.0
751.97,154.0
752.03,150.0
752.09,152.0
752.16,132.0
752.22,152.0
752.28,166.0
752.35,165.0
752.41,162.0
752.47,144.0
752.53,129.0
752.6,119.0
752.66,102.0
752.72,121.0
752.79,135.0
752.85,114.0
752.91,109.0
752.98,101.0
753.04,90.0
753.1,101.0
753.16,102.0
753.23,110.0
753.29,101.0
753.35,91.0
753.42,77.0
753.48,76.0
753.54,84.0
753.61,90.0
753.67,96.0
753.73,87.0
753.79,94.0
753.86,80.0
753.92,60.0
753.98,78.0
754.05,83.0
754.11,96.0
754.17,92.0
754.24,88.0
754.3,82.0
754.36,66.0
754.42,98.0
754.49,102.0
754.55,83.0
754.61,93.0
754.68,88.0
754.74,94.0
754.8,90.0
754.87,75.0
754.93,71.0
754.99,75.0
755.05,81.0
755.12,80.0
755.18,65.0
755.24,69.0
755.31,69.0
755.37,80.0
755.43,59.0
755.5,55.0
755.56,63.0
755.62,86.0
755.68,70.0
755.75,79.0
755.81,84.0
755.87,90.0
755.94,97.0
756.0,91.0
756.06,117.0
756.13,115.0
756.19,113.0
756.25,110.0
756.31,119.0
756.38,110.0
756.44,116.0
756.5,116.0
756.57,103.0
756.63,95.0
756.69,102.0
756.76,102.0
756.82,120.0
756.88,83.0
756.94,70.0
757.01,82.0
757.07,72.0
757.13,65.0
757.2,71.0
757.26,73.0
757.32,87.0
757.39,66.0
757.45,82.0
757.51,87.0
757.57,73.0
757.64,65.0
757.7,97.0
757.76,129.0
757.83,95.0
757.89,102.0
757.95,108.0
758.02,98.0
758.08,94.0
758.14,106.0
758.2,111.0
758.27,99.0
758.33,111.0
758.39,96.0
758.46,110.0
758.52,93.0
758.58,78.0
758.65,91.0
758.71,102.0
758.77,102.0
758.83,109.0
758.9,85.0
758.96,85.0
759.02,61.0
759.09,75.0
759.15,97.0
759.21,74.0
759.28,97.0
759.34,102.0
759.4,98.0
759.46,116.0
759.53,90.0
759.59,86.0
759.65,92.0
759.72,88.0
759.78,104.0
759.84,99.0
759.91,106.0
759.97,89.0
760.03,69.0
760.09,80.0
760.16,50.0
760.22,65.0
760.28,80.0
760.35,73.0
760.41,48.0
760.47,65.0
760.54,65.0
760.6,59.0
760.66,63.0
760.72,70.0
760.79,66.0
760.85,66.0
760.91,59.0
760.98,79.0
761.04,60.0
761.1,60.0
761.17,68.0
761.23,71.0
761.29,81.0
761.35,60.0
761.42,76.0
761.48,65.0
761.54,61.0
761.61,74.0
761.67,73.0
761.73,51.0
761.8,30.0
761.86,12.0
761.92,32.0
761.98,43.0
762.05,55.0
762.11,46.0
762.17,61.0
762.24,73.0
762.3,58.0
762.36,72.0
762.43,72.0
762.49,104.0
762.55,100.0
762.61,88.0
762.68,108.0
762.74,83.0
762.8,79.0
762.87,88.0
762.93,68.0
762.99,83.0
763.06,101.0
763.12,92.0
763.18,90.0
763.24,82.0
763.31,74.0
763.37,86.0
763.43,67.0
763.5,86.0
763.56,90.0
763.62,96.0
763.69,99.0
763.75,93.0
763.81,95.0
763.87,121.0
763.94,113.0
764.0,87.0
764.06,128.0
764.13,138.0
764.19,117.0
764.25,135.0
764.32,124.0
764.38,99.0
764.44,107.0
764.5,113.0
764.57,109.0
764.63,105.0
764.69,112.0
764.76,134.0
764.82,129.0
764.88,136.0
764.95,139.0
765.01,146.0
765.07,146.0
765.13,113.0
765.2,123.0
765.26,116.0
765.32,112.0
765.39,101.0
765.45,133.0
765.51,113.0
765.58,106.0
765.64,108.0
765.7,115.0
765.76,108.0
765.83,119.0
765.89,108.0
765.95,105.0
766.02,120.0
766.08,134.0
766.14,122.0
766.21,127.0
766.27,150.0
766.33,153.0
766.39,169.0
766.46,153.0
766.52,162.0
766.58,167.0
766.65,153.0
766.71,186.0
766.77,155.0
766.84,169.0
766.9,179.0
766.96,153.0
767.02,166.0
767.09,173.0
767.15,150.0
767.21,148.0
767.28,138.0
767.34,146.0
767.4,140.0
767.47,136.0
767.53,172.0
767.59,173.0
767.65,146.0
767.72,159.0
767.78,156.0
767.84,132.0
767.91,142.0
767.97,126.0
768.03,130.0
768.1,128.0
768.16,117.0
768.22,116.0
768.28,97.0
768.35,129.0
768.41,127.0
768.47,112.0
768.54,122.0
768.6,103.0
768.66,116.0
768.73,115.0
768.79,93.0
768.85,82.0
768.91,85.0
768.98,108.0
769.04,101.0
769.1,105.0
769.17,107.0
769.23,85.0
769.29,110.0
769.36,87.0
769.42,87.0
769.48,98.0
769.54,90.0
769.61,89.0
769.67,75.0
769.73,94.0
769.8,87.0
769.86,102.0
769.92,108.0
769.99,101.0
770.05,93.0
770.11,84.0
770.17,66.0
770.24,61.0
770.3,77.0
770.36,96.0
770.43,87.0
770.49,91.0
770.55,68.0
770.62,67.0
770.68,59.0
770.74,80.0
770.8,101.0
770.87,76.0
770.93,91.0
770.99,98.0
771.06,108.0
771.12,92.0
771.18,88.0
771.25,84.0
771.31,94.0
771.37,91.0
771.43,109.0
771.5,99.0
771.56,79.0
771.62,79.0
771.69,91.0
771.75,107.0
771.81,91.0
771.88,96.0
771.94,121.0
772.0,124.0
772.06,107.0
772.13,113.0
772.19,103.0
772.25,109.0
772.32,117.0
772.38,124.0
772.44,108.0
772.51,112.0
772.57,104.0
772.63,113.0
772.69,84.0
772.76,88.0
772.82,75.0
772.88,88.0
772.95,121.0
773.01,102.0
773.07,89.0
773.14,91.0
773.2,96.0
773.26,101.0
773.32,95.0
773.39,102.0
773.45,95.0
773.51,94.0
773.58,95.0
773.64,85.0
773.7,116.0
773.77,131.0
773.83,126.0
773.89,113.0
773.95,120.0
774.02,127.0
774.08,123.0
774.14,128.0
774.21,142.0
774.27,139.0
774.33,143.0
774.4,133.0
774.46,123.0
774.52,134.0
774.58,99.0
774.65,131.0
774.71,120.0
774.77,135.0
774.84,124.0
774.9,107.0
774.96,113.0
775.03,109.0
775.09,119.0
775.15,96.0
775.21,105.0
775.28,129.0
775.34,138.0
775.4,140.0
775.47,113.0
775.53,127.0
775.59,129.0
775.66,130.0
775.72,138.0
775.78,143.0
775.84,156.0
775.91,142.0
775.97,117.0
776.03,140.0
776.1,146.0
776.16,143.0
776.22,152.0
776.29,131.0
776.35,152.0
776.41,146.0
776.47,136.0
776.54,136.0
776.6,136.0
776.66,103.0
776.73,106.0
776.79,105.0
776.85,118.0
776.92,116.0
776.98,104.0
777.04,97.0
777.1,111.0
777.17,120.0
777.23,109.0
777.29,89.0
777.36,101.0
777.42,120.0
777.48,114.0
777.55,117.0
777.61,119.0
777.67,108.0
777.73,117.0
777.8,129.0
777.86,115.0
777.92,99.0
777.99,110.0
778.05,101.0
778.11,91.0
778.18,102.0
778.24,96.0
778.3,102.0
778.36,124.0
778.43,115.0
778.49,108.0
778.55,100.0
778.62,112.0
778.68,106.0
778.74,107.0
778.81,107.0
778.87,96.0
778.93,104.0
778.99,105.0
779.06,90.0
779.12,84.0
779.18,109.0
779.25,92.0
779.31,83.0
779.37,80.0
779.44,82.0
779.5,76.0
779.56,93.0
779.62,97.0
779.69,101.0
779.75,93.0
779.81,102.0
779.88,105.0
779.94,88.0
780.0,88.0
780.07,89.0
780.13,89.0
780.19,88.0
780.25,106.0
780.32,98.0
780.38,113.0
780.44,90.0
780.51,93.0
780.57,99.0
780.63,92.0
780.7,94.0
780.76,125.0
780.82,126.0
780.88,111.0
780.95,121.0
781.01,106.0
781.07,100.0
781.14,100.0
781.2,97.0
781.26,115.0
781.33,112.0
781.39,88.0
781.45,98.0
781.51,92.0
781.58,89.0
781.64,93.0
781.7,103.0
781.77,95.0
781.83,94.0
781.89,110.0
781.96,92.0
782.02,107.0
782.08,105.0
782.14,105.0
782.21,122.0
782.27,137.0
782.33,124.0
782.4,95.0
782.46,116.0
782.52,107.0
782.59,105.0
782.65,113.0
782.71,133.0
782.77,131.0
782.84,131.0
782.9,119.0
782.96,109.0
783.03,106.0
783.09,109.0
783.15,100.0
783.22,103.0
783.28,132.0
783.34,135.0
783.4,121.0
783.47,126.0
783.53,124.0
783.59,116.0
783.66,106.0
783.72,93.0
783.78,84.0
783.85,94.0
783.91,110.0
783.97,85.0
784.03,96.0
784.1,95.0
784.16,113.0
784.22,104.0
784.29,102.0
784.35,105.0
784.41,102.0
784.48,116.0
784.54,102.0
784.6,104.0
784.66,109.0
784.73,107.0
784.79,104.0
784.85,89.0
784.92,100.0
784.98,98.0
785.04,105.0
785.11,82.0
785.17,63.0
785.23,60.0
785.29,54.0
785.36,56.0
785.42,39.0
785.48,58.0
785.55,62.0
785.61,43.0
785.67,58.0
785.74,72.0
785.8,61.0
785.86,54.0
785.92,61.0
785.99,51.0
786.05,78.0
786.11,63.0
786.18,50.0
786.24,41.0
786.3,32.0
786.37,50.0
786.43,31.0
786.49,63.0
786.55,50.0
786.62,51.0
786.68,68.0
786.74,61.0
786.81,56.0
786.87,51.0
786.93,20.0
787.0,6.0
787.06,2.0
787.12,10.0
787.18,10.0
787.25,6.0
787.31,21.0
787.37,10.0
787.44,6.0
787.5,-14.0
787.56,-2.0
787.63,14.0
787.69,-11.0
787.75,-2.0
787.81,-4.0
787.88,8.0
787.94,3.0
788.0,1.0
788.07,-10.0
788.13,-24.0
788.19,-8.0
788.26,-4.0
788.32,-8.0
788.38,8.0
788.44,-12.0
788.51,-13.0
788.57,-6.0
788.63,6.0
788.7,19.0
788.76,19.0
788.82,28.0
788.89,22.0
788.95,36.0
789.01,33.0
789.07,35.0
789.14,26.0
789.2,12.0
789.26,19.0
789.33,9.0
789.39,22.0
789.45,34.0
789.52,44.0
789.58,65.0
789.64,45.0
789.7,36.0
789.77,16.0
789.83,5.0
789.89,8.0
789.96,11.0
790.02,23.0
790.08,19.0
790.15,23.0
790.21,24.0
790.27,34.0
790.33,30.0
790.4,32.0
790.46,45.0
790.52,42.0
790.59,47.0
790.65,33.0
790.71,36.0
790.78,30.0
790.84,44.0
790.9,71.0
790.96,75.0
791.03,62.0
791.09,46.0
791.15,46.0
791.22,44.0
791.28,51.0
791.34,30.0
791.41,31.0
791.47,15.0
791.53,42.0
791.59,38.0
791.66,32.0
791.72,17.0
791.78,39.0
791.85,53.0
791.91,59.0
791.97,57.0
792.04,51.0
792.1,64.0
792.16,53.0
792.22,78.0
792.29,63.0
792.35,60.0
792.41,64.0
792.48,64.0
792.54,65.0
792.6,57.0
792.67,84.0
792.73,88.0
792.79,84.0
792.85,107.0
792.92,85.0
792.98,77.0
793.04,90.0
793.11,80.0
793.17,88.0
793.23,122.0
793.3,100.0
793.36,77.0
793.42,116.0
793.48,134.0
793.55,96.0
793.61,116.0
793.67,119.0
793.74,123.0
793.8,114.0
793.86,87.0
793.93,116.0
793.99,104.0
794.05,97.0
794.11,119.0
794.18,109.0
794.24,111.0
794.3,97.0
794.37,83.0
794.43,114.0
794.49,104.0
794.56,133.0
794.62,133.0
794.68,110.0
794.74,131.0
794.81,110.0
794.87,119.0
794.93,125.0
795.0,102.0
795.06,100.0
795.12,107.0
795.19,130.0
795.25,106.0
795.31,94.0
795.37,101.0
795.44,113.0
795.5,104.0
795.56,107.0
795.63,130.0
795.69,106.0
795.75,130.0
795.82,122.0
795.88,126.0
795.94,130.0
796.0,115.0
796.07,110.0
796.13,130.0
796.19,131.0
796.26,110.0
796.32,108.0
796.38,119.0
796.45,115.0
796.51,109.0
796.57,94.0
796.63,104.0
796.7,127.0
796.76,110.0
796.82,94.0
796.89,122.0
796.95,119.0
797.01,123.0
797.08,126.0
797.14,132.0
797.2,138.0
797.26,102.0
797.33,118.0
797.39,134.0
797.45,129.0
797.52,116.0
797.58,130.0
797.64,137.0
797.71,144.0
797.77,130.0
797.83,139.0
797.89,127.0
797.96,145.0
798.02,146.0
798.08,121.0
798.15,135.0
798.21,144.0
798.27,127.0
798.34,146.0
798.4,172.0
798.46,148.0
798.52,153.0
798.59,148.0
798.65,137.0
798.71,148.0
798.78,160.0
798.84,149.0
798.9,149.0
798.97,141.0
799.03,149.0
799.09,193.0
799.15,181.0
799.22,167.0
799.28,175.0
799.34,168.0
799.41,179.0
799.47,190.0
799.53,187.0
799.6,162.0
799.66,144.0
799.72,161.0
799.78,175.0
799.85,195.0
799.91,186.0
799.97,191.0
800.04,200.0
800.1,187.0
800.16,192.0
800.23,206.0
800.29,175.0
800.35,185.0
800.41,206.0
800.48,200.0
800.54,167.0
800.6,183.0
800.67,199.0
800.73,189.0
800.79,223.0
800.86,214.0
800.92,216.0
800.98,224.0
801.04,204.0
801.11,210.0
801.17,201.0
801.23,204.0
801.3,197.0
801.36,192.0
801.42,188.0
801.49,178.0
801.55,175.0
801.61,183.0
801.67,181.0
801.74,170.0
801.8,191.0
801.86,187.0
801.93,177.0
801.99,177.0
802.05,190.0
802.12,195.0
802.18,181.0
802.24,189.0
802.3,222.0
802.37,213.0
802.43,196.0
802.49,184.0
802.56,183.0
802.62,184.0
802.68,180.0
802.75,182.0
802.81,170.0
802.87,166.0
802.93,147.0
803.0,152.0
803.06,164.0
803.12,173.0
803.19,191.0
803.25,162.0
803.31,173.0
803.38,178.0
803.44,184.0
803.5,176.0
803.56,181.0
803.63,181.0
803.69,177.0
803.75,164.0
803.82,177.0
803.88,185.0
803.94,163.0
804.01,171.0
804.07,172.0
804.13,177.0
804.19,169.0
804.26,156.0
804.32,160.0
804.38,145.0
804.45,138.0
804.51,156.0
804.57,139.0
804.64,160.0
804.7,160.0
804.76,171.0
804.82,168.0
804.89,169.0
804.95,176.0
805.01,132.0
805.08,155.0
805.14,139.0
805.2,162.0
805.27,161.0
805.33,168.0
805.39,173.0
805.45,154.0
805.52,162.0
805.58,162.0
805.64,143.0
805.71,154.0
805.77,162.0
805.83,154.0
805.9,154.0
805.96,160.0
806.02,149.0
806.08,179.0
806.15,173.0
806.21,140.0
806.27,154.0
806.34,173.0
806.4,172.0
806.46,171.0
806.53,185.0
806.59,176.0
806.65,161.0
806.71,164.0
806.78,150.0
806.84,172.0
806.9,172.0
806.97,175.0
807.03,178.0
807.09,177.0
807.16,166.0
807.22,139.0
807.28,144.0
807.34,158.0
807.41,156.0
807.47,123.0
807.53,135.0
807.6,135.0
807.66,128.0
807.72,156.0
807.79,151.0
807.85,136.0
807.91,140.0
807.97,143.0
808.04,134.0
808.1,138.0
808.16,151.0
808.23,151.0
808.29,124.0
808.35,130.0
808.42,129.0
808.48,143.0
808.54,153.0
808.6,146.0
808.67,148.0
808.73,148.0
808.79,143.0
808.86,116.0
808.92,121.0
808.98,114.0
809.05,113.0
809.11,116.0
809.17,112.0
809.23,122.0
809.3,108.0
809.36,108.0
809.42,120.0
809.49,122.0
809.55,114.0
809.61,115.0
809.68,111.0
809.74,98.0
809.8,116.0
809.86,125.0
809.93,117.0
809.99,112.0
810.05,97.0
810.12,116.0
810.18,112.0
810.24,108.0
810.31,121.0
810.37,115.0
810.43,150.0
810.49,138.0
810.56,137.0
810.62,134.0
810.68,119.0
810.75,117.0
810.81,94.0
810.87,88.0
810.94,124.0
811.0,125.0
811.06,123.0
811.12,133.0
811.19,117.0
811.25,127.0
811.31,137.0
811.38,134.0
811.44,127.0
811.5,124.0
811.57,129.0
811.63,118.0
811.69,122.0
811.75,108.0
811.82,117.0
811.88,130.0
811.94,104.0
812.01,121.0
812.07,116.0
812.13,112.0
812.2,137.0
812.26,132.0
812.32,129.0
812.38,124.0
812.45,123.0
812.51,91.0
812.57,106.0
812.64,104.0
812.7,102.0
812.76,132.0
812.83,108.0
812.89,129.0
812.95,105.0
813.01,108.0
813.08,94.0
813.14,104.0
813.2,112.0
813.27,99.0
813.33,116.0
813.39,128.0
813.46,111.0
813.52,114.0
813.58,127.0
813.64,105.0
813.71,114.0
813.77,119.0
813.83,122.0
813.9,111.0
813.96,111.0
814.02,104.0
814.09,86.0
814.15,108.0
814.21,116.0
814.27,90.0
814.34,102.0
814.4,92.0
814.46,65.0
814.53,56.0
814.59,61.0
814.65,57.0
814.72,46.0
814.78,58.0
814.84,90.0
814.9,77.0
814.97,49.0
815.03,63.0
815.09,66.0
815.16,85.0
815.22,93.0
815.28,86.0
815.35,92.0
815.41,90.0
815.47,81.0
815.53,99.0
815.6,82.0
815.66,100.0
815.72,97.0
815.79,105.0
815.85,108.0
815.91,81.0
815.98,84.0
816.04,99.0
816.1,108.0
816.16,110.0
816.23,104.0
816.29,90.0
816.35,90.0
816.42,93.0
816.48,99.0
816.54,82.0
816.61,111.0
816.67,103.0
816.73,102.0
816.79,122.0
816.86,119.0
816.92,108.0
816.98,102.0
817.05,95.0
817.11,135.0
817.17,124.0
817.24,122.0
817.3,129.0
817.36,100.0
817.42,112.0
817.49,111.0
817.55,113.0
817.61,104.0
817.68,123.0
817.74,116.0
817.8,99.0
817.87,118.0
817.93,137.0
817.99,138.0
818.05,137.0
818.12,130.0
818.18,114.0
818.24,124.0
818.31,112.0
818.37,108.0
818.43,112.0
818.5,114.0
818.56,99.0
818.62,116.0
818.68,132.0
818.75,99.0
818.81,117.0
818.87,114.0
818.94,118.0
819.0,124.0
819.06,108.0
819.13,99.0
819.19,104.0
819.25,113.0
819.31,124.0
819.38,105.0
819.44,103.0
819.5,99.0
819.57,92.0
819.63,91.0
819.69,80.0
819.76,89.0
819.82,84.0
819.88,97.0
819.94,74.0
820.01,64.0
820.07,69.0
820.13,87.0
820.2,100.0
820.26,82.0
820.32,86.0
820.39,68.0
820.45,94.0
820.51,95.0
820.57,95.0
820.64,97.0
820.7,75.0
820.76,80.0
820.83,60.0
820.89,76.0
820.95,80.0
821.02,68.0
821.08,70.0
821.14,67.0
821.2,73.0
821.27,84.0
821.33,102.0
821.39,97.0
821.46,106.0
821.52,103.0
821.58,96.0
821.65,80.0
821.71,86.0
821.77,101.0
821.83,104.0
821.9,111.0
821.96,89.0
822.02,73.0
822.09,86.0
822.15,97.0
822.21,82.0
822.28,87.0
822.34,112.0
822.4,114.0
822.46,98.0
822.53,93.0
822.59,108.0
822.65,119.0
822.72,120.0
822.78,122.0
822.84,99.0
822.91,91.0
822.97,94.0
823.03,113.0
823.09,110.0
823.16,94.0
823.22,89.0
823.28,92.0
823.35,99.0
823.41,93.0
823.47,94.0
823.54,87.0
823.6,102.0
823.66,75.0
823.72,82.0
823.79,97.0
823.85,83.0
823.91,66.0
823.98,78.0
824.04,81.0
824.1,65.0
824.17,92.0
824.23,96.0
824.29,65.0
824.35,89.0
824.42,89.0
824.48,71.0
824.54,83.0
824.61,100.0
824.67,91.0
824.73,91.0
824.8,105.0
824.86,93.0
824.92,70.0
824.98,75.0
825.05,83.0
825.11,82.0
825.17,88.0
825.24,89.0
825.3,75.0
825.36,80.0
825.43,78.0
825.49,73.0
825.55,63.0
825.61,69.0
825.68,85.0
825.74,77.0
825.8,66.0
825.87,72.0
825.93,80.0
825.99,61.0
826.06,75.0
826.12,80.0
826.18,75.0
826.24,72.0
826.31,84.0
826.37,69.0
826.43,88.0
826.5,100.0
826.56,108.0
826.62,127.0
826.69,107.0
826.75,117.0
826.81,105.0
826.87,101.0
826.94,107.0
827.0,117.0
827.06,115.0
827.13,110.0
827.19,111.0
827.25,131.0
827.32,115.0
827.38,105.0
827.44,118.0
827.5,128.0
827.57,135.0
827.63,108.0
827.69,111.0
827.76,112.0
827.82,124.0
827.88,115.0
827.95,141.0
828.01,117.0
828.07,107.0
828.13,104.0
828.2,93.0
828.26,101.0
828.32,96.0
828.39,97.0
828.45,97.0
828.51,80.0
828.58,71.0
828.64,86.0
828.7,82.0
828.76,80.0
828.83,71.0
828.89,86.0
828.95,77.0
829.02,82.0
829.08,98.0
829.14,93.0
829.21,79.0
829.27,82.0
829.33,82.0
829.39,83.0
829.46,83.0
829.52,73.0
829.58,80.0
829.65,76.0
829.71,88.0
829.77,91.0
829.84,105.0
829.9,107.0
829.96,119.0
830.02,94.0
830.09,95.0
830.15,85.0
830.21,75.0
830.28,84.0
830.34,93.0
830.4,89.0
830.47,88.0
830.53,86.0
830.59,80.0
830.65,80.0
830.72,81.0
830.78,103.0
830.84,110.0
830.91,85.0
830.97,93.0
831.03,97.0
831.1,93.0
831.16,104.0
831.22,88.0
831.28,92.0
831.35,72.0
831.41,69.0
831.47,99.0
831.54,105.0
831.6,112.0
831.66,119.0
831.73,119.0
831.79,108.0
831.85,108.0
831.91,116.0
831.98,131.0
832.04,125.0
832.1,113.0
832.17,127.0
832.23,117.0
832.29,118.0
832.36,115.0
832.42,102.0
832.48,113.0
832.54,110.0
832.61,108.0
832.67,106.0
832.73,91.0
832.8,112.0
832.86,105.0
832.92,117.0
832.99,122.0
833.05,134.0
833.11,132.0
833.17,120.0
833.24,135.0
833.3,133.0
833.36,117.0
833.43,125.0
833.49,124.0
833.55,131.0
833.62,132.0
833.68,145.0
833.74,134.0
833.8,126.0
833.87,137.0
833.93,124.0
833.99,132.0
834.06,134.0
834.12,129.0
834.18,96.0
834.25,116.0
834.31,107.0
834.37,102.0
834.43,128.0
834.5,125.0
834.56,117.0
834.62,126.0
834.69,127.0
834.75,126.0
834.81,117.0
834.88,111.0
834.94,126.0
835.0,113.0
835.06,96.0
835.13,124.0
835.19,118.0
835.25,126.0
835.32,112.0
835.38,93.0
835.44,96.0
835.51,104.0
835.57,97.0
835.63,80.0
835.69,95.0
835.76,96.0
835.82,96.0
835.88,93.0
835.95,88.0
836.01,94.0
836.07,107.0
836.14,92.0
836.2,89.0
836.26,94.0
836.32,99.0
836.39,115.0
836.45,96.0
836.51,97.0
836.58,92.0
836.64,85.0
836.7,100.0
836.77,93.0
836.83,85.0
836.89,110.0
836.95,95.0
837.02,100.0
837.08,93.0
837.14,89.0
837.21,83.0
837.27,86.0
837.33,88.0
837.4,57.0
837.46,57.0
837.52,82.0
837.58,78.0
837.65,72.0
837.71,86.0
837.77,88.0
837.84,55.0
837.9,58.0
837.96,63.0
838.03,63.0
838.09,39.0
838.15,42.0
838.21,66.0
838.28,73.0
838.34,83.0
838.4,72.0
838.47,79.0
838.53,68.0
838.59,68.0
838.66,43.0
838.72,63.0
838.78,69.0
838.84,63.0
838.91,75.0
838.97,61.0
839.03,67.0
839.1,70.0
839.16,66.0
839.22,57.0
839.29,50.0
839.35,31.0
839.41,27.0
839.47,31.0
839.54,44.0
839.6,35.0
839.66,33.0
839.73,44.0
839.79,42.0
839.85,41.0
839.92,30.0
839.98,7.0
840.04,34.0
840.1,23.0
840.17,9.0
840.23,20.0
840.29,22.0
840.36,1.0
840.42,6.0
840.48,-1.0
840.55,25.0
840.61,-3.0
840.67,19.0
840.73,42.0
840.8,33.0
840.86,33.0
840.92,26.0
840.99,18.0
841.05,26.0
841.11,32.0
841.18,47.0
841.24,40.0
841.3,21.0
841.36,24.0
841.43,30.0
841.49,30.0
841.55,39.0
841.62,41.0
841.68,36.0
841.74,11.0
841.81,11.0
841.87,29.0
841.93,26.0
841.99,29.0
842.06,31.0
842.12,41.0
842.18,44.0
842.25,50.0
842.31,29.0
842.37,55.0
842.44,75.0
842.5,64.0
842.56,70.0
842.62,74.0
842.69,77.0
842.75,86.0
842.81,81.0
842.88,85.0
842.94,100.0
843.0,82.0
843.07,96.0
843.13,99.0
843.19,86.0
843.25,94.0
843.32,110.0
843.38,78.0
843.44,82.0
843.51,96.0
843.57,101.0
843.63,83.0
843.7,78.0
843.76,74.0
843.82,102.0
843.88,89.0
843.95,86.0
844.01,91.0
844.07,95.0
844.14,79.0
844.2,81.0
844.26,96.0
844.33,91.0
844.39,118.0
844.45,99.0
844.51,91.0
844.58,95.0
844.64,123.0
844.7,116.0
844.77,119.0
844.83,114.0
844.89,105.0
844.96,104.0
845.02,111.0
845.08,115.0
845.14,113.0
845.21,115.0
845.27,131.0
845.33,126.0
845.4,125.0
845.46,117.0
845.52,103.0
845.59,116.0
845.65,93.0
845.71,101.0
845.77,90.0
845.84,93.0
845.9,83.0
845.96,95.0
846.03,131.0
846.09,104.0
846.15,93.0
846.22,115.0
846.28,88.0
846.34,83.0
846.4,92.0
846.47,99.0
846.53,74.0
846.59,81.0
846.66,98.0
846.72,111.0
846.78,131.0
846.85,109.0
846.91,121.0
846.97,90.0
847.03,100.0
847.1,123.0
847.16,111.0
847.22,117.0
847.29,113.0
847.35,99.0
847.41,125.0
847.48,107.0
847.54,111.0
847.6,90.0
847.66,97.0
847.73,112.0
847.79,92.0
847.85,106.0
847.92,95.0
847.98,116.0
848.04,90.0
848.11,89.0
848.17,111.0
848.23,117.0
848.29,103.0
848.36,116.0
848.42,129.0
848.48,97.0
848.55,96.0
848.61,132.0
848.67,143.0
848.74,140.0
848.8,134.0
848.86,125.0
848.92,121.0
848.99,121.0
849.05,120.0
849.11,120.0
849.18,146.0
849.24,137.0
849.3,153.0
849.37,140.0
849.43,131.0
849.49,169.0
849.55,136.0
849.62,136.0
849.68,135.0
849.74,147.0
849.81,144.0
849.87,135.0
849.93,152.0
850.0,168.0
850.06,147.0
850.12,171.0
850.18,158.0
850.25,174.0
850.31,157.0
850.37,179.0
850.44,173.0
850.5,167.0
850.56,178.0
850.63,162.0
850.69,187.0
850.75,184.0
850.81,184.0
850.88,176.0
850.94,165.0
851.0,162.0
851.07,172.0
851.13,160.0
851.19,139.0
851.26,161.0
851.32,157.0
851.38,142.0
851.44,152.0
851.51,165.0
851.57,188.0
851.63,182.0
851.7,181.0
851.76,168.0
851.82,177.0
851.89,177.0
851.95,187.0
852.01,170.0
852.07,154.0
852.14,154.0
852.2,136.0
852.26,154.0
852.33,168.0
852.39,146.0
852.45,147.0
852.52,142.0
852.58,121.0
852.64,146.0
852.7,129.0
852.77,127.0
852.83,119.0
852.89,110.0
852.96,125.0
853.02,125.0
853.08,125.0
853.15,127.0
853.21,128.0
853.27,110.0
853.33,123.0
853.4,121.0
853.46,128.0
853.52,128.0
853.59,110.0
853.65,129.0
853.71,96.0
853.78,113.0
853.84,143.0
853.9,133.0
853.96,110.0
854.03,115.0
854.09,95.0
854.15,81.0
854.22,110.0
854.28,112.0
854.34,108.0
854.41,104.0
854.47,122.0
854.53,124.0
854.59,115.0
854.66,100.0
854.72,106.0
854.78,123.0
854.85,99.0
854.91,132.0
854.97,113.0
855.04,99.0
855.1,131.0
855.16,107.0
855.22,105.0
855.29,102.0
855.35,111.0
855.41,124.0
855.48,113.0
855.54,123.0
855.6,123.0
855.67,142.0
855.73,121.0
855.79,122.0
855.85,111.0
855.92,114.0
855.98,128.0
856.04,103.0
856.11,107.0
856.17,124.0
856.23,121.0
856.3,88.0
856.36,78.0
856.42,100.0
856.48,99.0
856.55,95.0
856.61,88.0
856.67,103.0
856.74,121.0
856.8,103.0
856.86,101.0
856.93,107.0
856.99,105.0
857.05,103.0
857.11,79.0
857.18,110.0
857.24,100.0
857.3,102.0
857.37,109.0
857.43,95.0
857.49,110.0
857.56,99.0
857.62,99.0
857.68,102.0
857.74,92.0
857.81,86.0
857.87,84.0
857.93,72.0
858.0,81.0
858.06,86.0
858.12,74.0
858.19,88.0
858.25,82.0
858.31,85.0
858.37,91.0
858.44,85.0
858.5,75.0
858.56,90.0
858.63,86.0
858.69,65.0
858.75,83.0
858.82,108.0
858.88,93.0
858.94,90.0
859.0,110.0
859.07,107.0
859.13,101.0
859.19,96.0
859.26,89.0
859.32,91.0
859.38,96.0
859.45,112.0
859.51,143.0
859.57,130.0
859.63,106.0
859.7,102.0
859.76,100.0
859.82,125.0
859.89,132.0
859.95,109.0
860.01,114.0
860.08,121.0
860.14,106.0
860.2,112.0
860.26,99.0
860.33,106.0
860.39,100.0
860.45,121.0
860.52,110.0
860.58,110.0
860.64,106.0
860.71,117.0
860.77,117.0
860.83,122.0
860.89,108.0
860.96,90.0
861.02,110.0
861.08,116.0
861.15,118.0
861.21,130.0
861.27,110.0
861.34,119.0
861.4,116.0
861.46,120.0
861.52,127.0
861.59,101.0
861.65,127.0
861.71,111.0
861.78,114.0
861.84,120.0
861.9,111.0
861.97,121.0
862.03,133.0
862.09,125.0
862.15,134.0
862.22,124.0
862.28,121.0
862.34,149.0
862.41,135.0
862.47,132.0
862.53,120.0
862.6,109.0
862.66,90.0
862.72,103.0
862.78,92.0
862.85,117.0
862.91,127.0
862.97,96.0
863.04,118.0
863.1,100.0
863.16,91.0
863.23,93.0
863.29,106.0
863.35,86.0
863.41,86.0
863.48,94.0
863.54,95.0
863.6,125.0
863.67,129.0
863.73,99.0
863.79,102.0
863.86,121.0
863.92,123.0
863.98,96.0
864.04,100.0
864.11,110.0
864.17,111.0
864.23,123.0
864.3,98.0
864.36,109.0
864.42,89.0
864.49,81.0
864.55,86.0
864.61,98.0
864.67,102.0
864.74,97.0
864.8,111.0
864.86,116.0
864.93,119.0
864.99,110.0
865.05,127.0
865.12,86.0
865.18,103.0
865.24,115.0
865.3,114.0
865.37,128.0
865.43,110.0
865.49,118.0
865.56,120.0
865.62,119.0
865.68,121.0
865.75,130.0
865.81,123.0
865.87,129.0
865.93,122.0
866.0,151.0
866.06,129.0
866.12,111.0
866.19,119.0
866.25,141.0
866.31,162.0
866.38,139.0
866.44,130.0
866.5,138.0
866.56,143.0
866.63,135.0
866.69,148.0
866.75,140.0
866.82,132.0
866.88,139.0
866.94,128.0
867.01,127.0
867.07,121.0
867.13,109.0
867.19,114.0
867.26,119.0
867.32,133.0
867.38,130.0
867.45,150.0
867.51,152.0
867.57,158.0
867.64,171.0
867.7,167.0
867.76,158.0
867.82,171.0
867.89,175.0
867.95,184.0
868.01,177.0
868.08,184.0
868.14,191.0
868.2,180.0
868.27,158.0
868.33,142.0
868.39,149.0
868.45,172.0
868.52,155.0
868.58,152.0
868.64,133.0
868.71,172.0
868.77,154.0
868.83,142.0
868.9,136.0
868.96,132.0
869.02,150.0
869.08,132.0
869.15,139.0
869.21,152.0
869.27,127.0
869.34,133.0
869.4,139.0
869.46,149.0
869.53,146.0
869.59,124.0
869.65,125.0
869.71,110.0
869.78,100.0
869.84,114.0
869.9,108.0
869.97,78.0
870.03,81.0
870.09,108.0
870.16,99.0
870.22,115.0
870.28,121.0
870.34,118.0
870.41,130.0
870.47,152.0
870.53,125.0
870.6,144.0
870.66,111.0
870.72,127.0
870.79,135.0
870.85,103.0
870.91,128.0
870.97,111.0
871.04,128.0
871.1,122.0
871.16,108.0
871.23,126.0
871.29,131.0
871.35,116.0
871.42,125.0
871.48,108.0
871.54,105.0
871.6,99.0
871.67,91.0
871.73,111.0
871.79,98.0
871.86,92.0
871.92,103.0
871.98,86.0
872.05,73.0
872.11,99.0
872.17,105.0
872.23,74.0
872.3,95.0
872.36,96.0
872.42,75.0
872.49,81.0
872.55,68.0
872.61,92.0
872.68,96.0
872.74,86.0
872.8,99.0
872.86,103.0
872.93,110.0
872.99,92.0
873.05,72.0
873.12,91.0
873.18,74.0
873.24,81.0
873.31,113.0
873.37,103.0
873.43,98.0
873.49,104.0
873.56,96.0
873.62,85.0
873.68,79.0
873.75,86.0
873.81,84.0
873.87,91.0
873.94,83.0
874.0,80.0
874.06,76.0
874.12,69.0
874.19,81.0
874.25,102.0
874.31,78.0
874.38,75.0
874.44,61.0
874.5,74.0
874.57,80.0
874.63,83.0
874.69,87.0
874.75,79.0
874.82,73.0
874.88,63.0
874.94,66.0
875.01,51.0
875.07,66.0
875.13,55.0
875.2,60.0
875.26,62.0
875.32,53.0
875.38,67.0
875.45,50.0
875.51,51.0
875.57,60.0
875.64,89.0
875.7,55.0
875.76,73.0
875.83,56.0
875.89,46.0
875.95,45.0
876.01,40.0
876.08,47.0
876.14,44.0
876.2,48.0
876.27,57.0
876.33,61.0
876.39,55.0
876.46,75.0
876.52,75.0
876.58,55.0
876.64,60.0
876.71,70.0
876.77,64.0
876.83,64.0
876.9,75.0
876.96,80.0
877.02,77.0
877.09,46.0
877.15,65.0
877.21,81.0
877.27,51.0
877.34,70.0
877.4,53.0
877.46,69.0
877.53,72.0
877.59,50.0
877.65,64.0
877.72,60.0
877.78,66.0
877.84,63.0
877.9,40.0
877.97,34.0
878.03,23.0
878.09,50.0
878.16,61.0
878.22,46.0
878.28,37.0
878.35,55.0
878.41,64.0
878.47,53.0
878.53,69.0
878.6,68.0
878.66,69.0
878.72,91.0
878.79,89.0
878.85,80.0
878.91,74.0
878.98,85.0
879.04,80.0
879.1,70.0
879.16,87.0
879.23,89.0
879.29,97.0
879.35,83.0
879.42,64.0
879.48,81.0
879.54,81.0
879.61,71.0
879.67,93.0
879.73,75.0
879.79,62.0
879.86,73.0
879.92,74.0
879.98,88.0
880.05,74.0
880.11,70.0
880.17,79.0
880.24,61.0
880.3,89.0
880.36,99.0
880.42,86.0
880.49,87.0
880.55,81.0
880.61,78.0
880.68,90.0
880.74,86.0
880.8,69.0
880.87,85.0
880.93,80.0
880.99,76.0
881.05,80.0
881.12,54.0
881.18,55.0
881.24,70.0
881.31,75.0
881.37,92.0
881.43,77.0
881.5,91.0
881.56,81.0
881.62,73.0
881.68,83.0
881.75,76.0
881.81,77.0
881.87,78.0
881.94,77.0
882.0,81.0
882.06,80.0
882.13,78.0
882.19,72.0
882.25,93.0
882.31,113.0
882.38,100.0
882.44,104.0
882.5,111.0
882.57,92.0
882.63,84.0
882.69,83.0
882.76,63.0
882.82,86.0
882.88,83.0
882.94,113.0
883.01,113.0
883.07,106.0
883.13,103.0
883.2,109.0
883.26,107.0
883.32,94.0
883.39,110.0
883.45,115.0
883.51,127.0
883.57,104.0
883.64,102.0
883.7,101.0
883.76,102.0
883.83,114.0
883.89,110.0
883.95,133.0
884.02,117.0
884.08,109.0
884.14,138.0
884.2,124.0
884.27,141.0
884.33,129.0
884.39,137.0
884.46,160.0
884.52,127.0
884.58,120.0
884.65,131.0
884.71,121.0
884.77,135.0
884.83,122.0
884.9,124.0
884.96,156.0
885.02,138.0
885.09,132.0
885.15,118.0
885.21,118.0
885.28,113.0
885.34,105.0
885.4,121.0
885.46,128.0
885.53,114.0
885.59,104.0
885.65,113.0
885.72,108.0
885.78,117.0
885.84,106.0
885.91,122.0
885.97,152.0
886.03,127.0
886.09,135.0
886.16,126.0
886.22,127.0
886.28,117.0
886.35,110.0
886.41,116.0
886.47,115.0
886.54,100.0
886.6,85.0
886.66,105.0
886.72,99.0
886.79,101.0
886.85,106.0
886.91,101.0
886.98,118.0
887.04,102.0
887.1,106.0
887.17,108.0
887.23,97.0
887.29,89.0
887.35,91.0
887.42,101.0
887.48,78.0
887.54,88.0
887.61,97.0
887.67,92.0
887.73,99.0
887.8,99.0
887.86,99.0
887.92,109.0
887.98,95.0
888.05,96.0
888.11,101.0
888.17,109.0
888.24,86.0
888.3,92.0
888.36,100.0
888.43,82.0
888.49,95.0
888.55,93.0
888.61,85.0
888.68,100.0
888.74,97.0
888.8,76.0
888.87,70.0
888.93,80.0
888.99,85.0
889.06,91.0
889.12,77.0
889.18,72.0
889.24,78.0
889.31,91.0
889.37,83.0
889.43,87.0
889.5,94.0
889.56,88.0
889.62,90.0
889.69,92.0
889.75,100.0
889.81,81.0
889.87,104.0
889.94,93.0
890.0,82.0
890.06,110.0
890.13,110.0
890.19,107.0
890.25,110.0
890.32,111.0
890.38,114.0
890.44,126.0
890.5,131.0
890.57,121.0
890.63,106.0
890.69,107.0
890.76,99.0
890.82,96.0
890.88,87.0
890.95,89.0
891.01,88.0
891.07,95.0
891.13,86.0
891.2,87.0
891.26,81.0
891.32,89.0
891.39,77.0
891.45,77.0
891.51,67.0
891.58,55.0
891.64,70.0
891.7,66.0
891.76,62.0
891.83,77.0
891.89,67.0
891.95,47.0
892.02,46.0
892.08,51.0
892.14,44.0
892.21,52.0
892.27,39.0
892.33,50.0
892.39,55.0
892.46,59.0
892.52,44.0
892.58,35.0
892.65,57.0
892.71,61.0
892.77,46.0
892.84,62.0
892.9,54.0
892.96,68.0
893.02,48.0
893.09,42.0
893.15,59.0
893.21,69.0
893.28,48.0
893.34,47.0
893.4,54.0
893.47,48.0
893.53,43.0
893.59,42.0
893.65,35.0
893.72,55.0
893.78,44.0
893.84,45.0
893.91,75.0
893.97,88.0
894.03,52.0
894.1,43.0
894.16,44.0
894.22,59.0
894.28,73.0
894.35,70.0
894.41,64.0
894.47,78.0
894.54,69.0
894.6,52.0
894.66,60.0
894.73,60.0
894.79,51.0
894.85,44.0
894.91,59.0
894.98,59.0
895.04,67.0
895.1,88.0
895.17,69.0
895.23,73.0
895.29,74.0
895.36,68.0
895.42,45.0
895.48,41.0
895.54,90.0
895.61,61.0
895.67,54.0
895.73,60.0
895.8,60.0
895.86,51.0
895.92,55.0
895.99,63.0
896.05,53.0
896.11,53.0
896.17,87.0
896.24,95.0
896.3,59.0
896.36,66.0
896.43,50.0
896.49,59.0
896.55,46.0
896.62,63.0
896.68,84.0
896.74,74.0
896.8,62.0
896.87,69.0
896.93,77.0
896.99,77.0
897.06,94.0
897.12,112.0
897.18,111.0
897.25,89.0
897.31,101.0
897.37,103.0
897.43,112.0
897.5,97.0
897.56,89.0
897.62,92.0
897.69,116.0
897.75,88.0
897.81,86.0
897.88,99.0
897.94,90.0
898.0,85.0
898.06,91.0
898.13,104.0
898.19,75.0
898.25,77.0
898.32,59.0
898.38,78.0
898.44,80.0
898.51,83.0
898.57,97.0
898.63,103.0
898.69,120.0
898.76,86.0
898.82,108.0
898.88,126.0
898.95,110.0
899.01,114.0
899.07,110.0
899.14,91.0
899.2,86.0
899.26,87.0
899.32,115.0
899.39,103.0
899.45,88.0
899.51,110.0
899.58,103.0
899.64,112.0
899.7,127.0
899.77,119.0
899.83,109.0
899.89,125.0
899.95,125.0
900.02,108.0
900.08,120.0
900.14,130.0
900.21,121.0
900.27,121.0
900.33,128.0
900.4,130.0
900.46,133.0
900.52,129.0
900.58,140.0
900.65,121.0
900.71,103.0
900.77,124.0
900.84,117.0
900.9,129.0
900.96,151.0
901.03,142.0
901.09,154.0
901.15,141.0
901.21,129.0
901.28,136.0
901.34,134.0
901.4,114.0
901.47,123.0
901.53,134.0
901.59,137.0
901.66,129.0
901.72,128.0
901.78,135.0
901.84,145.0
901.91,167.0
901.97,158.0
902.03,152.0
902.1,161.0
902.16,141.0
902.22,146.0
902.29,141.0
902.35,125.0
902.41,137.0
902.47,139.0
902.54,122.0
902.6,114.0
902.66,123.0
902.73,146.0
902.79,154.0
902.85,122.0
902.92,125.0
902.98,117.0
903.04,121.0
903.1,107.0
903.17,96.0
903.23,116.0
903.29,98.0
903.36,98.0
903.42,91.0
903.48,114.0
903.55,114.0
903.61,105.0
903.67,123.0
903.73,130.0
903.8,110.0
903.86,113.0
903.92,121.0
903.99,125.0
904.05,127.0
904.11,117.0
904.18,143.0
904.24,135.0
904.3,138.0
904.36,140.0
904.43,146.0
904.49,136.0
904.55,137.0
904.62,139.0
904.68,112.0
904.74,115.0
904.81,129.0
904.87,129.0
904.93,128.0
904.99,129.0
905.06,137.0
905.12,114.0
905.18,113.0
905.25,119.0
905.31,131.0
905.37,141.0
905.44,131.0
905.5,147.0
905.56,131.0
905.62,124.0
905.69,139.0
905.75,143.0
905.81,165.0
905.88,140.0
905.94,138.0
906.0,143.0
906.07,117.0
906.13,132.0
906.19,155.0
906.25,155.0
906.32,158.0
906.38,167.0
906.44,169.0
906.51,163.0
906.57,167.0
906.63,179.0
906.7,175.0
906.76,160.0
906.82,175.0
906.88,179.0
906.95,172.0
907.01,185.0
907.07,177.0
907.14,144.0
907.2,165.0
907.26,147.0
907.33,150.0
907.39,155.0
907.45,147.0
907.51,150.0
907.58,147.0
907.64,157.0
907.7,133.0
907.77,147.0
907.83,155.0
907.89,129.0
907.96,165.0
908.02,151.0
908.08,139.0
908.14,154.0
908.21,143.0
908.27,127.0
908.33,129.0
908.4,155.0
908.46,135.0
908.52,146.0
908.59,147.0
908.65,127.0
908.71,136.0
908.77,130.0
908.84,126.0
908.9,130.0
908.96,139.0
909.03,119.0
909.09,126.0
909.15,108.0
909.22,99.0
909.28,117.0
909.34,114.0
909.4,115.0
909.47,135.0
909.53,121.0
909.59,135.0
909.66,118.0
909.72,126.0
909.78,131.0
909.85,106.0
909.91,124.0
909.97,119.0
910.03,125.0
910.1,158.0
910.16,136.0
910.22,128.0
910.29,128.0
910.35,113.0
910.41,118.0
910.48,114.0
910.54,139.0
910.6,138.0
910.66,114.0
910.73,114.0
910.79,101.0
910.85,136.0
910.92,111.0
910.98,119.0
911.04,123.0
911.11,128.0
911.17,141.0
911.23,124.0
911.29,125.0
911.36,124.0
911.42,136.0
911.48,136.0
911.55,129.0
911.61,146.0
911.67,140.0
911.74,124.0
911.8,133.0
911.86,121.0
911.92,144.0
911.99,144.0
912.05,132.0
912.11,110.0
912.18,109.0
912.24,120.0
912.3,99.0
912.37,135.0
912.43,139.0
912.49,134.0
912.55,129.0
912.62,136.0
912.68,127.0
912.74,137.0
912.81,133.0
912.87,131.0
912.93,119.0
913.0,124.0
913.06,104.0
913.12,116.0
913.18,117.0
913.25,110.0
913.31,135.0
913.37,129.0
913.44,128.0
913.5,126.0
913.56,132.0
913.63,128.0
913.69,122.0
913.75,119.0
913.81,92.0
913.88,110.0
913.94,134.0
914.0,122.0
914.07,141.0
914.13,126.0
914.19,113.0
914.26,134.0
914.32,138.0
914.38,149.0
914.44,137.0
914.51,125.0
914.57,130.0
914.63,122.0
914.7,128.0
914.76,117.0
914.82,131.0
914.89,122.0
914.95,112.0
915.01,122.0
915.07,132.0
915.14,114.0
915.2,103.0
915.26,102.0
915.33,121.0
915.39,108.0
915.45,106.0
915.52,116.0
915.58,117.0
915.64,117.0
915.7,119.0
915.77,120.0
915.83,129.0
915.89,154.0
915.96,146.0
916.02,136.0
916.08,149.0
916.15,166.0
916.21,162.0
916.27,149.0
916.33,139.0
916.4,135.0
916.46,125.0
916.52,98.0
916.59,116.0
916.65,133.0
916.71,126.0
916.78,135.0
916.84,123.0
916.9,124.0
916.96,143.0
917.03,143.0
917.09,142.0
917.15,143.0
917.22,162.0
917.28,144.0
917.34,141.0
917.41,179.0
917.47,175.0
917.53,171.0
917.59,168.0
917.66,159.0
917.72,141.0
917.78,149.0
917.85,134.0
917.91,154.0
917.97,157.0
918.04,143.0
918.1,141.0
918.16,136.0
918.22,132.0
918.29,132.0
918.35,139.0
918.41,141.0
918.48,137.0
918.54,100.0
918.6,114.0
918.67,128.0
918.73,133.0
918.79,139.0
918.85,142.0
918.92,134.0
918.98,136.0
919.04,127.0
919.11,126.0
919.17,119.0
919.23,94.0
919.3,110.0
919.36,101.0
919.42,88.0
919.48,107.0
919.55,119.0
919.61,96.0
919.67,108.0
919.74,113.0
919.8,104.0
919.86,105.0
919.93,87.0
919.99,89.0
920.05,96.0
920.11,104.0
920.18,91.0
920.24,112.0
920.3,108.0
920.37,98.0
920.43,92.0
920.49,102.0
920.56,125.0
920.62,118.0
920.68,110.0
920.74,124.0
920.81,114.0
920.87,126.0
920.93,113.0
921.0,119.0
921.06,124.0
921.12,130.0
921.19,115.0
921.25,112.0
921.31,102.0
921.37,116.0
921.44,122.0
921.5,127.0
921.56,119.0
921.63,128.0
921.69,118.0
921.75,114.0
921.82,118.0
921.88,92.0
921.94,99.0
922.0,107.0
922.07,119.0
922.13,116.0
922.19,129.0
922.26,135.0
922.32,119.0
922.38,135.0
922.45,118.0
922.51,116.0
922.57,116.0
922.63,138.0
922.7,125.0
922.76,121.0
922.82,111.0
922.89,107.0
922.95,132.0
923.01,135.0
923.08,127.0
923.14,146.0
923.2,150.0
923.26,152.0
923.33,147.0
923.39,135.0
923.45,140.0
923.52,133.0
923.58,119.0
923.64,139.0
923.71,139.0
923.77,119.0
923.83,111.0
923.89,103.0
923.96,104.0
924.02,96.0
924.08,98.0
924.15,117.0
924.21,102.0
924.27,90.0
924.34,91.0
924.4,95.0
924.46,87.0
924.52,96.0
924.59,89.0
924.65,106.0
924.71,95.0
924.78,90.0
924.84,100.0
924.9,92.0
924.97,77.0
925.03,63.0
925.09,56.0
925.15,83.0
925.22,70.0
925.28,63.0
925.34,77.0
925.41,80.0
925.47,94.0
925.53,77.0
925.6,92.0
925.66,77.0
925.72,88.0
925.78,77.0
925.85,78.0
925.91,88.0
925.97,74.0
926.04,81.0
926.1,96.0
926.16,93.0
926.23,84.0
926.29,104.0
926.35,110.0
926.41,88.0
926.48,72.0
926.54,70.0
926.6,78.0
926.67,86.0
926.73,85.0
926.79,80.0
926.86,76.0
926.92,69.0
926.98,63.0
927.04,71.0
927.11,71.0
927.17,62.0
927.23,73.0
927.3,73.0
927.36,76.0
927.42,83.0
927.49,73.0
927.55,103.0
927.61,105.0
927.67,100.0
927.74,91.0
927.8,93.0
927.86,83.0
927.93,83.0
927.99,83.0
928.05,86.0
928.12,89.0
928.18,88.0
928.24,91.0
928.3,89.0
928.37,74.0
928.43,81.0
928.49,82.0
928.56,72.0
928.62,83.0
928.68,73.0
928.75,70.0
928.81,68.0
928.87,67.0
928.93,70.0
929.0,77.0
929.06,86.0
929.12,89.0
929.19,94.0
929.25,90.0
929.31,89.0
929.38,103.0
929.44,106.0
929.5,100.0
929.56,95.0
929.63,111.0
929.69,89.0
929.75,95.0
929.82,102.0
929.88,96.0
929.94,102.0
930.01,100.0
930.07,124.0
930.13,106.0
930.19,118.0
930.26,130.0
930.32,113.0
930.38,114.0
930.45,114.0
930.51,109.0
930.57,114.0
930.64,118.0
930.7,116.0
930.76,132.0
930.82,132.0
930.89,125.0
930.95,110.0
931.01,108.0
931.08,131.0
931.14,118.0
931.2,137.0
931.27,125.0
931.33,110.0
931.39,120.0
931.45,103.0
931.52,105.0
931.58,98.0
931.64,83.0
931.71,66.0
931.77,77.0
931.83,97.0
931.9,88.0
931.96,89.0
932.02,70.0
932.08,77.0
932.15,82.0
932.21,76.0
932.27,93.0
932.34,102.0
932.4,102.0
932.46,110.0
932.53,110.0
932.59,128.0
932.65,136.0
932.71,134.0
932.78,120.0
932.84,111.0
932.9,108.0
932.97,104.0
933.03,119.0
933.09,97.0
933.16,102.0
933.22,85.0
933.28,85.0
933.34,92.0
933.41,90.0
933.47,103.0
933.53,89.0
933.6,127.0
933.66,106.0
933.72,90.0
933.79,111.0
933.85,103.0
933.91,113.0
933.97,100.0
934.04,85.0
934.1,89.0
934.16,100.0
934.23,103.0
934.29,93.0
934.35,93.0
934.42,106.0
934.48,96.0
934.54,84.0
934.6,91.0
934.67,90.0
934.73,76.0
934.79,83.0
934.86,68.0
934.92,93.0
934.98,97.0
935.05,81.0
935.11,72.0
935.17,77.0
935.23,81.0
935.3,73.0
935.36,85.0
935.42,84.0
935.49,85.0
935.55,81.0
935.61,70.0
935.68,75.0
935.74,73.0
935.8,103.0
935.86,111.0
935.93,95.0
935.99,77.0
936.05,57.0
936.12,80.0
936.18,78.0
936.24,78.0
936.31,73.0
936.37,77.0
936.43,75.0
936.49,85.0
936.56,60.0
936.62,79.0
936.68,77.0
936.75,84.0
936.81,78.0
936.87,77.0
936.94,77.0
937.0,64.0
937.06,59.0
937.12,80.0
937.19,74.0
937.25,83.0
937.31,82.0
937.38,79.0
937.44,62.0
937.5,53.0
937.57,63.0
937.63,66.0
937.69,68.0
937.75,74.0
937.82,68.0
937.88,71.0
937.94,70.0
938.01,71.0
938.07,93.0
938.13,86.0
938.2,97.0
938.26,99.0
938.32,104.0
938.38,91.0
938.45,95.0
938.51,99.0
938.57,89.0
938.64,85.0
938.7,102.0
938.76,118.0
938.83,110.0
938.89,86.0
938.95,107.0
939.01,121.0
939.08,120.0
939.14,125.0
939.2,108.0
939.27,140.0
939.33,125.0
939.39,103.0
939.46,111.0
939.52,138.0
939.58,142.0
939.64,125.0
939.71,125.0
939.77,121.0
939.83,113.0
939.9,115.0
939.96,113.0
940.02,109.0
940.09,112.0
940.15,116.0
940.21,97.0
940.27,105.0
940.34,105.0
940.4,100.0
940.46,135.0
940.53,130.0
940.59,136.0
940.65,125.0
940.72,99.0
940.78,122.0
940.84,118.0
940.9,105.0
940.97,104.0
941.03,102.0
941.09,97.0
941.16,114.0
941.22,111.0
941.28,140.0
941.35,129.0
941.41,128.0
941.47,120.0
941.53,106.0
941.6,94.0
941.66,88.0
941.72,91.0
941.79,107.0
941.85,110.0
941.91,113.0
941.98,108.0
942.04,106.0
942.1,85.0
942.16,62.0
942.23,74.0
942.29,64.0
942.35,79.0
942.42,66.0
942.48,63.0
942.54,63.0
942.61,72.0
942.67,59.0
942.73,52.0
942.79,68.0
942.86,74.0
942.92,66.0
942.98,52.0
943.05,52.0
943.11,53.0
943.17,39.0
943.24,53.0
943.3,28.0
943.36,32.0
943.42,42.0
943.49,39.0
943.55,58.0
943.61,43.0
943.68,28.0
943.74,27.0
943.8,44.0
943.87,41.0
943.93,62.0
943.99,66.0
944.05,37.0
944.12,46.0
944.18,37.0
944.24,41.0
944.31,38.0
944.37,35.0
944.43,28.0
944.5,31.0
944.56,20.0
944.62,44.0
944.68,26.0
944.75,33.0
944.81,51.0
944.87,56.0
944.94,62.0
945.0,69.0
945.06,65.0
945.13,51.0
945.19,59.0
945.25,66.0
945.31,74.0
945.38,58.0
945.44,45.0
945.5,74.0
945.57,72.0
945.63,77.0
945.69,60.0
945.76,74.0
945.82,78.0
945.88,72.0
945.94,63.0
946.01,61.0
946.07,70.0
946.13,77.0
946.2,63.0
946.26,70.0
946.32,69.0
946.39,77.0
946.45,77.0
946.51,87.0
946.57,100.0
946.64,78.0
946.7,88.0
946.76,84.0
946.83,104.0
946.89,116.0
946.95,111.0
947.02,117.0
947.08,107.0
947.14,88.0
947.2,111.0
947.27,106.0
947.33,105.0
947.39,99.0
947.46,88.0
947.52,107.0
947.58,77.0
947.65,102.0
947.71,111.0
947.77,118.0
947.83,117.0
947.9,103.0
947.96,103.0
948.02,105.0
948.09,121.0
948.15,122.0
948.21,117.0
948.28,118.0
948.34,115.0
948.4,117.0
948.46,112.0
948.53,111.0
948.59,105.0
948.65,134.0
948.72,116.0
948.78,111.0
948.84,134.0
948.91,127.0
948.97,114.0
949.03,119.0
949.09,127.0
949.16,140.0
949.22,132.0
949.28,108.0
949.35,129.0
949.41,138.0
949.47,113.0
949.54,101.0
949.6,88.0
949.66,105.0
949.72,120.0
949.79,116.0
949.85,83.0
949.91,83.0
949.98,97.0
950.04,72.0
950.1,59.0
950.17,78.0
950.23,87.0
950.29,90.0
950.35,79.0
950.42,98.0
950.48,111.0
950.54,114.0
950.61,93.0
950.67,115.0
950.73,109.0
950.8,122.0
950.86,128.0
950.92,107.0
950.98,102.0
951.05,103.0
951.11,118.0
951.17,114.0
951.24,128.0
951.3,123.0
951.36,130.0
951.43,132.0
951.49,143.0
951.55,136.0
951.61,146.0
951.68,149.0
951.74,131.0
951.8,121.0
951.87,126.0
951.93,113.0
951.99,117.0
952.06,140.0
952.12,136.0
952.18,140.0
952.24,136.0
952.31,135.0
952.37,117.0
952.43,125.0
952.5,139.0
952.56,125.0
952.62,130.0
952.69,116.0
952.75,128.0
952.81,117.0
952.87,112.0
952.94,105.0
953.0,103.0
953.06,118.0
953.13,127.0
953.19,121.0
953.25,117.0
953.32,105.0
953.38,96.0
953.44,98.0
953.5,84.0
953.57,83.0
953.63,95.0
953.69,105.0
953.76,100.0
953.82,105.0
953.88,102.0
953.95,115.0
954.01,122.0
954.07,128.0
954.13,133.0
954.2,110.0
954.26,99.0
954.32,107.0
954.39,94.0
954.45,99.0
954.51,122.0
954.58,102.0
954.64,116.0
954.7,118.0
954.76,118.0
954.83,115.0
954.89,128.0
954.95,163.0
955.02,137.0
955.08,141.0
955.14,125.0
955.21,139.0
955.27,140.0
955.33,133.0
955.39,125.0
955.46,121.0
955.52,146.0
955.58,125.0
955.65,136.0
955.71,137.0
955.77,140.0
955.84,152.0
955.9,157.0
955.96,154.0
956.02,138.0
956.09,135.0
956.15,165.0
956.21,174.0
956.28,151.0
956.34,182.0
956.4,164.0
956.47,155.0
956.53,132.0
956.59,147.0
956.65,149.0
956.72,140.0
956.78,160.0
956.84,158.0
956.91,156.0
956.97,149.0
957.03,149.0
957.1,153.0
957.16,167.0
957.22,145.0
957.28,139.0
957.35,154.0
957.41,152.0
957.47,163.0
957.54,131.0
957.6,143.0
957.66,153.0
957.73,119.0
957.79,143.0
957.85,136.0
957.91,135.0
957.98,144.0
958.04,116.0
958.1,123.0
958.17,109.0
958.23,116.0
958.29,122.0
958.36,112.0
958.42,114.0
958.48,115.0
958.54,131.0
958.61,120.0
958.67,114.0
958.73,108.0
958.8,97.0
958.86,103.0
958.92,92.0
958.99,75.0
959.05,88.0
959.11,72.0
959.17,81.0
959.24,84.0
959.3,90.0
959.36,94.0
959.43,106.0
959.49,82.0
959.55,92.0
959.62,89.0
959.68,106.0
959.74,93.0
959.8,83.0
959.87,95.0
959.93,94.0
959.99,87.0
960.06,89.0
960.12,81.0
960.18,92.0
960.25,88.0
960.31,101.0
960.37,92.0
960.43,90.0
960.5,99.0
960.56,107.0
960.62,104.0
960.69,79.0
960.75,103.0
960.81,97.0
960.88,81.0
960.94,85.0
961.0,76.0
961.06,88.0
961.13,92.0
961.19,85.0
961.25,89.0
961.32,75.0
961.38,66.0
961.44,89.0
961.51,73.0
961.57,86.0
961.63,108.0
961.69,89.0
961.76,83.0
961.82,95.0
961.88,92.0
961.95,95.0
962.01,100.0
962.07,110.0
962.14,125.0
962.2,126.0
962.26,129.0
962.32,123.0
962.39,121.0
962.45,113.0
962.51,133.0
962.58,130.0
962.64,127.0
962.7,103.0
962.77,127.0
962.83,117.0
962.89,120.0
962.95,142.0
963.02,141.0
963.08,116.0
963.14,108.0
963.21,120.0
963.27,108.0
963.33,121.0
963.4,125.0
963.46,103.0
963.52,89.0
963.58,103.0
963.65,95.0
963.71,94.0
963.77,86.0
963.84,83.0
963.9,103.0
963.96,90.0
964.03,89.0
964.09,92.0
964.15,104.0
964.21,88.0
964.28,72.0
964.34,80.0
964.4,93.0
964.47,89.0
964.53,83.0
964.59,90.0
964.66,105.0
964.72,111.0
964.78,105.0
964.84,103.0
964.91,108.0
964.97,113.0
965.03,118.0
965.1,105.0
965.16,129.0
965.22,135.0
965.29,143.0
965.35,129.0
965.41,122.0
965.47,136.0
965.54,121.0
965.6,128.0
965.66,134.0
965.73,132.0
965.79,140.0
965.85,147.0
965.92,128.0
965.98,160.0
966.04,154.0
966.1,148.0
966.17,143.0
966.23,148.0
966.29,167.0
966.36,155.0
966.42,141.0
966.48,171.0
966.55,165.0
966.61,169.0
966.67,187.0
966.73,169.0
966.8,168.0
966.86,166.0
966.92,165.0
966.99,169.0
967.05,141.0
967.11,133.0
967.18,149.0
967.24,153.0
967.3,146.0
967.36,160.0
967.43,148.0
967.49,157.0
967.55,155.0
967.62,136.0
967.68,150.0
967.74,150.0
967.81,151.0
967.87,171.0
967.93,162.0
967.99,164.0
968.06,178.0
968.12,159.0
968.18,163.0
968.25,157.0
968.31,136.0
968.37,134.0
968.44,144.0
968.5,127.0
968.56,145.0
968.62,146.0
968.69,148.0
968.75,128.0
968.81,132.0
968.88,120.0
968.94,118.0
969.0,102.0
969.07,87.0
969.13,92.0
969.19,117.0
969.25,87.0
969.32,80.0
969.38,80.0
969.44,79.0
969.51,84.0
969.57,92.0
969.63,90.0
969.7,96.0
969.76,99.0
969.82,87.0
969.88,75.0
969.95,91.0
970.01,89.0
970.07,74.0
970.14,69.0
970.2,61.0
970.26,73.0
970.33,64.0
970.39,50.0
970.45,58.0
970.51,70.0
970.58,75.0
970.64,62.0
970.7,81.0
970.77,48.0
970.83,59.0
970.89,70.0
970.96,108.0
971.02,111.0
971.08,89.0
971.14,80.0
971.21,88.0
971.27,89.0
971.33,82.0
971.4,103.0
971.46,106.0
971.52,102.0
971.59,102.0
971.65,112.0
971.71,86.0
971.77,77.0
971.84,95.0
971.9,107.0
971.96,125.0
972.03,119.0
972.09,105.0
972.15,142.0
972.22,133.0
972.28,118.0
972.34,119.0
972.4,120.0
972.47,127.0
972.53,129.0
972.59,130.0
972.66,118.0
972.72,138.0
972.78,158.0
972.85,154.0
972.91,143.0
972.97,129.0
973.03,141.0
973.1,130.0
973.16,141.0
973.22,154.0
973.29,150.0
973.35,132.0
973.41,129.0
973.48,132.0
973.54,142.0
973.6,143.0
973.66,147.0
973.73,162.0
973.79,146.0
973.85,158.0
973.92,164.0
973.98,152.0
974.04,159.0
974.11,165.0
974.17,154.0
974.23,138.0
974.29,145.0
974.36,158.0
974.42,158.0
974.48,144.0
974.55,157.0
974.61,159.0
974.67,155.0
974.74,118.0
974.8,101.0
974.86,124.0
974.92,125.0
974.99,109.0
975.05,107.0
975.11,102.0
975.18,109.0
975.24,114.0
975.3,103.0
975.37,87.0
975.43,82.0
975.49,107.0
975.55,111.0
975.62,99.0
975.68,100.0
975.74,72.0
975.81,99.0
975.87,119.0
975.93,117.0
976.0,111.0
976.06,106.0
976.12,121.0
976.18,102.0
976.25,102.0
976.31,91.0
976.37,105.0
976.44,95.0
976.5,83.0
976.56,62.0
976.63,80.0
976.69,72.0
976.75,91.0
976.81,82.0
976.88,57.0
976.94,69.0
977.0,60.0
977.07,47.0
977.13,64.0
977.19,78.0
977.26,58.0
977.32,70.0
977.38,74.0
977.44,73.0
977.51,58.0
977.57,66.0
977.63,66.0
977.7,62.0
977.76,64.0
977.82,46.0
977.89,55.0
977.95,60.0
978.01,72.0
978.07,70.0
978.14,45.0
978.2,47.0
978.26,45.0
978.33,42.0
978.39,34.0
978.45,46.0
978.52,47.0
978.58,59.0
978.64,71.0
978.7,60.0
978.77,47.0
978.83,55.0
978.89,52.0
978.96,48.0
979.02,47.0
979.08,61.0
979.15,69.0
979.21,52.0
979.27,69.0
979.33,70.0
979.4,57.0
979.46,70.0
979.52,66.0
979.59,69.0
979.65,90.0
979.71,72.0
979.78,70.0
979.84,73.0
979.9,74.0
979.96,70.0
980.03,60.0
980.09,46.0
980.15,47.0
980.22,40.0
980.28,50.0
980.34,70.0
980.41,58.0
980.47,70.0
980.53,80.0
980.59,84.0
980.66,91.0
980.72,84.0
980.78,70.0
980.85,61.0
980.91,73.0
980.97,73.0
981.04,69.0
981.1,63.0
981.16,77.0
981.22,62.0
981.29,74.0
981.35,65.0
981.41,52.0
981.48,84.0
981.54,66.0
981.6,61.0
981.67,80.0
981.73,86.0
981.79,88.0
981.85,87.0
981.92,96.0
981.98,114.0
982.04,114.0
982.11,89.0
982.17,113.0
982.23,114.0
982.3,98.0
982.36,105.0
982.42,84.0
982.48,79.0
982.55,73.0
982.61,83.0
982.67,93.0
982.74,89.0
982.8,96.0
982.86,94.0
982.93,75.0
982.99,76.0
983.05,77.0
983.11,92.0
983.18,72.0
983.24,81.0
983.3,77.0
983.37,79.0
983.43,79.0
983.49,92.0
983.56,99.0
983.62,92.0
983.68,101.0
983.74,98.0
983.81,81.0
983.87,81.0
983.93,64.0
984.0,64.0
984.06,89.0
984.12,97.0
984.19,81.0
984.25,94.0
984.31,105.0
984.37,100.0
984.44,105.0
984.5,95.0
984.56,100.0
984.63,109.0
984.69,97.0
984.75,109.0
984.82,108.0
984.88,98.0
984.94,97.0
985.0,102.0
985.07,108.0
985.13,103.0
985.19,105.0
985.26,103.0
985.32,74.0
985.38,88.0
985.45,99.0
985.51,105.0
985.57,88.0
985.63,108.0
985.7,100.0
985.76,98.0
985.82,99.0
985.89,83.0
985.95,66.0
986.01,84.0
986.08,78.0
986.14,77.0
986.2,64.0
986.26,58.0
986.33,45.0
986.39,52.0
986.45,44.0
986.52,51.0
986.58,48.0
986.64,42.0
986.71,60.0
986.77,48.0
986.83,48.0
986.89,40.0
986.96,29.0
987.02,40.0
987.08,33.0
987.15,45.0
987.21,28.0
987.27,43.0
987.34,34.0
987.4,42.0
987.46,25.0
987.52,39.0
987.59,46.0
987.65,41.0
987.71,42.0
987.78,26.0
987.84,22.0
987.9,28.0
987.97,29.0
988.03,59.0
988.09,45.0
988.15,43.0
988.22,37.0
988.28,50.0
988.34,59.0
988.41,51.0
988.47,60.0
988.53,61.0
988.6,65.0
988.66,54.0
988.72,58.0
988.78,47.0
988.85,39.0
988.91,67.0
988.97,50.0
989.04,43.0
989.1,62.0
989.16,65.0
989.23,62.0
989.29,72.0
989.35,70.0
989.41,80.0
989.48,85.0
989.54,66.0
989.6,83.0
989.67,88.0
989.73,84.0
989.79,80.0
989.86,75.0
989.92,89.0
989.98,81.0
990.04,72.0
990.11,75.0
990.17,85.0
990.23,77.0
990.3,62.0
990.36,61.0
990.42,57.0
990.49,62.0
990.55,79.0
990.61,79.0
990.67,100.0
990.74,88.0
990.8,92.0
990.86,89.0
990.93,83.0
990.99,83.0
991.05,99.0
991.12,92.0
991.18,107.0
991.24,101.0
991.3,96.0
991.37,99.0
991.43,99.0
991.49,117.0
991.56,133.0
991.62,138.0
991.68,125.0
991.75,117.0
991.81,111.0
991.87,125.0
991.93,116.0
992.0,99.0
992.06,93.0
992.12,88.0
992.19,102.0
992.25,107.0
992.31,117.0
992.38,117.0
992.44,92.0
992.5,80.0
992.56,89.0
992.63,93.0
992.69,95.0
992.75,110.0
992.82,96.0
992.88,81.0
992.94,72.0
993.01,69.0
993.07,84.0
993.13,86.0
993.19,68.0
993.26,80.0
993.32,94.0
993.38,105.0
993.45,103.0
993.51,121.0
993.57,118.0
993.64,119.0
993.7,111.0
993.76,96.0
993.82,89.0
993.89,101.0
993.95,84.0
994.01,66.0
994.08,84.0
994.14,92.0
994.2,110.0
994.27,105.0
994.33,113.0
994.39,97.0
994.45,103.0
994.52,92.0
994.58,102.0
994.64,112.0
994.71,126.0
994.77,117.0
994.83,128.0
994.9,107.0
994.96,85.0
995.02,90.0
995.08,100.0
995.15,85.0
995.21,81.0
995.27,88.0
995.34,94.0
995.4,93.0
995.46,94.0
995.53,90.0
995.59,81.0
995.65,83.0
995.71,91.0
995.78,92.0
995.84,107.0
995.9,99.0
995.97,77.0
996.03,84.0
996.09,109.0
996.16,72.0
996.22,77.0
996.28,99.0
996.34,77.0
996.41,97.0
996.47,103.0
996.53,91.0
996.6,102.0
996.66,114.0
996.72,102.0
996.79,103.0
996.85,101.0
996.91,98.0
996.97,101.0
997.04,91.0
997.1,94.0
997.16,102.0
997.23,99.0
997.29,74.0
997.35,83.0
997.42,114.0
997.48,89.0
997.54,109.0
997.6,118.0
997.67,121.0
997.73,114.0
997.79,104.0
997.86,131.0
997.92,130.0
997.98,121.0
998.05,135.0
998.11,127.0
998.17,132.0
998.23,132.0
998.3,132.0
998.36,137.0
998.42,144.0
998.49,139.0
998.55,140.0
998.61,143.0
998.68,125.0
998.74,106.0
998.8,104.0
998.86,123.0
998.93,147.0
998.99,136.0
999.05,147.0
999.12,145.0
999.18,137.0
999.24,130.0
999.31,135.0
999.37,136.0
999.43,152.0
999.49,163.0
999.56,146.0
999.62,143.0
999.68,131.0
999.75,125.0
999.81,109.0
999.87,108.0
