timestamp,intensity
0,-205.0
0.06,-213.0
0.13,-211.0
0.19,-204.0
0.25,-202.0
0.32,-207.0
0.38,-213.0
0.44,-223.0
0.5,-215.0
0.57,-207.0
0.63,-231.0
0.69,-228.0
0.76,-222.0
0.82,-229.0
0.88,-216.0
0.94,-224.0
1.01,-233.0
1.07,-240.0
1.13,-228.0
1.2,-258.0
1.26,-243.0
1.32,-245.0
1.39,-233.0
1.45,-228.0
1.51,-230.0
1.57,-221.0
1.64,-210.0
1.7,-213.0
1.76,-222.0
1.83,-235.0
1.89,-242.0
1.95,-247.0
2.02,-245.0
2.08,-245.0
2.14,-241.0
2.2,-237.0
2.27,-259.0
2.33,-277.0
2.39,-261.0
2.46,-252.0
2.52,-263.0
2.58,-279.0
2.65,-285.0
2.71,-298.0
2.77,-295.0
2.84,-281.0
2.9,-278.0
2.96,-276.0
3.02,-280.0
3.09,-277.0
3.15,-275.0
3.21,-271.0
3.28,-265.0
3.34,-247.0
3.4,-250.0
3.47,-265.0
3.53,-255.0
3.59,-266.0
3.65,-282.0
3.72,-284.0
3.78,-271.0
3.84,-253.0
3.91,-254.0
3.97,-269.0
4.03,-260.0
4.1,-261.0
4.16,-248.0
4.22,-241.0
4.28,-239.0
4.35,-224.0
4.41,-238.0
4.47,-244.0
4.54,-234.0
4.6,-229.0
4.66,-232.0
4.73,-253.0
4.79,-259.0
4.85,-259.0
4.91,-259.0
4.98,-262.0
5.04,-272.0
5.1,-274.0
5.17,-268.0
5.23,-270.0
5.29,-244.0
5.35,-249.0
5.42,-251.0
5.48,-259.0
5.54,-258.0
5.61,-245.0
5.67,-254.0
5.73,-270.0
5.8,-257.0
5.86,-254.0
5.92,-272.0
5.98,-280.0
6.05,-272.0
6.11,-276.0
6.17,-276.0
6.24,-258.0
6.3,-252.0
6.36,-259.0
6.43,-246.0
6.49,-236.0
6.55,-241.0
6.61,-232.0
6.68,-234.0
6.74,-242.0
6.8,-237.0
6.87,-250.0
6.93,-247.0
6.99,-227.0
7.06,-256.0
7.12,-253.0
7.18,-246.0
7.24,-251.0
7.31,-244.0
7.37,-241.0
7.43,-256.0
7.5,-243.0
7.56,-251.0
7.62,-262.0
7.69,-250.0
7.75,-252.0
7.81,-253.0
7.87,-228.0
7.94,-239.0
8.0,-248.0
8.06,-232.0
8.13,-227.0
8.19,-234.0
8.25,-233.0
8.32,-262.0
8.38,-258.0
8.44,-257.0
8.5,-266.0
8.57,-251.0
8.63,-258.0
8.69,-262.0
8.76,-269.0
8.82,-295.0
8.88,-274.0
8.95,-287.0
9.01,-267.0
9.07,-274.0
9.13,-298.0
9.2,-290.0
9.26,-307.0
9.32,-304.0
9.39,-292.0
9.45,-293.0
9.51,-297.0
9.58,-278.0
9.64,-302.0
9.7,-288.0
9.77,-283.0
9.83,-318.0
9.89,-310.0
9.95,-331.0
10.02,-343.0
10.08,-347.0
10.14,-366.0
10.21,-361.0
10.27,-378.0
10.33,-357.0
10.4,-321.0
10.46,-333.0
10.52,-326.0
10.58,-376.0
10.65,-342.0
10.71,-352.0
10.77,-373.0
10.84,-377.0
10.9,-355.0
10.96,-353.0
11.03,-362.0
11.09,-361.0
11.15,-367.0
11.21,-347.0
11.28,-355.0
11.34,-358.0
11.4,-348.0
11.47,-361.0
11.53,-342.0
11.59,-342.0
11.66,-363.0
11.72,-349.0
11.78,-347.0
11.84,-345.0
11.91,-359.0
11.97,-366.0
12.03,-365.0
12.1,-362.0
12.16,-347.0
12.22,-351.0
12.29,-333.0
12.35,-335.0
12.41,-338.0
12.47,-329.0
12.54,-315.0
12.6,-334.0
12.66,-320.0
12.73,-301.0
12.79,-310.0
12.85,-297.0
12.92,-303.0
12.98,-288.0
13.04,-287.0
13.1,-295.0
13.17,-296.0
13.23,-288.0
13.29,-289.0
13.36,-279.0
13.42,-293.0
13.48,-284.0
13.55,-270.0
13.61,-281.0
13.67,-279.0
13.73,-300.0
13.8,-266.0
13.86,-274.0
13.92,-278.0
13.99,-286.0
14.05,-262.0
14.11,-276.0
14.18,-269.0
14.24,-278.0
14.3,-288.0
14.36,-261.0
14.43,-270.0
14.49,-266.0
14.55,-278.0
14.62,-281.0
14.68,-274.0
14.74,-269.0
14.81,-249.0
14.87,-240.0
14.93,-243.0
14.99,-231.0
15.06,-237.0
15.12,-253.0
15.18,-242.0
15.25,-250.0
15.31,-239.0
15.37,-242.0
15.44,-250.0
15.5,-240.0
15.56,-268.0
15.62,-251.0
15.69,-254.0
15.75,-258.0
15.81,-264.0
15.88,-255.0
15.94,-240.0
16.0,-245.0
16.07,-230.0
16.13,-234.0
16.19,-232.0
16.25,-226.0
16.32,-214.0
16.38,-215.0
16.44,-203.0
16.51,-199.0
16.57,-205.0
16.63,-201.0
16.7,-200.0
16.76,-175.0
16.82,-209.0
16.88,-194.0
16.95,-183.0
17.01,-204.0
17.07,-195.0
17.14,-197.0
17.2,-194.0
17.26,-201.0
17.33,-189.0
17.39,-178.0
17.45,-192.0
17.51,-182.0
17.58,-171.0
17.64,-183.0
17.7,-191.0
17.77,-190.0
17.83,-183.0
17.89,-191.0
17.96,-190.0
18.02,-207.0
18.08,-166.0
18.14,-163.0
18.21,-195.0
18.27,-187.0
18.33,-201.0
18.4,-189.0
18.46,-181.0
18.52,-205.0
18.59,-201.0
18.65,-195.0
18.71,-197.0
18.77,-190.0
18.84,-164.0
18.9,-170.0
18.96,-163.0
19.03,-174.0
19.09,-180.0
19.15,-184.0
19.22,-163.0
19.28,-149.0
19.34,-156.0
19.4,-165.0
19.47,-160.0
19.53,-147.0
19.59,-158.0
19.66,-159.0
19.72,-157.0
19.78,-147.0
19.84,-156.0
19.91,-162.0
19.97,-126.0
20.03,-148.0
20.1,-143.0
20.16,-132.0
20.22,-133.0
20.29,-137.0
20.35,-141.0
20.41,-127.0
20.47,-138.0
20.54,-113.0
20.6,-109.0
20.66,-91.0
20.73,-106.0
20.79,-129.0
20.85,-124.0
20.92,-107.0
20.98,-111.0
21.04,-107.0
21.1,-104.0
21.17,-109.0
21.23,-117.0
21.29,-130.0
21.36,-111.0
21.42,-114.0
21.48,-92.0
21.55,-98.0
21.61,-110.0
21.67,-83.0
21.73,-104.0
21.8,-86.0
21.86,-82.0
21.92,-91.0
21.99,-72.0
22.05,-74.0
22.11,-80.0
22.18,-63.0
22.24,-61.0
22.3,-65.0
22.36,-71.0
22.43,-59.0
22.49,-46.0
22.55,-56.0
22.62,-53.0
22.68,-34.0
22.74,-29.0
22.81,-45.0
22.87,-30.0
22.93,-28.0
22.99,-21.0
23.06,-15.0
23.12,-18.0
23.18,-20.0
23.25,-39.0
23.31,-11.0
23.37,1.0
23.44,-1.0
23.5,5.0
23.56,-16.0
23.62,-15.0
23.69,-7.0
23.75,-8.0
23.81,22.0
23.88,-11.0
23.94,-8.0
24.0,2.0
24.07,-30.0
24.13,-31.0
24.19,-26.0
24.25,-28.0
24.32,-24.0
24.38,-43.0
24.44,-34.0
24.51,-28.0
24.57,-24.0
24.63,-33.0
24.7,-54.0
24.76,-40.0
24.82,-27.0
24.88,-35.0
24.95,-42.0
25.01,-48.0
25.07,-25.0
25.14,-38.0
25.2,-36.0
25.26,-22.0
25.33,-31.0
25.39,-49.0
25.45,-50.0
25.51,-59.0
25.58,-32.0
25.64,-35.0
25.7,-65.0
25.77,-80.0
25.83,-64.0
25.89,-60.0
25.96,-46.0
26.02,-41.0
26.08,-60.0
26.14,-47.0
26.21,-33.0
26.27,-67.0
26.33,-77.0
26.4,-93.0
26.46,-83.0
26.52,-95.0
26.59,-90.0
26.65,-79.0
26.71,-99.0
26.77,-92.0
26.84,-93.0
26.9,-113.0
26.96,-120.0
27.03,-113.0
27.09,-113.0
27.15,-110.0
27.22,-136.0
27.28,-117.0
27.34,-120.0
27.4,-127.0
27.47,-117.0
27.53,-134.0
27.59,-117.0
27.66,-142.0
27.72,-141.0
27.78,-146.0
27.85,-166.0
27.91,-141.0
27.97,-133.0
28.03,-121.0
28.1,-150.0
28.16,-144.0
28.22,-133.0
28.29,-148.0
28.35,-145.0
28.41,-169.0
28.48,-163.0
28.54,-166.0
28.6,-171.0
28.66,-167.0
28.73,-152.0
28.79,-148.0
28.85,-166.0
28.92,-169.0
28.98,-152.0
29.04,-160.0
29.11,-165.0
29.17,-170.0
29.23,-148.0
29.29,-152.0
29.36,-166.0
29.42,-144.0
29.48,-146.0
29.55,-181.0
29.61,-181.0
29.67,-174.0
29.74,-171.0
29.8,-173.0
29.86,-176.0
29.92,-166.0
29.99,-180.0
30.05,-170.0
30.11,-165.0
30.18,-163.0
30.24,-167.0
30.3,-156.0
30.37,-140.0
30.43,-135.0
30.49,-153.0
30.55,-151.0
30.62,-163.0
30.68,-167.0
30.74,-146.0
30.81,-159.0
30.87,-156.0
30.93,-156.0
31.0,-141.0
31.06,-158.0
31.12,-139.0
31.18,-152.0
31.25,-162.0
31.31,-121.0
31.37,-141.0
31.44,-156.0
31.5,-135.0
31.56,-132.0
31.63,-147.0
31.69,-128.0
31.75,-136.0
31.81,-149.0
31.88,-146.0
31.94,-132.0
32.0,-133.0
32.07,-112.0
32.13,-111.0
32.19,-125.0
32.26,-143.0
32.32,-156.0
32.38,-145.0
32.44,-155.0
32.51,-164.0
32.57,-133.0
32.63,-135.0
32.7,-147.0
32.76,-148.0
32.82,-155.0
32.89,-146.0
32.95,-175.0
33.01,-165.0
33.07,-163.0
33.14,-177.0
33.2,-172.0
33.26,-143.0
33.33,-143.0
33.39,-162.0
33.45,-138.0
33.52,-158.0
33.58,-156.0
33.64,-144.0
33.7,-140.0
33.77,-137.0
33.83,-148.0
33.89,-154.0
33.96,-144.0
34.02,-113.0
34.08,-124.0
34.15,-142.0
34.21,-132.0
34.27,-139.0
34.33,-108.0
34.4,-112.0
34.46,-121.0
34.52,-114.0
34.59,-119.0
34.65,-117.0
34.71,-138.0
34.78,-144.0
34.84,-138.0
34.9,-141.0
34.96,-148.0
35.03,-138.0
35.09,-142.0
35.15,-148.0
35.22,-159.0
35.28,-158.0
35.34,-159.0
35.41,-158.0
35.47,-165.0
35.53,-176.0
35.59,-171.0
35.66,-182.0
35.72,-184.0
35.78,-200.0
35.85,-177.0
35.91,-166.0
35.97,-169.0
36.04,-165.0
36.1,-161.0
36.16,-164.0
36.22,-159.0
36.29,-167.0
36.35,-167.0
36.41,-172.0
36.48,-143.0
36.54,-139.0
36.6,-154.0
36.67,-142.0
36.73,-158.0
36.79,-145.0
36.85,-130.0
36.92,-139.0
36.98,-137.0
37.04,-137.0
37.11,-122.0
37.17,-128.0
37.23,-121.0
37.3,-123.0
37.36,-111.0
37.42,-116.0
37.48,-111.0
37.55,-117.0
37.61,-118.0
37.67,-112.0
37.74,-106.0
37.8,-111.0
37.86,-102.0
37.93,-91.0
37.99,-85.0
38.05,-87.0
38.12,-75.0
38.18,-88.0
38.24,-106.0
38.3,-79.0
38.37,-94.0
38.43,-91.0
38.49,-80.0
38.56,-81.0
38.62,-95.0
38.68,-93.0
38.75,-87.0
38.81,-94.0
38.87,-81.0
38.93,-88.0
39.0,-77.0
39.06,-101.0
39.12,-84.0
39.19,-80.0
39.25,-73.0
39.31,-80.0
39.38,-88.0
39.44,-88.0
39.5,-87.0
39.56,-86.0
39.63,-70.0
39.69,-85.0
39.75,-72.0
39.82,-87.0
39.88,-107.0
39.94,-92.0
40.01,-89.0
40.07,-80.0
40.13,-74.0
40.19,-96.0
40.26,-69.0
40.32,-60.0
40.38,-82.0
40.45,-101.0
40.51,-82.0
40.57,-82.0
40.64,-78.0
40.7,-66.0
40.76,-65.0
40.82,-86.0
40.89,-77.0
40.95,-86.0
41.01,-96.0
41.08,-104.0
41.14,-69.0
41.2,-71.0
41.27,-83.0
41.33,-83.0
41.39,-82.0
41.45,-76.0
41.52,-82.0
41.58,-83.0
41.64,-72.0
41.71,-82.0
41.77,-81.0
41.83,-84.0
41.9,-99.0
41.96,-125.0
42.02,-117.0
42.08,-112.0
42.15,-106.0
42.21,-127.0
42.27,-133.0
42.34,-125.0
42.4,-111.0
42.46,-123.0
42.53,-130.0
42.59,-125.0
42.65,-155.0
42.71,-142.0
42.78,-116.0
42.84,-144.0
42.9,-123.0
42.97,-98.0
43.03,-123.0
43.09,-114.0
43.16,-119.0
43.22,-142.0
43.28,-128.0
43.34,-119.0
43.41,-137.0
43.47,-142.0
43.53,-147.0
43.6,-155.0
43.66,-170.0
43.72,-166.0
43.79,-170.0
43.85,-163.0
43.91,-174.0
43.97,-157.0
44.04,-167.0
44.1,-186.0
44.16,-176.0
44.23,-200.0
44.29,-172.0
44.35,-192.0
44.42,-195.0
44.48,-203.0
44.54,-214.0
44.6,-212.0
44.67,-212.0
44.73,-206.0
44.79,-195.0
44.86,-209.0
44.92,-196.0
44.98,-208.0
45.05,-207.0
45.11,-213.0
45.17,-225.0
45.23,-198.0
45.3,-217.0
45.36,-200.0
45.42,-202.0
45.49,-203.0
45.55,-213.0
45.61,-206.0
45.68,-185.0
45.74,-191.0
45.8,-197.0
45.86,-197.0
45.93,-183.0
45.99,-165.0
46.05,-149.0
46.12,-169.0
46.18,-173.0
46.24,-174.0
46.31,-192.0
46.37,-186.0
46.43,-177.0
46.49,-176.0
46.56,-164.0
46.62,-152.0
46.68,-159.0
46.75,-142.0
46.81,-172.0
46.87,-150.0
46.94,-161.0
47.0,-171.0
47.06,-139.0
47.12,-146.0
47.19,-141.0
47.25,-151.0
47.31,-145.0
47.38,-143.0
47.44,-119.0
47.5,-121.0
47.57,-133.0
47.63,-137.0
47.69,-139.0
47.75,-137.0
47.82,-135.0
47.88,-128.0
47.94,-127.0
48.01,-124.0
48.07,-115.0
48.13,-120.0
48.2,-102.0
48.26,-113.0
48.32,-104.0
48.38,-109.0
48.45,-116.0
48.51,-111.0
48.57,-123.0
48.64,-114.0
48.7,-126.0
48.76,-109.0
48.83,-91.0
48.89,-88.0
48.95,-75.0
49.01,-93.0
49.08,-74.0
49.14,-64.0
49.2,-90.0
49.27,-102.0
49.33,-78.0
49.39,-64.0
49.46,-69.0
49.52,-79.0
49.58,-96.0
49.64,-75.0
49.71,-60.0
49.77,-60.0
49.83,-57.0
49.9,-62.0
49.96,-68.0
50.02,-68.0
50.09,-64.0
50.15,-74.0
50.21,-78.0
50.27,-69.0
50.34,-81.0
50.4,-75.0
50.46,-71.0
50.53,-69.0
50.59,-66.0
50.65,-63.0
50.72,-41.0
50.78,-47.0
50.84,-72.0
50.9,-62.0
50.97,-68.0
51.03,-59.0
51.09,-91.0
51.16,-90.0
51.22,-58.0
51.28,-76.0
51.35,-71.0
51.41,-74.0
51.47,-72.0
51.53,-49.0
51.6,-56.0
51.66,-48.0
51.72,-40.0
51.79,-42.0
51.85,-55.0
51.91,-59.0
51.98,-40.0
52.04,-62.0
52.1,-66.0
52.16,-62.0
52.23,-69.0
52.29,-65.0
52.35,-69.0
52.42,-76.0
52.48,-76.0
52.54,-77.0
52.61,-72.0
52.67,-65.0
52.73,-63.0
52.79,-48.0
52.86,-49.0
52.92,-43.0
52.98,-43.0
53.05,-41.0
53.11,-22.0
53.17,-13.0
53.24,-15.0
53.3,-17.0
53.36,-29.0
53.42,-37.0
53.49,-44.0
53.55,-41.0
53.61,-50.0
53.68,-39.0
53.74,-29.0
53.8,-28.0
53.87,-21.0
53.93,-43.0
53.99,-48.0
54.05,-32.0
54.12,-35.0
54.18,-35.0
54.24,-52.0
54.31,-54.0
54.37,-38.0
54.43,-49.0
54.5,-37.0
54.56,-37.0
54.62,-33.0
54.68,-50.0
54.75,-48.0
54.81,-50.0
54.87,-48.0
54.94,-28.0
55.0,-25.0
55.06,-9.0
55.13,-8.0
55.19,-19.0
55.25,-25.0
55.31,-5.0
55.38,-21.0
55.44,-26.0
55.5,-10.0
55.57,-21.0
55.63,-14.0
55.69,-30.0
55.76,-12.0
55.82,-25.0
55.88,-22.0
55.94,-21.0
56.01,-7.0
56.07,-12.0
56.13,-38.0
56.2,-21.0
56.26,-12.0
56.32,-1.0
56.39,-5.0
56.45,-14.0
56.51,-16.0
56.57,-6.0
56.64,-10.0
56.7,-5.0
56.76,5.0
56.83,16.0
56.89,4.0
56.95,-13.0
57.02,-6.0
57.08,-10.0
57.14,-6.0
57.2,-17.0
57.27,-20.0
57.33,-33.0
57.39,-44.0
57.46,-32.0
57.52,-38.0
57.58,-25.0
57.65,-32.0
57.71,-46.0
57.77,-44.0
57.83,-23.0
57.9,-28.0
57.96,-24.0
58.02,-37.0
58.09,-39.0
58.15,-23.0
58.21,-26.0
58.28,-6.0
58.34,-15.0
58.4,-17.0
58.46,2.0
58.53,-19.0
58.59,-28.0
58.65,-27.0
58.72,-25.0
58.78,-22.0
58.84,-15.0
58.91,10.0
58.97,17.0
59.03,14.0
59.09,-7.0
59.16,3.0
59.22,-3.0
59.28,-4.0
59.35,-10.0
59.41,-17.0
59.47,-17.0
59.54,-12.0
59.6,-29.0
59.66,-20.0
59.72,-11.0
59.79,-16.0
59.85,-18.0
59.91,-33.0
59.98,-34.0
60.04,-48.0
60.1,-52.0
60.17,-67.0
60.23,-58.0
60.29,-60.0
60.35,-67.0
60.42,-43.0
60.48,-72.0
60.54,-77.0
60.61,-85.0
60.67,-97.0
60.73,-78.0
60.8,-94.0
60.86,-103.0
60.92,-81.0
60.98,-97.0
61.05,-118.0
61.11,-117.0
61.17,-142.0
61.24,-154.0
61.3,-150.0
61.36,-130.0
61.43,-149.0
61.49,-131.0
61.55,-135.0
61.61,-144.0
61.68,-141.0
61.74,-141.0
61.8,-135.0
61.87,-142.0
61.93,-125.0
61.99,-124.0
62.06,-128.0
62.12,-129.0
62.18,-134.0
62.24,-125.0
62.31,-137.0
62.37,-139.0
62.43,-117.0
62.5,-115.0
62.56,-106.0
62.62,-96.0
62.69,-106.0
62.75,-97.0
62.81,-119.0
62.87,-116.0
62.94,-101.0
63.0,-97.0
63.06,-95.0
63.13,-102.0
63.19,-90.0
63.25,-84.0
63.32,-89.0
63.38,-76.0
63.44,-86.0
63.5,-101.0
63.57,-92.0
63.63,-93.0
63.69,-87.0
63.76,-88.0
63.82,-85.0
63.88,-66.0
63.95,-50.0
64.01,-66.0
64.07,-69.0
64.13,-61.0
64.2,-57.0
64.26,-63.0
64.32,-62.0
64.39,-47.0
64.45,-68.0
64.51,-48.0
64.58,-36.0
64.64,-40.0
64.7,-44.0
64.76,-48.0
64.83,-33.0
64.89,-68.0
64.95,-45.0
65.02,-64.0
65.08,-59.0
65.14,-48.0
65.21,-68.0
65.27,-51.0
65.33,-47.0
65.39,-39.0
65.46,-46.0
65.52,-41.0
65.58,-48.0
65.65,-49.0
65.71,-59.0
65.77,-50.0
65.84,-39.0
65.9,-68.0
65.96,-80.0
66.02,-84.0
66.09,-81.0
66.15,-78.0
66.21,-53.0
66.28,-70.0
66.34,-73.0
66.4,-69.0
66.47,-64.0
66.53,-43.0
66.59,-40.0
66.65,-54.0
66.72,-58.0
66.78,-54.0
66.84,-50.0
66.91,-43.0
66.97,-59.0
67.03,-58.0
67.1,-30.0
67.16,-34.0
67.22,-42.0
67.28,-56.0
67.35,-54.0
67.41,-47.0
67.47,-37.0
67.54,-30.0
67.6,-26.0
67.66,-43.0
67.73,-41.0
67.79,-32.0
67.85,-29.0
67.91,-36.0
67.98,-16.0
68.04,4.0
68.1,-2.0
68.17,8.0
68.23,-9.0
68.29,-18.0
68.36,-11.0
68.42,-24.0
68.48,7.0
68.54,4.0
68.61,5.0
68.67,0.0
68.73,-4.0
68.8,-7.0
68.86,0.0
68.92,3.0
68.99,0.0
69.05,-15.0
69.11,-1.0
69.17,12.0
69.24,11.0
69.3,-11.0
69.36,9.0
69.43,-16.0
69.49,-4.0
69.55,14.0
69.62,28.0
69.68,9.0
69.74,-3.0
69.8,3.0
69.87,12.0
69.93,1.0
69.99,-12.0
70.06,-19.0
70.12,-20.0
70.18,-8.0
70.25,-4.0
70.31,3.0
70.37,-1.0
70.43,2.0
70.5,-8.0
70.56,-7.0
70.62,-16.0
70.69,-16.0
70.75,-10.0
70.81,-3.0
70.88,10.0
70.94,17.0
71.0,17.0
71.06,36.0
71.13,34.0
71.19,19.0
71.25,31.0
71.32,20.0
71.38,29.0
71.44,2.0
71.51,7.0
71.57,6.0
71.63,27.0
71.69,21.0
71.76,21.0
71.82,12.0
71.88,14.0
71.95,12.0
72.01,9.0
72.07,4.0
72.14,16.0
72.2,30.0
72.26,23.0
72.32,43.0
72.39,52.0
72.45,43.0
72.51,47.0
72.58,25.0
72.64,31.0
72.7,44.0
72.77,20.0
72.83,39.0
72.89,35.0
72.95,52.0
73.02,54.0
73.08,70.0
73.14,78.0
73.21,83.0
73.27,89.0
73.33,94.0
73.4,112.0
73.46,92.0
73.52,93.0
73.58,91.0
73.65,101.0
73.71,96.0
73.77,77.0
73.84,82.0
73.9,81.0
73.96,103.0
74.03,84.0
74.09,68.0
74.15,110.0
74.21,87.0
74.28,74.0
74.34,83.0
74.4,76.0
74.47,64.0
74.53,59.0
74.59,79.0
74.66,80.0
74.72,82.0
74.78,79.0
74.84,72.0
74.91,90.0
74.97,80.0
75.03,83.0
75.1,78.0
75.16,92.0
75.22,96.0
75.29,84.0
75.35,92.0
75.41,72.0
75.47,124.0
75.54,121.0
75.6,100.0
75.66,105.0
75.73,99.0
75.79,69.0
75.85,89.0
75.92,70.0
75.98,87.0
76.04,73.0
76.1,65.0
76.17,86.0
76.23,80.0
76.29,64.0
76.36,69.0
76.42,73.0
76.48,52.0
76.55,69.0
76.61,51.0
76.67,43.0
76.73,24.0
76.8,28.0
76.86,42.0
76.92,26.0
76.99,20.0
77.05,21.0
77.11,19.0
77.18,25.0
77.24,25.0
77.3,21.0
77.36,39.0
77.43,23.0
77.49,18.0
77.55,-3.0
77.62,-1.0
77.68,8.0
77.74,-2.0
77.81,19.0
77.87,23.0
77.93,8.0
77.99,9.0
78.06,-6.0
78.12,-12.0
78.18,13.0
78.25,13.0
78.31,16.0
78.37,10.0
78.44,10.0
78.5,26.0
78.56,5.0
78.62,-22.0
78.69,-9.0
78.75,-22.0
78.81,-6.0
78.88,3.0
78.94,-10.0
79.0,-21.0
79.07,-20.0
79.13,-16.0
79.19,-15.0
79.25,-9.0
79.32,-3.0
79.38,-3.0
79.44,5.0
79.51,9.0
79.57,-2.0
79.63,13.0
79.7,9.0
79.76,-8.0
79.82,-10.0
79.88,-13.0
79.95,-1.0
80.01,17.0
80.07,6.0
80.14,15.0
80.2,9.0
80.26,9.0
80.33,15.0
80.39,17.0
80.45,10.0
80.51,5.0
80.58,11.0
80.64,30.0
80.7,16.0
80.77,12.0
80.83,-1.0
80.89,10.0
80.96,10.0
81.02,-14.0
81.08,7.0
81.14,3.0
81.21,-2.0
81.27,10.0
81.33,21.0
81.4,27.0
81.46,24.0
81.52,23.0
81.59,34.0
81.65,37.0
81.71,59.0
81.77,35.0
81.84,44.0
81.9,37.0
81.96,25.0
82.03,46.0
82.09,55.0
82.15,77.0
82.22,62.0
82.28,61.0
82.34,74.0
82.4,70.0
82.47,74.0
82.53,63.0
82.59,67.0
82.66,74.0
82.72,58.0
82.78,76.0
82.85,76.0
82.91,50.0
82.97,65.0
83.03,67.0
83.1,64.0
83.16,60.0
83.22,67.0
83.29,85.0
83.35,76.0
83.41,70.0
83.48,64.0
83.54,81.0
83.6,65.0
83.66,55.0
83.73,79.0
83.79,61.0
83.85,54.0
83.92,70.0
83.98,48.0
84.04,67.0
84.11,45.0
84.17,73.0
84.23,72.0
84.29,62.0
84.36,74.0
84.42,82.0
84.48,72.0
84.55,54.0
84.61,77.0
84.67,77.0
84.74,60.0
84.8,59.0
84.86,52.0
84.92,62.0
84.99,62.0
85.05,67.0
85.11,78.0
85.18,45.0
85.24,65.0
85.3,58.0
85.37,80.0
85.43,57.0
85.49,69.0
85.55,54.0
85.62,60.0
85.68,56.0
85.74,44.0
85.81,39.0
85.87,48.0
85.93,56.0
86.0,38.0
86.06,48.0
86.12,29.0
86.18,38.0
86.25,31.0
86.31,27.0
86.37,20.0
86.44,29.0
86.5,14.0
86.56,8.0
86.63,8.0
86.69,19.0
86.75,26.0
86.81,31.0
86.88,43.0
86.94,28.0
87.0,11.0
87.07,28.0
87.13,25.0
87.19,27.0
87.26,42.0
87.32,33.0
87.38,64.0
87.44,39.0
87.51,21.0
87.57,29.0
87.63,34.0
87.7,21.0
87.76,19.0
87.82,48.0
87.89,42.0
87.95,41.0
88.01,29.0
88.07,30.0
88.14,61.0
88.2,39.0
88.26,15.0
88.33,33.0
88.39,48.0
88.45,36.0
88.52,24.0
88.58,28.0
88.64,35.0
88.7,30.0
88.77,26.0
88.83,26.0
88.89,27.0
88.96,35.0
89.02,33.0
89.08,35.0
89.15,35.0
89.21,25.0
89.27,22.0
89.33,18.0
89.4,16.0
89.46,33.0
89.52,26.0
89.59,29.0
89.65,43.0
89.71,29.0
89.78,22.0
89.84,31.0
89.9,26.0
89.96,24.0
90.03,29.0
90.09,38.0
90.15,55.0
90.22,66.0
90.28,52.0
90.34,34.0
90.41,46.0
90.47,26.0
90.53,40.0
90.59,48.0
90.66,37.0
90.72,44.0
90.78,45.0
90.85,41.0
90.91,59.0
90.97,41.0
91.04,48.0
91.1,33.0
91.16,18.0
91.22,29.0
91.29,32.0
91.35,16.0
91.41,7.0
91.48,14.0
91.54,26.0
91.6,34.0
91.67,26.0
91.73,20.0
91.79,15.0
91.85,10.0
91.92,2.0
91.98,2.0
92.04,-3.0
92.11,16.0
92.17,10.0
92.23,-1.0
92.3,17.0
92.36,0.0
92.42,-11.0
92.48,-13.0
92.55,-19.0
92.61,-1.0
92.67,4.0
92.74,-9.0
92.8,5.0
92.86,-6.0
92.93,-4.0
92.99,-17.0
93.05,-42.0
93.11,-20.0
93.18,-41.0
93.24,-55.0
93.3,-31.0
93.37,-35.0
93.43,-40.0
93.49,-16.0
93.56,-27.0
93.62,-50.0
93.68,-52.0
93.74,-58.0
93.81,-38.0
93.87,-50.0
93.93,-66.0
94.0,-50.0
94.06,-60.0
94.12,-75.0
94.19,-69.0
94.25,-85.0
94.31,-94.0
94.37,-85.0
94.44,-85.0
94.5,-99.0
94.56,-77.0
94.63,-81.0
94.69,-63.0
94.75,-74.0
94.82,-86.0
94.88,-94.0
94.94,-104.0
95.0,-111.0
95.07,-107.0
95.13,-109.0
95.19,-111.0
95.26,-107.0
95.32,-118.0
95.38,-150.0
95.45,-125.0
95.51,-116.0
95.57,-112.0
95.63,-111.0
95.7,-132.0
95.76,-114.0
95.82,-111.0
95.89,-117.0
95.95,-85.0
96.01,-107.0
96.08,-108.0
96.14,-121.0
96.2,-102.0
96.26,-90.0
96.33,-109.0
96.39,-98.0
96.45,-90.0
96.52,-94.0
96.58,-87.0
96.64,-120.0
96.71,-127.0
96.77,-125.0
96.83,-138.0
96.89,-125.0
96.96,-130.0
97.02,-106.0
97.08,-106.0
97.15,-107.0
97.21,-91.0
97.27,-78.0
97.34,-77.0
97.4,-78.0
97.46,-72.0
97.52,-76.0
97.59,-72.0
97.65,-77.0
97.71,-61.0
97.78,-29.0
97.84,-42.0
97.9,-52.0
97.97,-51.0
98.03,-61.0
98.09,-57.0
98.15,-58.0
98.22,-48.0
98.28,-33.0
98.34,-37.0
98.41,-33.0
98.47,-24.0
98.53,-41.0
98.6,-35.0
98.66,-37.0
98.72,-36.0
98.78,-30.0
98.85,-28.0
98.91,-15.0
98.97,-8.0
99.04,7.0
99.1,-21.0
99.16,-27.0
99.23,-7.0
99.29,1.0
99.35,5.0
99.41,-13.0
99.48,-7.0
99.54,11.0
99.6,-3.0
99.67,15.0
99.73,21.0
99.79,12.0
99.86,11.0
99.92,32.0
99.98,36.0
100.04,40.0
100.11,43.0
100.17,51.0
100.23,41.0
100.3,46.0
100.36,32.0
100.42,48.0
100.49,72.0
100.55,59.0
100.61,69.0
100.67,78.0
100.74,67.0
100.8,52.0
100.86,81.0
100.93,82.0
100.99,66.0
101.05,89.0
101.12,92.0
101.18,106.0
101.24,95.0
101.3,86.0
101.37,93.0
101.43,103.0
101.49,125.0
101.56,114.0
101.62,111.0
101.68,90.0
101.75,104.0
101.81,92.0
101.87,103.0
101.93,92.0
102.0,80.0
102.06,86.0
102.12,68.0
102.19,83.0
102.25,79.0
102.31,54.0
102.38,42.0
102.44,43.0
102.5,58.0
102.56,61.0
102.63,59.0
102.69,77.0
102.75,73.0
102.82,64.0
102.88,72.0
102.94,79.0
103.01,69.0
103.07,84.0
103.13,95.0
103.19,85.0
103.26,89.0
103.32,90.0
103.38,85.0
103.45,105.0
103.51,94.0
103.57,99.0
103.64,109.0
103.7,109.0
103.76,106.0
103.82,104.0
103.89,110.0
103.95,116.0
104.01,121.0
104.08,128.0
104.14,113.0
104.2,112.0
104.27,101.0
104.33,117.0
104.39,118.0
104.45,109.0
104.52,116.0
104.58,113.0
104.64,131.0
104.71,133.0
104.77,128.0
104.83,112.0
104.9,105.0
104.96,114.0
105.02,115.0
105.08,122.0
105.15,145.0
105.21,149.0
105.27,129.0
105.34,107.0
105.4,134.0
105.46,121.0
105.53,101.0
105.59,110.0
105.65,104.0
105.71,101.0
105.78,111.0
105.84,104.0
105.9,111.0
105.97,98.0
106.03,97.0
106.09,90.0
106.16,95.0
106.22,110.0
106.28,102.0
106.34,107.0
106.41,121.0
106.47,121.0
106.53,127.0
106.6,100.0
106.66,117.0
106.72,110.0
106.79,100.0
106.85,111.0
106.91,107.0
106.97,130.0
107.04,125.0
107.1,115.0
107.16,126.0
107.23,128.0
107.29,135.0
107.35,117.0
107.42,120.0
107.48,117.0
107.54,109.0
107.6,117.0
107.67,114.0
107.73,109.0
107.79,114.0
107.86,121.0
107.92,125.0
107.98,125.0
108.05,145.0
108.11,116.0
108.17,117.0
108.23,140.0
108.3,120.0
108.36,117.0
108.42,118.0
108.49,124.0
108.55,121.0
108.61,118.0
108.68,135.0
108.74,107.0
108.8,106.0
108.86,95.0
108.93,108.0
108.99,106.0
109.05,96.0
109.12,115.0
109.18,113.0
109.24,112.0
109.31,121.0
109.37,95.0
109.43,87.0
109.49,98.0
109.56,91.0
109.62,78.0
109.68,100.0
109.75,91.0
109.81,85.0
109.87,82.0
109.94,66.0
110.0,81.0
110.06,100.0
110.12,78.0
110.19,60.0
110.25,71.0
110.31,81.0
110.38,59.0
110.44,62.0
110.5,62.0
110.57,48.0
110.63,20.0
110.69,12.0
110.75,-17.0
110.82,-12.0
110.88,11.0
110.94,-9.0
111.01,-19.0
111.07,-41.0
111.13,-22.0
111.2,-50.0
111.26,-46.0
111.32,-35.0
111.38,-11.0
111.45,-25.0
111.51,-20.0
111.57,-52.0
111.64,-45.0
111.7,-49.0
111.76,-73.0
111.83,-71.0
111.89,-48.0
111.95,-59.0
112.01,-68.0
112.08,-61.0
112.14,-61.0
112.2,-74.0
112.27,-78.0
112.33,-67.0
112.39,-76.0
112.46,-69.0
112.52,-91.0
112.58,-84.0
112.64,-73.0
112.71,-85.0
112.77,-69.0
112.83,-57.0
112.9,-64.0
112.96,-77.0
113.02,-71.0
113.09,-82.0
113.15,-89.0
113.21,-66.0
113.27,-62.0
113.34,-82.0
113.4,-60.0
113.46,-43.0
113.53,-56.0
113.59,-69.0
113.65,-82.0
113.72,-67.0
113.78,-80.0
113.84,-68.0
113.9,-58.0
113.97,-57.0
114.03,-76.0
114.09,-62.0
114.16,-62.0
114.22,-63.0
114.28,-66.0
114.35,-61.0
114.41,-39.0
114.47,-39.0
114.53,-32.0
114.6,-39.0
114.66,-34.0
114.72,-45.0
114.79,-26.0
114.85,-18.0
114.91,-20.0
114.98,-22.0
115.04,-23.0
115.1,-41.0
115.16,-10.0
115.23,-21.0
115.29,-44.0
115.35,-23.0
115.42,-36.0
115.48,-48.0
115.54,-27.0
115.61,-23.0
115.67,-24.0
115.73,-37.0
115.79,-16.0
115.86,-24.0
115.92,-18.0
115.98,-40.0
116.05,-26.0
116.11,-37.0
116.17,-28.0
116.24,-27.0
116.3,-28.0
116.36,-29.0
116.42,-23.0
116.49,-35.0
116.55,-41.0
116.61,-39.0
116.68,-33.0
116.74,-33.0
116.8,-38.0
116.87,-32.0
116.93,-28.0
116.99,-36.0
117.05,-11.0
117.12,-23.0
117.18,-40.0
117.24,-20.0
117.31,-33.0
117.37,-16.0
117.43,-19.0
117.5,20.0
117.56,-21.0
117.62,8.0
117.68,-20.0
117.75,-23.0
117.81,4.0
117.87,13.0
117.94,15.0
118.0,13.0
118.06,16.0
118.13,21.0
118.19,29.0
118.25,30.0
118.31,22.0
118.38,27.0
118.44,23.0
118.5,14.0
118.57,37.0
118.63,43.0
118.69,32.0
118.76,29.0
118.82,27.0
118.88,43.0
118.94,35.0
119.01,16.0
119.07,41.0
119.13,60.0
119.2,63.0
119.26,52.0
119.32,50.0
119.39,49.0
119.45,10.0
119.51,29.0
119.57,19.0
119.64,23.0
119.7,26.0
119.76,48.0
119.83,41.0
119.89,17.0
119.95,35.0
120.02,37.0
120.08,37.0
120.14,46.0
120.2,56.0
120.27,52.0
120.33,34.0
120.39,52.0
120.46,62.0
120.52,58.0
120.58,52.0
120.65,40.0
120.71,27.0
120.77,30.0
120.83,36.0
120.9,49.0
120.96,15.0
121.02,18.0
121.09,9.0
121.15,12.0
121.21,15.0
121.28,-8.0
121.34,17.0
121.4,11.0
121.46,22.0
121.53,10.0
121.59,-6.0
121.65,23.0
121.72,25.0
121.78,35.0
121.84,27.0
121.91,18.0
121.97,30.0
122.03,29.0
122.09,29.0
122.16,29.0
122.22,37.0
122.28,29.0
122.35,36.0
122.41,59.0
122.47,43.0
122.54,52.0
122.6,24.0
122.66,39.0
122.72,43.0
122.79,41.0
122.85,42.0
122.91,41.0
122.98,35.0
123.04,40.0
123.1,57.0
123.17,54.0
123.23,49.0
123.29,55.0
123.35,47.0
123.42,51.0
123.48,60.0
123.54,46.0
123.61,63.0
123.67,85.0
123.73,69.0
123.8,71.0
123.86,67.0
123.92,78.0
123.98,82.0
124.05,85.0
124.11,64.0
124.17,72.0
124.24,61.0
124.3,79.0
124.36,88.0
124.43,87.0
124.49,101.0
124.55,112.0
124.61,91.0
124.68,98.0
124.74,103.0
124.8,76.0
124.87,85.0
124.93,112.0
124.99,99.0
125.06,107.0
125.12,109.0
125.18,109.0
125.24,120.0
125.31,126.0
125.37,106.0
125.43,99.0
125.5,110.0
125.56,109.0
125.62,95.0
125.69,112.0
125.75,96.0
125.81,98.0
125.87,98.0
125.94,111.0
126.0,106.0
126.06,103.0
126.13,93.0
126.19,105.0
126.25,113.0
126.32,114.0
126.38,123.0
126.44,120.0
126.5,109.0
126.57,113.0
126.63,101.0
126.69,112.0
126.76,138.0
126.82,126.0
126.88,115.0
126.95,136.0
127.01,118.0
127.07,117.0
127.13,106.0
127.2,120.0
127.26,111.0
127.32,93.0
127.39,85.0
127.45,105.0
127.51,108.0
127.58,99.0
127.64,93.0
127.7,83.0
127.76,80.0
127.83,72.0
127.89,84.0
127.95,74.0
128.02,54.0
128.08,44.0
128.14,55.0
128.21,58.0
128.27,46.0
128.33,28.0
128.39,39.0
128.46,56.0
128.52,39.0
128.58,48.0
128.65,47.0
128.71,46.0
128.77,54.0
128.84,41.0
128.9,49.0
128.96,53.0
129.02,43.0
129.09,34.0
129.15,21.0
129.21,48.0
129.28,29.0
129.34,48.0
129.4,47.0
129.47,38.0
129.53,28.0
129.59,47.0
129.65,35.0
129.72,53.0
129.78,65.0
129.84,40.0
129.91,69.0
129.97,63.0
130.03,59.0
130.1,49.0
130.16,62.0
130.22,76.0
130.28,65.0
130.35,72.0
130.41,60.0
130.47,68.0
130.54,79.0
130.6,79.0
130.66,77.0
130.73,69.0
130.79,80.0
130.85,79.0
130.91,83.0
130.98,73.0
131.04,75.0
131.1,108.0
131.17,75.0
131.23,91.0
131.29,95.0
131.36,103.0
131.42,105.0
131.48,93.0
131.54,101.0
131.61,88.0
131.67,86.0
131.73,98.0
131.8,102.0
131.86,97.0
131.92,108.0
131.99,118.0
132.05,139.0
132.11,126.0
132.17,135.0
132.24,152.0
132.3,154.0
132.36,136.0
132.43,144.0
132.49,137.0
132.55,132.0
132.62,120.0
132.68,135.0
132.74,121.0
132.8,131.0
132.87,142.0
132.93,115.0
132.99,110.0
133.06,136.0
133.12,115.0
133.18,113.0
133.25,132.0
133.31,137.0
133.37,111.0
133.43,102.0
133.5,114.0
133.56,98.0
133.62,117.0
133.69,125.0
133.75,123.0
133.81,121.0
133.88,124.0
133.94,120.0
134.0,128.0
134.06,111.0
134.13,122.0
134.19,118.0
134.25,124.0
134.32,140.0
134.38,110.0
134.44,127.0
134.51,132.0
134.57,136.0
134.63,134.0
134.69,142.0
134.76,145.0
134.82,166.0
134.88,166.0
134.95,144.0
135.01,165.0
135.07,160.0
135.14,167.0
135.2,169.0
135.26,181.0
135.32,170.0
135.39,163.0
135.45,157.0
135.51,142.0
135.58,148.0
135.64,165.0
135.7,154.0
135.77,154.0
135.83,140.0
135.89,135.0
135.95,154.0
136.02,173.0
136.08,168.0
136.14,160.0
136.21,159.0
136.27,167.0
136.33,158.0
136.4,132.0
136.46,124.0
136.52,108.0
136.58,131.0
136.65,140.0
136.71,134.0
136.77,131.0
136.84,150.0
136.9,142.0
136.96,144.0
137.03,135.0
137.09,147.0
137.15,142.0
137.21,164.0
137.28,138.0
137.34,131.0
137.4,143.0
137.47,140.0
137.53,140.0
137.59,135.0
137.66,162.0
137.72,158.0
137.78,154.0
137.84,162.0
137.91,165.0
137.97,152.0
138.03,123.0
138.1,134.0
138.16,123.0
138.22,118.0
138.29,116.0
138.35,102.0
138.41,109.0
138.47,117.0
138.54,123.0
138.6,137.0
138.66,122.0
138.73,117.0
138.79,132.0
138.85,120.0
138.92,132.0
138.98,128.0
139.04,115.0
139.1,134.0
139.17,118.0
139.23,126.0
139.29,143.0
139.36,148.0
139.42,137.0
139.48,147.0
139.55,148.0
139.61,120.0
139.67,131.0
139.73,124.0
139.8,116.0
139.86,122.0
139.92,103.0
139.99,115.0
140.05,103.0
140.11,114.0
140.18,113.0
140.24,101.0
140.3,91.0
140.36,86.0
140.43,98.0
140.49,106.0
140.55,101.0
140.62,100.0
140.68,115.0
140.74,112.0
140.81,110.0
140.87,100.0
140.93,101.0
140.99,125.0
141.06,131.0
141.12,116.0
141.18,113.0
141.25,115.0
141.31,131.0
141.37,112.0
141.44,127.0
141.5,142.0
141.56,145.0
141.62,144.0
141.69,140.0
141.75,122.0
141.81,135.0
141.88,145.0
141.94,134.0
142.0,122.0
142.07,113.0
142.13,117.0
142.19,123.0
142.25,138.0
142.32,115.0
142.38,118.0
142.44,115.0
142.51,116.0
142.57,106.0
142.63,118.0
142.7,96.0
142.76,109.0
142.82,108.0
142.88,97.0
142.95,90.0
143.01,79.0
143.07,83.0
143.14,82.0
143.2,80.0
143.26,69.0
143.33,86.0
143.39,65.0
143.45,83.0
143.51,90.0
143.58,87.0
143.64,63.0
143.7,70.0
143.77,63.0
143.83,42.0
143.89,44.0
143.96,57.0
144.02,51.0
144.08,52.0
144.14,51.0
144.21,32.0
144.27,33.0
144.33,20.0
144.4,6.0
144.46,29.0
144.52,39.0
144.59,25.0
144.65,11.0
144.71,1.0
144.77,16.0
144.84,-6.0
144.9,-8.0
144.96,1.0
145.03,-9.0
145.09,1.0
145.15,15.0
145.22,5.0
145.28,21.0
145.34,19.0
145.4,20.0
145.47,21.0
145.53,13.0
145.59,16.0
145.66,15.0
145.72,17.0
145.78,17.0
145.85,7.0
145.91,14.0
145.97,-16.0
146.03,-10.0
146.1,-17.0
146.16,-31.0
146.22,-18.0
146.29,-10.0
146.35,-17.0
146.41,4.0
146.47,-20.0
146.54,-9.0
146.6,-5.0
146.66,-16.0
146.73,-10.0
146.79,1.0
146.85,-10.0
146.92,-46.0
146.98,-15.0
147.04,-21.0
147.1,-11.0
147.17,-25.0
147.23,-10.0
147.29,-22.0
147.36,-24.0
147.42,-32.0
147.48,-54.0
147.55,-40.0
147.61,-32.0
147.67,-23.0
147.73,-38.0
147.8,-35.0
147.86,-33.0
147.92,-37.0
147.99,-25.0
148.05,-46.0
148.11,-39.0
148.18,-22.0
148.24,-29.0
148.3,-21.0
148.36,-38.0
148.43,-31.0
148.49,-26.0
148.55,-22.0
148.62,-12.0
148.68,-26.0
148.74,-11.0
148.81,-18.0
148.87,-10.0
148.93,-18.0
148.99,-22.0
149.06,-16.0
149.12,-12.0
149.18,-4.0
149.25,4.0
149.31,-3.0
149.37,7.0
149.44,7.0
149.5,5.0
149.56,3.0
149.62,7.0
149.69,2.0
149.75,-6.0
149.81,15.0
149.88,13.0
149.94,-20.0
150.0,-18.0
150.07,-8.0
150.13,3.0
150.19,-3.0
150.25,-13.0
150.32,-4.0
150.38,20.0
150.44,25.0
150.51,6.0
150.57,9.0
150.63,9.0
150.7,0.0
150.76,-4.0
150.82,-12.0
150.88,-1.0
150.95,8.0
151.01,3.0
151.07,7.0
151.14,15.0
151.2,18.0
151.26,8.0
151.33,8.0
151.39,0.0
151.45,22.0
151.51,0.0
151.58,7.0
151.64,8.0
151.7,16.0
151.77,16.0
151.83,-3.0
151.89,4.0
151.96,11.0
152.02,43.0
152.08,45.0
152.14,48.0
152.21,41.0
152.27,26.0
152.33,39.0
152.4,22.0
152.46,55.0
152.52,52.0
152.59,57.0
152.65,79.0
152.71,65.0
152.77,60.0
152.84,53.0
152.9,28.0
152.96,37.0
153.03,52.0
153.09,67.0
153.15,63.0
153.22,59.0
153.28,81.0
153.34,84.0
153.4,62.0
153.47,59.0
153.53,74.0
153.59,80.0
153.66,67.0
153.72,71.0
153.78,77.0
153.85,82.0
153.91,78.0
153.97,84.0
154.03,70.0
154.1,77.0
154.16,93.0
154.22,94.0
154.29,93.0
154.35,80.0
154.41,91.0
154.48,87.0
154.54,105.0
154.6,95.0
154.66,99.0
154.73,95.0
154.79,99.0
154.85,87.0
154.92,107.0
154.98,110.0
155.04,96.0
155.11,101.0
155.17,82.0
155.23,112.0
155.29,84.0
155.36,114.0
155.42,124.0
155.48,106.0
155.55,118.0
155.61,123.0
155.67,126.0
155.74,127.0
155.8,130.0
155.86,132.0
155.92,148.0
155.99,137.0
156.05,142.0
156.11,146.0
156.18,156.0
156.24,144.0
156.3,131.0
156.37,132.0
156.43,121.0
156.49,146.0
156.55,155.0
156.62,147.0
156.68,151.0
156.74,135.0
156.81,149.0
156.87,143.0
156.93,156.0
157.0,144.0
157.06,148.0
157.12,146.0
157.18,164.0
157.25,161.0
157.31,134.0
157.37,148.0
157.44,125.0
157.5,135.0
157.56,132.0
157.63,148.0
157.69,151.0
157.75,148.0
157.81,143.0
157.88,132.0
157.94,142.0
158.0,135.0
158.07,152.0
158.13,161.0
158.19,160.0
158.26,136.0
158.32,154.0
158.38,162.0
158.44,154.0
158.51,151.0
158.57,142.0
158.63,139.0
158.7,143.0
158.76,148.0
158.82,154.0
158.89,147.0
158.95,183.0
159.01,183.0
159.07,164.0
159.14,188.0
159.2,176.0
159.26,171.0
159.33,157.0
159.39,163.0
159.45,154.0
159.52,157.0
159.58,153.0
159.64,175.0
159.7,165.0
159.77,169.0
159.83,177.0
159.89,170.0
159.96,173.0
160.02,177.0
160.08,174.0
160.15,162.0
160.21,156.0
160.27,154.0
160.33,158.0
160.4,165.0
160.46,156.0
160.52,138.0
160.59,146.0
160.65,154.0
160.71,163.0
160.78,152.0
160.84,142.0
160.9,144.0
160.96,121.0
161.03,131.0
161.09,119.0
161.15,133.0
161.22,145.0
161.28,117.0
161.34,114.0
161.41,99.0
161.47,84.0
161.53,91.0
161.59,87.0
161.66,84.0
161.72,106.0
161.78,88.0
161.85,66.0
161.91,90.0
161.97,48.0
162.04,71.0
162.1,62.0
162.16,68.0
162.22,54.0
162.29,55.0
162.35,62.0
162.41,64.0
162.48,63.0
162.54,62.0
162.6,77.0
162.67,80.0
162.73,84.0
162.79,83.0
162.85,83.0
162.92,73.0
162.98,83.0
163.04,84.0
163.11,66.0
163.17,68.0
163.23,72.0
163.3,74.0
163.36,74.0
163.42,66.0
163.48,74.0
163.55,70.0
163.61,56.0
163.67,46.0
163.74,51.0
163.8,63.0
163.86,58.0
163.93,60.0
163.99,55.0
164.05,59.0
164.11,52.0
164.18,74.0
164.24,66.0
164.3,59.0
164.37,68.0
164.43,79.0
164.49,92.0
164.56,65.0
164.62,54.0
164.68,47.0
164.74,60.0
164.81,77.0
164.87,71.0
164.93,54.0
165.0,40.0
165.06,41.0
165.12,47.0
165.19,37.0
165.25,46.0
165.31,57.0
165.37,37.0
165.44,43.0
165.5,38.0
165.56,55.0
165.63,66.0
165.69,39.0
165.75,67.0
165.82,43.0
165.88,44.0
165.94,58.0
166.0,66.0
166.07,61.0
166.13,55.0
166.19,72.0
166.26,71.0
166.32,69.0
166.38,58.0
166.45,64.0
166.51,56.0
166.57,63.0
166.63,59.0
166.7,63.0
166.76,88.0
166.82,91.0
166.89,67.0
166.95,63.0
167.01,55.0
167.08,52.0
167.14,27.0
167.2,55.0
167.26,44.0
167.33,31.0
167.39,42.0
167.45,52.0
167.52,51.0
167.58,53.0
167.64,27.0
167.71,19.0
167.77,40.0
167.83,41.0
167.89,57.0
167.96,52.0
168.02,55.0
168.08,59.0
168.15,55.0
168.21,74.0
168.27,52.0
168.34,61.0
168.4,66.0
168.46,79.0
168.52,73.0
168.59,85.0
168.65,89.0
168.71,93.0
168.78,91.0
168.84,72.0
168.9,80.0
168.97,66.0
169.03,70.0
169.09,62.0
169.15,54.0
169.22,66.0
169.28,55.0
169.34,69.0
169.41,85.0
169.47,71.0
169.53,59.0
169.6,54.0
169.66,49.0
169.72,36.0
169.78,58.0
169.85,48.0
169.91,48.0
169.97,40.0
170.04,63.0
170.1,57.0
170.16,52.0
170.23,69.0
170.29,62.0
170.35,50.0
170.41,51.0
170.48,69.0
170.54,64.0
170.6,42.0
170.67,47.0
170.73,46.0
170.79,40.0
170.86,43.0
170.92,63.0
170.98,59.0
171.04,74.0
171.11,93.0
171.17,66.0
171.23,69.0
171.3,55.0
171.36,46.0
171.42,63.0
171.49,47.0
171.55,43.0
171.61,56.0
171.67,61.0
171.74,58.0
171.8,49.0
171.86,64.0
171.93,74.0
171.99,52.0
172.05,64.0
172.12,79.0
172.18,68.0
172.24,57.0
172.3,51.0
172.37,63.0
172.43,52.0
172.49,56.0
172.56,84.0
172.62,55.0
172.68,45.0
172.75,50.0
172.81,49.0
172.87,41.0
172.93,49.0
173.0,40.0
173.06,37.0
173.12,21.0
173.19,24.0
173.25,35.0
173.31,28.0
173.38,66.0
173.44,42.0
173.5,28.0
173.56,46.0
173.63,36.0
173.69,32.0
173.75,49.0
173.82,56.0
173.88,43.0
173.94,60.0
174.01,72.0
174.07,58.0
174.13,74.0
174.19,70.0
174.26,62.0
174.32,68.0
174.38,59.0
174.45,55.0
174.51,44.0
174.57,48.0
174.64,63.0
174.7,73.0
174.76,64.0
174.82,84.0
174.89,66.0
174.95,71.0
175.01,49.0
175.08,54.0
175.14,57.0
175.2,62.0
175.27,62.0
175.33,48.0
175.39,62.0
175.45,65.0
175.52,50.0
175.58,55.0
175.64,92.0
175.71,75.0
175.77,65.0
175.83,65.0
175.9,81.0
175.96,74.0
176.02,73.0
176.08,85.0
176.15,99.0
176.21,80.0
176.27,100.0
176.34,101.0
176.4,103.0
176.46,90.0
176.53,112.0
176.59,116.0
176.65,106.0
176.71,98.0
176.78,102.0
176.84,112.0
176.9,98.0
176.97,106.0
177.03,91.0
177.09,81.0
177.16,79.0
177.22,63.0
177.28,60.0
177.34,63.0
177.41,46.0
177.47,49.0
177.53,61.0
177.6,60.0
177.66,77.0
177.72,74.0
177.79,60.0
177.85,87.0
177.91,85.0
177.97,77.0
178.04,76.0
178.1,44.0
178.16,72.0
178.23,56.0
178.29,59.0
178.35,74.0
178.42,78.0
178.48,47.0
178.54,44.0
178.6,67.0
178.67,79.0
178.73,60.0
178.79,57.0
178.86,69.0
178.92,73.0
178.98,66.0
179.05,58.0
179.11,60.0
179.17,44.0
179.23,54.0
179.3,55.0
179.36,61.0
179.42,65.0
179.49,55.0
179.55,49.0
179.61,56.0
179.68,60.0
179.74,62.0
179.8,55.0
179.86,63.0
179.93,76.0
179.99,63.0
180.05,60.0
180.12,33.0
180.18,45.0
180.24,43.0
180.31,59.0
180.37,66.0
180.43,54.0
180.49,59.0
180.56,77.0
180.62,62.0
180.68,69.0
180.75,90.0
180.81,84.0
180.87,67.0
180.94,63.0
181.0,65.0
181.06,75.0
181.12,68.0
181.19,73.0
181.25,79.0
181.31,75.0
181.38,90.0
181.44,91.0
181.5,69.0
181.57,70.0
181.63,95.0
181.69,103.0
181.75,84.0
181.82,98.0
181.88,90.0
181.94,90.0
182.01,97.0
182.07,106.0
182.13,90.0
182.2,102.0
182.26,91.0
182.32,88.0
182.38,103.0
182.45,99.0
182.51,100.0
182.57,109.0
182.64,84.0
182.7,84.0
182.76,90.0
182.83,96.0
182.89,78.0
182.95,107.0
183.01,99.0
183.08,104.0
183.14,97.0
183.2,99.0
183.27,91.0
183.33,55.0
183.39,64.0
183.46,86.0
183.52,73.0
183.58,75.0
183.64,83.0
183.71,104.0
183.77,120.0
183.83,120.0
183.9,114.0
183.96,102.0
184.02,125.0
184.09,116.0
184.15,125.0
184.21,125.0
184.27,102.0
184.34,124.0
184.4,114.0
184.46,109.0
184.53,121.0
184.59,118.0
184.65,114.0
184.72,117.0
184.78,116.0
184.84,121.0
184.9,135.0
184.97,131.0
185.03,120.0
185.09,121.0
185.16,132.0
185.22,133.0
185.28,150.0
185.35,150.0
185.41,146.0
185.47,146.0
185.53,158.0
185.6,153.0
185.66,150.0
185.72,144.0
185.79,151.0
185.85,150.0
185.91,154.0
185.98,163.0
186.04,156.0
186.1,160.0
186.16,162.0
186.23,174.0
186.29,171.0
186.35,160.0
186.42,144.0
186.48,142.0
186.54,154.0
186.61,126.0
186.67,150.0
186.73,144.0
186.79,131.0
186.86,134.0
186.92,143.0
186.98,165.0
187.05,154.0
187.11,138.0
187.17,149.0
187.24,132.0
187.3,144.0
187.36,152.0
187.42,143.0
187.49,145.0
187.55,143.0
187.61,156.0
187.68,164.0
187.74,151.0
187.8,145.0
187.87,132.0
187.93,144.0
187.99,149.0
188.05,136.0
188.12,141.0
188.18,150.0
188.24,132.0
188.31,132.0
188.37,137.0
188.43,145.0
188.5,145.0
188.56,145.0
188.62,138.0
188.68,138.0
188.75,138.0
188.81,132.0
188.87,146.0
188.94,150.0
189.0,136.0
189.06,137.0
189.13,153.0
189.19,130.0
189.25,153.0
189.31,147.0
189.38,136.0
189.44,145.0
189.5,130.0
189.57,137.0
189.63,142.0
189.69,161.0
189.76,150.0
189.82,154.0
189.88,158.0
189.94,150.0
190.01,146.0
190.07,169.0
190.13,166.0
190.2,151.0
190.26,152.0
190.32,155.0
190.39,162.0
190.45,147.0
190.51,160.0
190.57,147.0
190.64,145.0
190.7,151.0
190.76,158.0
190.83,155.0
190.89,155.0
190.95,143.0
191.02,131.0
191.08,142.0
191.14,140.0
191.2,127.0
191.27,130.0
191.33,145.0
191.39,134.0
191.46,142.0
191.52,135.0
191.58,120.0
191.65,142.0
191.71,164.0
191.77,176.0
191.83,156.0
191.9,171.0
191.96,161.0
192.02,158.0
192.09,163.0
192.15,165.0
192.21,160.0
192.28,148.0
192.34,138.0
192.4,134.0
192.46,139.0
192.53,150.0
192.59,153.0
192.65,149.0
192.72,157.0
192.78,154.0
192.84,158.0
192.91,132.0
192.97,136.0
193.03,136.0
193.09,139.0
193.16,164.0
193.22,152.0
193.28,160.0
193.35,164.0
193.41,165.0
193.47,148.0
193.54,146.0
193.6,135.0
193.66,133.0
193.72,139.0
193.79,129.0
193.85,123.0
193.91,110.0
193.98,115.0
194.04,101.0
194.1,96.0
194.17,104.0
194.23,101.0
194.29,100.0
194.35,58.0
194.42,69.0
194.48,60.0
194.54,66.0
194.61,59.0
194.67,55.0
194.73,51.0
194.8,40.0
194.86,50.0
194.92,44.0
194.98,61.0
195.05,46.0
195.11,11.0
195.17,20.0
195.24,22.0
195.3,46.0
195.36,42.0
195.43,35.0
195.49,52.0
195.55,32.0
195.61,49.0
195.68,36.0
195.74,50.0
195.8,21.0
195.87,33.0
195.93,30.0
195.99,12.0
196.06,11.0
196.12,0.0
196.18,-12.0
196.24,-1.0
196.31,8.0
196.37,8.0
196.43,16.0
196.5,3.0
196.56,4.0
196.62,12.0
196.69,-1.0
196.75,18.0
196.81,34.0
196.87,29.0
196.94,21.0
197.0,31.0
197.06,6.0
197.13,-7.0
197.19,28.0
197.25,13.0
197.32,-12.0
197.38,-1.0
197.44,14.0
197.5,12.0
197.57,11.0
197.63,31.0
197.69,11.0
197.76,-15.0
197.82,15.0
197.88,3.0
197.95,32.0
198.01,30.0
198.07,30.0
198.13,39.0
198.2,25.0
198.26,10.0
198.32,17.0
198.39,28.0
198.45,29.0
198.51,21.0
198.58,14.0
198.64,34.0
198.7,32.0
198.76,25.0
198.83,23.0
198.89,17.0
198.95,28.0
199.02,25.0
199.08,17.0
199.14,31.0
199.21,37.0
199.27,55.0
199.33,58.0
199.39,60.0
199.46,46.0
199.52,26.0
199.58,34.0
199.65,28.0
199.71,23.0
199.77,11.0
199.84,-7.0
199.9,20.0
199.96,15.0
200.02,21.0
200.09,13.0
200.15,9.0
200.21,25.0
200.28,31.0
200.34,24.0
200.4,3.0
200.47,11.0
200.53,-5.0
200.59,2.0
200.65,18.0
200.72,34.0
200.78,22.0
200.84,27.0
200.91,37.0
200.97,45.0
201.03,65.0
201.1,46.0
201.16,30.0
201.22,46.0
201.28,42.0
201.35,42.0
201.41,40.0
201.47,13.0
201.54,22.0
201.6,35.0
201.66,29.0
201.73,19.0
201.79,31.0
201.85,23.0
201.91,33.0
201.98,50.0
202.04,49.0
202.1,60.0
202.17,43.0
202.23,39.0
202.29,42.0
202.36,48.0
202.42,37.0
202.48,45.0
202.54,31.0
202.61,28.0
202.67,45.0
202.73,63.0
202.8,57.0
202.86,61.0
202.92,36.0
202.99,23.0
203.05,49.0
203.11,57.0
203.17,68.0
203.24,43.0
203.3,43.0
203.36,62.0
203.43,70.0
203.49,68.0
203.55,54.0
203.62,56.0
203.68,73.0
203.74,79.0
203.8,74.0
203.87,80.0
203.93,68.0
203.99,79.0
204.06,88.0
204.12,89.0
204.18,84.0
204.25,87.0
204.31,100.0
204.37,88.0
204.43,94.0
204.5,86.0
204.56,73.0
204.62,82.0
204.69,85.0
204.75,99.0
204.81,95.0
204.88,95.0
204.94,95.0
205.0,95.0
205.06,100.0
205.13,97.0
205.19,73.0
205.25,74.0
205.32,80.0
205.38,70.0
205.44,72.0
205.51,84.0
205.57,73.0
205.63,65.0
205.69,89.0
205.76,97.0
205.82,109.0
205.88,98.0
205.95,108.0
206.01,100.0
206.07,97.0
206.14,78.0
206.2,84.0
206.26,87.0
206.32,81.0
206.39,96.0
206.45,94.0
206.51,91.0
206.58,90.0
206.64,107.0
206.7,116.0
206.77,91.0
206.83,82.0
206.89,95.0
206.95,111.0
207.02,93.0
207.08,90.0
207.14,89.0
207.21,109.0
207.27,96.0
207.33,108.0
207.4,108.0
207.46,109.0
207.52,114.0
207.58,114.0
207.65,120.0
207.71,134.0
207.77,147.0
207.84,137.0
207.9,133.0
207.96,137.0
208.03,137.0
208.09,121.0
208.15,117.0
208.21,132.0
208.28,131.0
208.34,150.0
208.4,148.0
208.47,148.0
208.53,143.0
208.59,115.0
208.66,145.0
208.72,156.0
208.78,152.0
208.84,170.0
208.91,163.0
208.97,131.0
209.03,151.0
209.1,117.0
209.16,133.0
209.22,133.0
209.29,124.0
209.35,144.0
209.41,146.0
209.47,130.0
209.54,139.0
209.6,131.0
209.66,132.0
209.73,132.0
209.79,141.0
209.85,120.0
209.92,119.0
209.98,146.0
210.04,144.0
210.1,129.0
210.17,130.0
210.23,130.0
210.29,134.0
210.36,140.0
210.42,131.0
210.48,135.0
210.55,131.0
210.61,130.0
210.67,128.0
210.73,120.0
210.8,137.0
210.86,131.0
210.92,128.0
210.99,136.0
211.05,122.0
211.11,134.0
211.18,110.0
211.24,105.0
211.3,129.0
211.36,104.0
211.43,104.0
211.49,102.0
211.55,103.0
211.62,116.0
211.68,93.0
211.74,103.0
211.81,76.0
211.87,96.0
211.93,106.0
211.99,97.0
212.06,103.0
212.12,112.0
212.18,108.0
212.25,104.0
212.31,88.0
212.37,91.0
212.44,80.0
212.5,94.0
212.56,89.0
212.62,87.0
212.69,122.0
212.75,90.0
212.81,78.0
212.88,96.0
212.94,94.0
213.0,81.0
213.07,97.0
213.13,80.0
213.19,67.0
213.25,84.0
213.32,67.0
213.38,83.0
213.44,61.0
213.51,71.0
213.57,72.0
213.63,85.0
213.7,73.0
213.76,64.0
213.82,68.0
213.88,61.0
213.95,65.0
214.01,78.0
214.07,66.0
214.14,64.0
214.2,72.0
214.26,80.0
214.33,62.0
214.39,42.0
214.45,51.0
214.51,64.0
214.58,51.0
214.64,61.0
214.7,66.0
214.77,70.0
214.83,59.0
214.89,53.0
214.96,52.0
215.02,53.0
215.08,64.0
215.14,57.0
215.21,67.0
215.27,66.0
215.33,65.0
215.4,64.0
215.46,48.0
215.52,62.0
215.59,52.0
215.65,65.0
215.71,61.0
215.77,51.0
215.84,61.0
215.9,63.0
215.96,65.0
216.03,83.0
216.09,69.0
216.15,60.0
216.22,67.0
216.28,58.0
216.34,71.0
216.4,80.0
216.47,71.0
216.53,51.0
216.59,58.0
216.66,49.0
216.72,66.0
216.78,55.0
216.85,53.0
216.91,54.0
216.97,74.0
217.03,56.0
217.1,60.0
217.16,56.0
217.22,48.0
217.29,63.0
217.35,37.0
217.41,52.0
217.48,59.0
217.54,50.0
217.6,52.0
217.66,34.0
217.73,45.0
217.79,54.0
217.85,43.0
217.92,46.0
217.98,55.0
218.04,26.0
218.11,22.0
218.17,29.0
218.23,23.0
218.29,21.0
218.36,39.0
218.42,34.0
218.48,26.0
218.55,43.0
218.61,32.0
218.67,22.0
218.74,52.0
218.8,43.0
218.86,42.0
218.92,32.0
218.99,1.0
219.05,16.0
219.11,8.0
219.18,16.0
219.24,17.0
219.3,-8.0
219.37,9.0
219.43,37.0
219.49,22.0
219.55,8.0
219.62,23.0
219.68,24.0
219.74,46.0
219.81,37.0
219.87,48.0
219.93,41.0
220.0,41.0
220.06,25.0
220.12,8.0
220.18,26.0
220.25,17.0
220.31,21.0
220.37,28.0
220.44,37.0
220.5,30.0
220.56,37.0
220.63,41.0
220.69,21.0
220.75,50.0
220.81,34.0
220.88,37.0
220.94,39.0
221.0,13.0
221.07,16.0
221.13,17.0
221.19,19.0
221.26,32.0
221.32,24.0
221.38,30.0
221.44,53.0
221.51,46.0
221.57,38.0
221.63,33.0
221.7,59.0
221.76,36.0
221.82,48.0
221.89,52.0
221.95,44.0
222.01,30.0
222.07,60.0
222.14,48.0
222.2,58.0
222.26,48.0
222.33,41.0
222.39,54.0
222.45,46.0
222.52,49.0
222.58,44.0
222.64,50.0
222.7,54.0
222.77,55.0
222.83,47.0
222.89,50.0
222.96,63.0
223.02,67.0
223.08,76.0
223.15,64.0
223.21,63.0
223.27,80.0
223.33,74.0
223.4,79.0
223.46,59.0
223.52,75.0
223.59,89.0
223.65,74.0
223.71,80.0
223.78,85.0
223.84,85.0
223.9,96.0
223.96,88.0
224.03,74.0
224.09,91.0
224.15,99.0
224.22,96.0
224.28,81.0
224.34,82.0
224.41,105.0
224.47,99.0
224.53,95.0
224.59,112.0
224.66,114.0
224.72,97.0
224.78,111.0
224.85,125.0
224.91,117.0
224.97,112.0
225.04,114.0
225.1,101.0
225.16,104.0
225.22,122.0
225.29,129.0
225.35,131.0
225.41,147.0
225.48,155.0
225.54,138.0
225.6,122.0
225.67,129.0
225.73,129.0
225.79,126.0
225.85,120.0
225.92,148.0
225.98,148.0
226.04,129.0
226.11,156.0
226.17,151.0
226.23,139.0
226.3,140.0
226.36,137.0
226.42,144.0
226.48,133.0
226.55,121.0
226.61,119.0
226.67,112.0
226.74,118.0
226.8,90.0
226.86,105.0
226.93,119.0
226.99,117.0
227.05,134.0
227.11,129.0
227.18,121.0
227.24,131.0
227.3,156.0
227.37,124.0
227.43,124.0
227.49,140.0
227.56,142.0
227.62,136.0
227.68,147.0
227.74,144.0
227.81,133.0
227.87,120.0
227.93,127.0
228.0,124.0
228.06,115.0
228.12,117.0
228.19,111.0
228.25,125.0
228.31,122.0
228.37,126.0
228.44,92.0
228.5,90.0
228.56,82.0
228.63,90.0
228.69,85.0
228.75,76.0
228.82,85.0
228.88,90.0
228.94,105.0
229.0,72.0
229.07,70.0
229.13,86.0
229.19,72.0
229.26,92.0
229.32,74.0
229.38,69.0
229.45,82.0
229.51,82.0
229.57,81.0
229.63,54.0
229.7,59.0
229.76,44.0
229.82,49.0
229.89,53.0
229.95,43.0
230.01,51.0
230.08,44.0
230.14,68.0
230.2,37.0
230.26,31.0
230.33,48.0
230.39,27.0
230.45,21.0
230.52,24.0
230.58,9.0
230.64,15.0
230.71,19.0
230.77,28.0
230.83,22.0
230.89,16.0
230.96,13.0
231.02,18.0
231.08,51.0
231.15,24.0
231.21,43.0
231.27,47.0
231.34,54.0
231.4,55.0
231.46,40.0
231.52,40.0
231.59,59.0
231.65,59.0
231.71,52.0
231.78,54.0
231.84,45.0
231.9,55.0
231.97,25.0
232.03,19.0
232.09,32.0
232.15,2.0
232.22,13.0
232.28,8.0
232.34,7.0
232.41,-7.0
232.47,-3.0
232.53,8.0
232.6,24.0
232.66,12.0
232.72,14.0
232.78,-11.0
232.85,4.0
232.91,14.0
232.97,15.0
233.04,23.0
233.1,19.0
233.16,-10.0
233.23,3.0
233.29,4.0
233.35,15.0
233.41,6.0
233.48,-10.0
233.54,4.0
233.6,5.0
233.67,10.0
233.73,18.0
233.79,6.0
233.86,4.0
233.92,17.0
233.98,22.0
234.04,22.0
234.11,4.0
234.17,22.0
234.23,19.0
234.3,40.0
234.36,45.0
234.42,50.0
234.49,48.0
234.55,46.0
234.61,53.0
234.67,65.0
234.74,70.0
234.8,30.0
234.86,49.0
234.93,59.0
234.99,58.0
235.05,59.0
235.12,44.0
235.18,63.0
235.24,61.0
235.3,45.0
235.37,56.0
235.43,62.0
235.49,61.0
235.56,68.0
235.62,67.0
235.68,44.0
235.75,52.0
235.81,42.0
235.87,45.0
235.93,54.0
236.0,52.0
236.06,59.0
236.12,63.0
236.19,52.0
236.25,60.0
236.31,67.0
236.38,70.0
236.44,83.0
236.5,81.0
236.56,89.0
236.63,88.0
236.69,88.0
236.75,95.0
236.82,86.0
236.88,85.0
236.94,81.0
237.01,83.0
237.07,104.0
237.13,71.0
237.19,75.0
237.26,66.0
237.32,52.0
237.38,63.0
237.45,52.0
237.51,85.0
237.57,85.0
237.64,72.0
237.7,77.0
237.76,93.0
237.82,96.0
237.89,112.0
237.95,109.0
238.01,121.0
238.08,111.0
238.14,98.0
238.2,113.0
238.27,108.0
238.33,92.0
238.39,95.0
238.45,101.0
238.52,89.0
238.58,94.0
238.64,92.0
238.71,88.0
238.77,95.0
238.83,101.0
238.9,107.0
238.96,101.0
239.02,126.0
239.08,120.0
239.15,116.0
239.21,126.0
239.27,125.0
239.34,120.0
239.4,114.0
239.46,125.0
239.53,122.0
239.59,122.0
239.65,127.0
239.71,124.0
239.78,147.0
239.84,144.0
239.9,151.0
239.97,151.0
240.03,166.0
240.09,160.0
240.16,152.0
240.22,161.0
240.28,144.0
240.34,138.0
240.41,152.0
240.47,174.0
240.53,166.0
240.6,169.0
240.66,173.0
240.72,173.0
240.79,191.0
240.85,190.0
240.91,177.0
240.97,165.0
241.04,143.0
241.1,143.0
241.16,158.0
241.23,150.0
241.29,133.0
241.35,144.0
241.42,159.0
241.48,157.0
241.54,176.0
241.6,188.0
241.67,174.0
241.73,176.0
241.79,178.0
241.86,166.0
241.92,181.0
241.98,168.0
242.05,159.0
242.11,168.0
242.17,180.0
242.23,178.0
242.3,177.0
242.36,169.0
242.42,173.0
242.49,180.0
242.55,157.0
242.61,169.0
242.68,172.0
242.74,153.0
242.8,167.0
242.86,170.0
242.93,187.0
242.99,180.0
243.05,171.0
243.12,202.0
243.18,191.0
243.24,207.0
243.31,195.0
243.37,185.0
243.43,188.0
243.49,199.0
243.56,203.0
243.62,204.0
243.68,188.0
243.75,183.0
243.81,208.0
243.87,179.0
243.94,188.0
244.0,177.0
244.06,196.0
244.12,213.0
244.19,203.0
244.25,213.0
244.31,206.0
244.38,212.0
244.44,207.0
244.5,206.0
244.57,203.0
244.63,196.0
244.69,183.0
244.75,177.0
244.82,195.0
244.88,196.0
244.94,191.0
245.01,187.0
245.07,183.0
245.13,179.0
245.2,192.0
245.26,208.0
245.32,188.0
245.38,166.0
245.45,173.0
245.51,183.0
245.57,163.0
245.64,162.0
245.7,165.0
245.76,177.0
245.83,181.0
245.89,145.0
245.95,155.0
246.01,177.0
246.08,174.0
246.14,168.0
246.2,165.0
246.27,164.0
246.33,149.0
246.39,163.0
246.46,165.0
246.52,155.0
246.58,160.0
246.64,145.0
246.71,138.0
246.77,138.0
246.83,123.0
246.9,126.0
246.96,133.0
247.02,100.0
247.09,110.0
247.15,114.0
247.21,110.0
247.27,107.0
247.34,121.0
247.4,118.0
247.46,112.0
247.53,89.0
247.59,104.0
247.65,113.0
247.72,101.0
247.78,106.0
247.84,90.0
247.9,99.0
247.97,93.0
248.03,80.0
248.09,97.0
248.16,103.0
248.22,96.0
248.28,93.0
248.35,107.0
248.41,106.0
248.47,114.0
248.53,116.0
248.6,111.0
248.66,105.0
248.72,115.0
248.79,119.0
248.85,118.0
248.91,109.0
248.98,118.0
249.04,111.0
249.1,101.0
249.16,126.0
249.23,110.0
249.29,119.0
249.35,103.0
249.42,95.0
249.48,114.0
249.54,122.0
249.61,114.0
249.67,120.0
249.73,106.0
249.79,96.0
249.86,102.0
249.92,97.0
249.98,83.0
250.05,69.0
250.11,72.0
250.17,89.0
250.24,75.0
250.3,63.0
250.36,57.0
250.42,64.0
250.49,58.0
250.55,66.0
250.61,57.0
250.68,53.0
250.74,62.0
250.8,59.0
250.87,57.0
250.93,44.0
250.99,30.0
251.05,28.0
251.12,41.0
251.18,40.0
251.24,55.0
251.31,52.0
251.37,47.0
251.43,58.0
251.5,54.0
251.56,29.0
251.62,37.0
251.68,46.0
251.75,39.0
251.81,60.0
251.87,49.0
251.94,42.0
252.0,34.0
252.06,34.0
252.13,38.0
252.19,27.0
252.25,30.0
252.31,34.0
252.38,35.0
252.44,24.0
252.5,34.0
252.57,21.0
252.63,44.0
252.69,31.0
252.76,44.0
252.82,32.0
252.88,8.0
252.94,23.0
253.01,30.0
253.07,28.0
253.13,41.0
253.2,15.0
253.26,25.0
253.32,15.0
253.39,31.0
253.45,22.0
253.51,37.0
253.57,45.0
253.64,39.0
253.7,43.0
253.76,22.0
253.83,41.0
253.89,44.0
253.95,37.0
254.02,37.0
254.08,50.0
254.14,37.0
254.2,50.0
254.27,38.0
254.33,34.0
254.39,50.0
254.46,40.0
254.52,27.0
254.58,45.0
254.65,35.0
254.71,55.0
254.77,55.0
254.83,37.0
254.9,44.0
254.96,32.0
255.02,54.0
255.09,45.0
255.15,57.0
255.21,52.0
255.28,53.0
255.34,62.0
255.4,61.0
255.46,55.0
255.53,60.0
255.59,72.0
255.65,61.0
255.72,56.0
255.78,62.0
255.84,48.0
255.91,40.0
255.97,43.0
256.03,47.0
256.09,52.0
256.16,50.0
256.22,50.0
256.28,51.0
256.35,41.0
256.41,41.0
256.47,63.0
256.54,47.0
256.6,42.0
256.66,70.0
256.72,77.0
256.79,51.0
256.85,36.0
256.91,37.0
256.98,44.0
257.04,39.0
257.1,53.0
257.17,27.0
257.23,48.0
257.29,59.0
257.35,47.0
257.42,62.0
257.48,64.0
257.54,85.0
257.61,75.0
257.67,90.0
257.73,93.0
257.8,74.0
257.86,73.0
257.92,72.0
257.98,92.0
258.05,84.0
258.11,96.0
258.17,75.0
258.24,67.0
258.3,80.0
258.36,96.0
258.43,87.0
258.49,98.0
258.55,86.0
258.61,71.0
258.68,92.0
258.74,92.0
258.8,86.0
258.87,92.0
258.93,85.0
258.99,91.0
259.06,93.0
259.12,94.0
259.18,93.0
259.24,104.0
259.31,101.0
259.37,107.0
259.43,96.0
259.5,87.0
259.56,107.0
259.62,95.0
259.69,97.0
259.75,107.0
259.81,102.0
259.87,101.0
259.94,99.0
260.0,92.0
260.06,93.0
260.13,89.0
260.19,90.0
260.25,99.0
260.32,107.0
260.38,114.0
260.44,124.0
260.5,138.0
260.57,132.0
260.63,125.0
260.69,118.0
260.76,134.0
260.82,111.0
260.88,131.0
260.95,115.0
261.01,112.0
261.07,112.0
261.13,107.0
261.2,88.0
261.26,80.0
261.32,99.0
261.39,103.0
261.45,97.0
261.51,85.0
261.58,89.0
261.64,91.0
261.7,70.0
261.76,78.0
261.83,98.0
261.89,83.0
261.95,105.0
262.02,88.0
262.08,95.0
262.14,66.0
262.21,88.0
262.27,85.0
262.33,72.0
262.39,91.0
262.46,100.0
262.52,112.0
262.58,94.0
262.65,122.0
262.71,110.0
262.77,118.0
262.84,118.0
262.9,115.0
262.96,117.0
263.02,96.0
263.09,120.0
263.15,95.0
263.21,97.0
263.28,114.0
263.34,112.0
263.4,104.0
263.47,105.0
263.53,95.0
263.59,85.0
263.65,118.0
263.72,73.0
263.78,68.0
263.84,82.0
263.91,106.0
263.97,96.0
264.03,93.0
264.1,114.0
264.16,97.0
264.22,103.0
264.28,105.0
264.35,92.0
264.41,94.0
264.47,75.0
264.54,85.0
264.6,90.0
264.66,94.0
264.73,119.0
264.79,115.0
264.85,99.0
264.91,107.0
264.98,100.0
265.04,114.0
265.1,93.0
265.17,85.0
265.23,108.0
265.29,117.0
265.36,84.0
265.42,72.0
265.48,74.0
265.54,75.0
265.61,71.0
265.67,80.0
265.73,61.0
265.8,70.0
265.86,62.0
265.92,57.0
265.99,74.0
266.05,82.0
266.11,82.0
266.17,89.0
266.24,81.0
266.3,85.0
266.36,111.0
266.43,98.0
266.49,107.0
266.55,96.0
266.62,99.0
266.68,103.0
266.74,103.0
266.8,95.0
266.87,70.0
266.93,56.0
266.99,65.0
267.06,71.0
267.12,66.0
267.18,66.0
267.25,59.0
267.31,69.0
267.37,74.0
267.43,81.0
267.5,72.0
267.56,58.0
267.62,57.0
267.69,58.0
267.75,61.0
267.81,70.0
267.88,69.0
267.94,74.0
268.0,68.0
268.06,81.0
268.13,85.0
268.19,60.0
268.25,50.0
268.32,68.0
268.38,55.0
268.44,56.0
268.51,68.0
268.57,76.0
268.63,83.0
268.69,72.0
268.76,52.0
268.82,53.0
268.88,53.0
268.95,66.0
269.01,73.0
269.07,68.0
269.14,81.0
269.2,70.0
269.26,66.0
269.32,49.0
269.39,58.0
269.45,61.0
269.51,67.0
269.58,80.0
269.64,56.0
269.7,58.0
269.77,71.0
269.83,63.0
269.89,70.0
269.95,80.0
270.02,81.0
270.08,73.0
270.14,87.0
270.21,61.0
270.27,70.0
270.33,74.0
270.4,59.0
270.46,66.0
270.52,65.0
270.58,67.0
270.65,66.0
270.71,70.0
270.77,51.0
270.84,70.0
270.9,61.0
270.96,75.0
271.03,85.0
271.09,72.0
271.15,111.0
271.21,105.0
271.28,80.0
271.34,89.0
271.4,89.0
271.47,84.0
271.53,78.0
271.59,60.0
271.66,100.0
271.72,88.0
271.78,86.0
271.84,104.0
271.91,88.0
271.97,89.0
272.03,104.0
272.1,81.0
272.16,104.0
272.22,94.0
272.29,79.0
272.35,92.0
272.41,92.0
272.47,86.0
272.54,85.0
272.6,85.0
272.66,71.0
272.73,89.0
272.79,92.0
272.85,104.0
272.92,82.0
272.98,92.0
273.04,86.0
273.1,91.0
273.17,95.0
273.23,77.0
273.29,78.0
273.36,93.0
273.42,96.0
273.48,88.0
273.55,85.0
273.61,110.0
273.67,112.0
273.73,114.0
273.8,115.0
273.86,133.0
273.92,131.0
273.99,116.0
274.05,112.0
274.11,124.0
274.18,132.0
274.24,141.0
274.3,129.0
274.36,109.0
274.43,132.0
274.49,139.0
274.55,133.0
274.62,131.0
274.68,132.0
274.74,133.0
274.81,137.0
274.87,143.0
274.93,147.0
274.99,144.0
275.06,143.0
275.12,141.0
275.18,162.0
275.25,152.0
275.31,147.0
275.37,143.0
275.44,133.0
275.5,137.0
275.56,141.0
275.62,134.0
275.69,133.0
275.75,132.0
275.81,140.0
275.88,129.0
275.94,127.0
276.0,137.0
276.07,133.0
276.13,128.0
276.19,135.0
276.25,156.0
276.32,140.0
276.38,146.0
276.44,148.0
276.51,152.0
276.57,122.0
276.63,130.0
276.7,147.0
276.76,151.0
276.82,144.0
276.88,133.0
276.95,131.0
277.01,120.0
277.07,111.0
277.14,136.0
277.2,128.0
277.26,98.0
277.33,122.0
277.39,125.0
277.45,114.0
277.51,104.0
277.58,122.0
277.64,123.0
277.7,131.0
277.77,112.0
277.83,119.0
277.89,125.0
277.96,135.0
278.02,115.0
278.08,124.0
278.14,127.0
278.21,113.0
278.27,135.0
278.33,121.0
278.4,111.0
278.46,107.0
278.52,114.0
278.59,116.0
278.65,103.0
278.71,102.0
278.77,98.0
278.84,105.0
278.9,118.0
278.96,126.0
279.03,103.0
279.09,116.0
279.15,106.0
279.22,89.0
279.28,89.0
279.34,85.0
279.4,80.0
279.47,71.0
279.53,104.0
279.59,101.0
279.66,88.0
279.72,71.0
279.78,92.0
279.85,83.0
279.91,86.0
279.97,78.0
280.03,75.0
280.1,74.0
280.16,71.0
280.22,71.0
280.29,74.0
280.35,66.0
280.41,46.0
280.48,57.0
280.54,39.0
280.6,41.0
280.66,44.0
280.73,53.0
280.79,25.0
280.85,38.0
280.92,38.0
280.98,17.0
281.04,41.0
281.11,50.0
281.17,36.0
281.23,54.0
281.29,53.0
281.36,53.0
281.42,51.0
281.48,49.0
281.55,49.0
281.61,30.0
281.67,39.0
281.74,42.0
281.8,46.0
281.86,37.0
281.92,14.0
281.99,20.0
282.05,31.0
282.11,16.0
282.18,7.0
282.24,23.0
282.3,11.0
282.37,0.0
282.43,6.0
282.49,0.0
282.55,-1.0
282.62,-7.0
282.68,-6.0
282.74,-19.0
282.81,-12.0
282.87,-15.0
282.93,-25.0
283.0,-13.0
283.06,-18.0
283.12,-6.0
283.18,-33.0
283.25,-24.0
283.31,-41.0
283.37,-37.0
283.44,-23.0
283.5,-20.0
283.56,-14.0
283.63,-7.0
283.69,-9.0
283.75,-28.0
283.81,-25.0
283.88,-33.0
283.94,-28.0
284.0,-34.0
284.07,-55.0
284.13,-13.0
284.19,-26.0
284.26,-48.0
284.32,-48.0
284.38,-33.0
284.44,-23.0
284.51,-38.0
284.57,-41.0
284.63,-21.0
284.7,-45.0
284.76,-26.0
284.82,-21.0
284.89,-20.0
284.95,-17.0
285.01,-25.0
285.07,-4.0
285.14,-5.0
285.2,-15.0
285.26,-9.0
285.33,-25.0
285.39,-14.0
285.45,-19.0
285.52,-23.0
285.58,-28.0
285.64,4.0
285.7,2.0
285.77,-30.0
285.83,-28.0
285.89,-43.0
285.96,-33.0
286.02,-45.0
286.08,-49.0
286.15,-30.0
286.21,-33.0
286.27,-31.0
286.33,-24.0
286.4,-19.0
286.46,-17.0
286.52,-18.0
286.59,-31.0
286.65,-30.0
286.71,-10.0
286.78,-30.0
286.84,-50.0
286.9,-39.0
286.96,-26.0
287.03,-5.0
287.09,-15.0
287.15,-25.0
287.22,-26.0
287.28,-2.0
287.34,-4.0
287.41,-31.0
287.47,13.0
287.53,-1.0
287.59,-14.0
287.66,3.0
287.72,-7.0
287.78,3.0
287.85,-7.0
287.91,4.0
287.97,18.0
288.04,14.0
288.1,18.0
288.16,45.0
288.22,26.0
288.29,18.0
288.35,20.0
288.41,7.0
288.48,7.0
288.54,-7.0
288.6,7.0
288.67,17.0
288.73,23.0
288.79,32.0
288.85,13.0
288.92,16.0
288.98,29.0
289.04,38.0
289.11,24.0
289.17,58.0
289.23,56.0
289.3,35.0
289.36,66.0
289.42,60.0
289.48,51.0
289.55,59.0
289.61,44.0
289.67,75.0
289.74,63.0
289.8,75.0
289.86,78.0
289.93,68.0
289.99,90.0
290.05,90.0
290.11,107.0
290.18,86.0
290.24,90.0
290.3,78.0
290.37,107.0
290.43,108.0
290.49,111.0
290.56,116.0
290.62,125.0
290.68,109.0
290.74,115.0
290.81,125.0
290.87,130.0
290.93,123.0
291.0,121.0
291.06,107.0
291.12,110.0
291.19,130.0
291.25,130.0
291.31,126.0
291.37,114.0
291.44,131.0
291.5,133.0
291.56,136.0
291.63,134.0
291.69,153.0
291.75,138.0
291.82,148.0
291.88,137.0
291.94,128.0
292.0,125.0
292.07,107.0
292.13,122.0
292.19,125.0
292.26,140.0
292.32,156.0
292.38,148.0
292.45,140.0
292.51,169.0
292.57,168.0
292.63,175.0
292.7,150.0
292.76,157.0
292.82,171.0
292.89,158.0
292.95,149.0
293.01,175.0
293.08,170.0
293.14,166.0
293.2,171.0
293.26,181.0
293.33,211.0
293.39,202.0
293.45,205.0
293.52,185.0
293.58,198.0
293.64,197.0
293.71,196.0
293.77,235.0
293.83,226.0
293.89,226.0
293.96,216.0
294.02,239.0
294.08,244.0
294.15,230.0
294.21,224.0
294.27,227.0
294.34,222.0
294.4,230.0
294.46,232.0
294.52,251.0
294.59,234.0
294.65,222.0
294.71,229.0
294.78,225.0
294.84,249.0
294.9,248.0
294.97,252.0
295.03,237.0
295.09,243.0
295.15,247.0
295.22,230.0
295.28,241.0
295.34,238.0
295.41,206.0
295.47,219.0
295.53,222.0
295.6,210.0
295.66,215.0
295.72,222.0
295.78,227.0
295.85,227.0
295.91,219.0
295.97,203.0
296.04,191.0
296.1,217.0
296.16,206.0
296.23,204.0
296.29,216.0
296.35,213.0
296.41,194.0
296.48,189.0
296.54,174.0
296.6,186.0
296.67,198.0
296.73,182.0
296.79,199.0
296.86,186.0
296.92,180.0
296.98,188.0
297.04,188.0
297.11,193.0
297.17,182.0
297.23,177.0
297.3,178.0
297.36,181.0
297.42,189.0
297.49,182.0
297.55,174.0
297.61,202.0
297.67,195.0
297.74,187.0
297.8,194.0
297.86,176.0
297.93,180.0
297.99,174.0
298.05,170.0
298.12,167.0
298.18,157.0
298.24,156.0
298.3,161.0
298.37,165.0
298.43,159.0
298.49,158.0
298.56,161.0
298.62,164.0
298.68,158.0
298.75,155.0
298.81,161.0
298.87,147.0
298.93,155.0
299.0,153.0
299.06,154.0
299.12,153.0
299.19,158.0
299.25,146.0
299.31,145.0
299.38,150.0
299.44,130.0
299.5,159.0
299.56,162.0
299.63,160.0
299.69,156.0
299.75,158.0
299.82,163.0
299.88,152.0
299.94,158.0
300.01,142.0
300.07,127.0
300.13,97.0
300.19,98.0
300.26,119.0
300.32,122.0
300.38,116.0
300.45,113.0
300.51,121.0
300.57,118.0
300.64,100.0
300.7,84.0
300.76,105.0
300.82,98.0
300.89,103.0
300.95,106.0
301.01,103.0
301.08,101.0
301.14,111.0
301.2,107.0
301.27,104.0
301.33,101.0
301.39,111.0
301.45,105.0
301.52,102.0
301.58,99.0
301.64,108.0
301.71,112.0
301.77,117.0
301.83,98.0
301.9,101.0
301.96,124.0
302.02,120.0
302.08,135.0
302.15,120.0
302.21,99.0
302.27,101.0
302.34,90.0
302.4,95.0
302.46,111.0
302.53,98.0
302.59,89.0
302.65,79.0
302.71,63.0
302.78,73.0
302.84,61.0
302.9,31.0
302.97,61.0
303.03,76.0
303.09,79.0
303.16,70.0
303.22,79.0
303.28,93.0
303.34,85.0
303.41,79.0
303.47,79.0
303.53,73.0
303.6,61.0
303.66,88.0
303.72,66.0
303.79,67.0
303.85,84.0
303.91,93.0
303.97,95.0
304.04,97.0
304.1,96.0
304.16,85.0
304.23,84.0
304.29,85.0
304.35,86.0
304.42,95.0
304.48,87.0
304.54,89.0
304.6,104.0
304.67,111.0
304.73,113.0
304.79,95.0
304.86,63.0
304.92,77.0
304.98,81.0
305.05,82.0
305.11,87.0
305.17,84.0
305.23,86.0
305.3,101.0
305.36,109.0
305.42,110.0
305.49,101.0
305.55,84.0
305.61,80.0
305.68,86.0
305.74,89.0
305.8,99.0
305.86,94.0
305.93,95.0
305.99,106.0
306.05,92.0
306.12,101.0
306.18,93.0
306.24,97.0
306.31,90.0
306.37,81.0
306.43,95.0
306.49,101.0
306.56,107.0
306.62,100.0
306.68,110.0
306.75,114.0
306.81,127.0
306.87,110.0
306.94,108.0
307.0,108.0
307.06,98.0
307.12,102.0
307.19,114.0
307.25,123.0
307.31,109.0
307.38,113.0
307.44,114.0
307.5,108.0
307.57,123.0
307.63,125.0
307.69,138.0
307.75,134.0
307.82,125.0
307.88,138.0
307.94,131.0
308.01,122.0
308.07,119.0
308.13,123.0
308.2,93.0
308.26,96.0
308.32,113.0
308.38,122.0
308.45,137.0
308.51,130.0
308.57,136.0
308.64,148.0
308.7,137.0
308.76,151.0
308.83,159.0
308.89,146.0
308.95,151.0
309.01,155.0
309.08,172.0
309.14,155.0
309.2,158.0
309.27,163.0
309.33,161.0
309.39,170.0
309.46,167.0
309.52,172.0
309.58,186.0
309.64,178.0
309.71,185.0
309.77,194.0
309.83,182.0
309.9,184.0
309.96,191.0
310.02,194.0
310.09,201.0
310.15,225.0
310.21,205.0
310.27,180.0
310.34,161.0
310.4,167.0
310.46,165.0
310.53,171.0
310.59,175.0
310.65,164.0
310.72,190.0
310.78,201.0
310.84,193.0
310.9,194.0
310.97,187.0
311.03,227.0
311.09,214.0
311.16,207.0
311.22,204.0
311.28,188.0
311.35,196.0
311.41,215.0
311.47,200.0
311.53,207.0
311.6,200.0
311.66,211.0
311.72,204.0
311.79,192.0
311.85,180.0
311.91,195.0
311.98,222.0
312.04,208.0
312.1,224.0
312.16,202.0
312.23,207.0
312.29,197.0
312.35,199.0
312.42,194.0
312.48,193.0
312.54,193.0
312.61,186.0
312.67,184.0
312.73,195.0
312.79,155.0
312.86,179.0
312.92,163.0
312.98,186.0
313.05,185.0
313.11,182.0
313.17,189.0
313.24,177.0
313.3,182.0
313.36,180.0
313.42,160.0
313.49,168.0
313.55,182.0
313.61,174.0
313.68,173.0
313.74,177.0
313.8,169.0
313.87,170.0
313.93,167.0
313.99,171.0
314.05,162.0
314.12,161.0
314.18,156.0
314.24,147.0
314.31,156.0
314.37,163.0
314.43,142.0
314.5,157.0
314.56,142.0
314.62,149.0
314.68,149.0
314.75,150.0
314.81,162.0
314.87,153.0
314.94,139.0
315.0,141.0
315.06,147.0
315.13,150.0
315.19,151.0
315.25,172.0
315.31,161.0
315.38,153.0
315.44,118.0
315.5,120.0
315.57,126.0
315.63,104.0
315.69,146.0
315.76,136.0
315.82,117.0
315.88,109.0
315.94,135.0
316.01,119.0
316.07,128.0
316.13,146.0
316.2,129.0
316.26,120.0
316.32,133.0
316.39,121.0
316.45,112.0
316.51,113.0
316.57,137.0
316.64,130.0
316.7,134.0
316.76,119.0
316.83,127.0
316.89,131.0
316.95,129.0
317.02,142.0
317.08,130.0
317.14,97.0
317.2,101.0
317.27,88.0
317.33,94.0
317.39,85.0
317.46,87.0
317.52,72.0
317.58,75.0
317.65,75.0
317.71,76.0
317.77,82.0
317.83,68.0
317.9,77.0
317.96,85.0
318.02,70.0
318.09,61.0
318.15,39.0
318.21,37.0
318.28,33.0
318.34,36.0
318.4,48.0
318.46,57.0
318.53,34.0
318.59,35.0
318.65,50.0
318.72,39.0
318.78,52.0
318.84,32.0
318.91,44.0
318.97,37.0
319.03,32.0
319.09,21.0
319.16,49.0
319.22,54.0
319.28,17.0
319.35,44.0
319.41,59.0
319.47,54.0
319.54,55.0
319.6,43.0
319.66,33.0
319.72,22.0
319.79,33.0
319.85,26.0
319.91,42.0
319.98,43.0
320.04,29.0
320.1,31.0
320.17,36.0
320.23,28.0
320.29,33.0
320.35,38.0
320.42,21.0
320.48,42.0
320.54,41.0
320.61,39.0
320.67,53.0
320.73,31.0
320.8,31.0
320.86,31.0
320.92,10.0
320.98,33.0
321.05,45.0
321.11,47.0
321.17,57.0
321.24,43.0
321.3,42.0
321.36,51.0
321.43,38.0
321.49,44.0
321.55,57.0
321.61,39.0
321.68,57.0
321.74,51.0
321.8,53.0
321.87,30.0
321.93,34.0
321.99,62.0
322.06,44.0
322.12,42.0
322.18,47.0
322.24,59.0
322.31,69.0
322.37,57.0
322.43,68.0
322.5,67.0
322.56,67.0
322.62,54.0
322.69,73.0
322.75,79.0
322.81,72.0
322.87,68.0
322.94,77.0
323.0,61.0
323.06,43.0
323.13,35.0
323.19,39.0
323.25,64.0
323.32,58.0
323.38,62.0
323.44,68.0
323.5,60.0
323.57,59.0
323.63,59.0
323.69,42.0
323.76,60.0
323.82,78.0
323.88,72.0
323.95,76.0
324.01,70.0
324.07,63.0
324.13,62.0
324.2,82.0
324.26,56.0
324.32,76.0
324.39,84.0
324.45,103.0
324.51,86.0
324.58,84.0
324.64,80.0
324.7,94.0
324.76,100.0
324.83,84.0
324.89,94.0
324.95,97.0
325.02,116.0
325.08,105.0
325.14,100.0
325.21,92.0
325.27,102.0
325.33,95.0
325.39,84.0
325.46,97.0
325.52,99.0
325.58,92.0
325.65,90.0
325.71,100.0
325.77,116.0
325.84,127.0
325.9,98.0
325.96,104.0
326.02,114.0
326.09,106.0
326.15,115.0
326.21,120.0
326.28,122.0
326.34,108.0
326.4,118.0
326.47,124.0
326.53,117.0
326.59,104.0
326.65,116.0
326.72,130.0
326.78,121.0
326.84,130.0
326.91,132.0
326.97,115.0
327.03,127.0
327.1,125.0
327.16,125.0
327.22,129.0
327.28,123.0
327.35,135.0
327.41,120.0
327.47,144.0
327.54,136.0
327.6,156.0
327.66,156.0
327.73,153.0
327.79,155.0
327.85,145.0
327.91,152.0
327.98,161.0
328.04,163.0
328.1,152.0
328.17,151.0
328.23,164.0
328.29,152.0
328.36,167.0
328.42,172.0
328.48,140.0
328.54,155.0
328.61,169.0
328.67,177.0
328.73,146.0
328.8,159.0
328.86,156.0
328.92,171.0
328.99,153.0
329.05,147.0
329.11,147.0
329.17,146.0
329.24,152.0
329.3,158.0
329.36,145.0
329.43,137.0
329.49,127.0
329.55,134.0
329.62,147.0
329.68,139.0
329.74,148.0
329.8,135.0
329.87,137.0
329.93,160.0
329.99,139.0
330.06,112.0
330.12,126.0
330.18,132.0
330.25,138.0
330.31,142.0
330.37,140.0
330.43,123.0
330.5,143.0
330.56,136.0
330.62,135.0
330.69,134.0
330.75,119.0
330.81,139.0
330.88,155.0
330.94,141.0
331.0,153.0
331.06,149.0
331.13,156.0
331.19,160.0
331.25,150.0
331.32,169.0
331.38,158.0
331.44,137.0
331.51,130.0
331.57,127.0
331.63,148.0
331.69,130.0
331.76,129.0
331.82,128.0
331.88,117.0
331.95,140.0
332.01,137.0
332.07,129.0
332.14,132.0
332.2,116.0
332.26,125.0
332.32,111.0
332.39,126.0
332.45,124.0
332.51,134.0
332.58,126.0
332.64,117.0
332.7,112.0
332.77,130.0
332.83,113.0
332.89,106.0
332.95,126.0
333.02,115.0
333.08,105.0
333.14,134.0
333.21,133.0
333.27,122.0
333.33,127.0
333.4,119.0
333.46,111.0
333.52,126.0
333.58,125.0
333.65,119.0
333.71,106.0
333.77,104.0
333.84,101.0
333.9,97.0
333.96,108.0
334.03,112.0
334.09,86.0
334.15,89.0
334.21,83.0
334.28,82.0
334.34,75.0
334.4,64.0
334.47,70.0
334.53,49.0
334.59,71.0
334.66,56.0
334.72,56.0
334.78,63.0
334.84,76.0
334.91,64.0
334.97,66.0
335.03,76.0
335.1,52.0
335.16,61.0
335.22,54.0
335.29,54.0
335.35,67.0
335.41,61.0
335.47,57.0
335.54,47.0
335.6,62.0
335.66,46.0
335.73,31.0
335.79,35.0
335.85,35.0
335.92,32.0
335.98,29.0
336.04,36.0
336.1,24.0
336.17,35.0
336.23,28.0
336.29,20.0
336.36,42.0
336.42,26.0
336.48,24.0
336.55,21.0
336.61,24.0
336.67,21.0
336.73,20.0
336.8,18.0
336.86,15.0
336.92,13.0
336.99,32.0
337.05,34.0
337.11,27.0
337.18,16.0
337.24,33.0
337.3,24.0
337.36,25.0
337.43,17.0
337.49,12.0
337.55,13.0
337.62,-2.0
337.68,6.0
337.74,2.0
337.81,8.0
337.87,4.0
337.93,18.0
337.99,12.0
338.06,21.0
338.12,26.0
338.18,33.0
338.25,31.0
338.31,26.0
338.37,22.0
338.44,33.0
338.5,10.0
338.56,34.0
338.62,1.0
338.69,13.0
338.75,22.0
338.81,25.0
338.88,18.0
338.94,10.0
339.0,12.0
339.07,34.0
339.13,18.0
339.19,19.0
339.25,35.0
339.32,43.0
339.38,30.0
339.44,38.0
339.51,15.0
339.57,20.0
339.63,29.0
339.7,12.0
339.76,25.0
339.82,29.0
339.88,32.0
339.95,37.0
340.01,41.0
340.07,49.0
340.14,38.0
340.2,43.0
340.26,52.0
340.33,67.0
340.39,50.0
340.45,40.0
340.51,38.0
340.58,49.0
340.64,74.0
340.7,75.0
340.77,67.0
340.83,53.0
340.89,71.0
340.96,65.0
341.02,56.0
341.08,56.0
341.14,60.0
341.21,54.0
341.27,64.0
341.33,90.0
341.4,80.0
341.46,79.0
341.52,84.0
341.59,46.0
341.65,84.0
341.71,92.0
341.77,100.0
341.84,127.0
341.9,117.0
341.96,121.0
342.03,115.0
342.09,115.0
342.15,107.0
342.22,94.0
342.28,104.0
342.34,114.0
342.4,111.0
342.47,140.0
342.53,141.0
342.59,137.0
342.66,140.0
342.72,146.0
342.78,127.0
342.85,133.0
342.91,130.0
342.97,154.0
343.03,151.0
343.1,148.0
343.16,148.0
343.22,159.0
343.29,169.0
343.35,155.0
343.41,154.0
343.48,167.0
343.54,155.0
343.6,145.0
343.66,158.0
343.73,169.0
343.79,177.0
343.85,174.0
343.92,180.0
343.98,185.0
344.04,181.0
344.11,177.0
344.17,188.0
344.23,166.0
344.29,161.0
344.36,168.0
344.42,163.0
344.48,166.0
344.55,156.0
344.61,146.0
344.67,169.0
344.74,168.0
344.8,158.0
344.86,163.0
344.92,176.0
344.99,154.0
345.05,175.0
345.11,162.0
345.18,163.0
345.24,149.0
345.3,170.0
345.37,166.0
345.43,160.0
345.49,144.0
345.55,164.0
345.62,153.0
345.68,153.0
345.74,157.0
345.81,153.0
345.87,170.0
345.93,178.0
346.0,171.0
346.06,167.0
346.12,161.0
346.18,172.0
346.25,166.0
346.31,166.0
346.37,177.0
346.44,173.0
346.5,188.0
346.56,180.0
346.63,176.0
346.69,172.0
346.75,164.0
346.81,177.0
346.88,150.0
346.94,152.0
347.0,161.0
347.07,149.0
347.13,146.0
347.19,136.0
347.26,135.0
347.32,133.0
347.38,144.0
347.44,135.0
347.51,123.0
347.57,142.0
347.63,140.0
347.7,141.0
347.76,141.0
347.82,137.0
347.89,137.0
347.95,141.0
348.01,140.0
348.07,132.0
348.14,135.0
348.2,139.0
348.26,148.0
348.33,141.0
348.39,137.0
348.45,114.0
348.52,117.0
348.58,146.0
348.64,142.0
348.7,141.0
348.77,133.0
348.83,126.0
348.89,148.0
348.96,155.0
349.02,140.0
349.08,149.0
349.15,157.0
349.21,155.0
349.27,132.0
349.33,128.0
349.4,146.0
349.46,155.0
349.52,139.0
349.59,129.0
349.65,136.0
349.71,124.0
349.78,120.0
349.84,134.0
349.9,134.0
349.96,153.0
350.03,148.0
350.09,143.0
350.15,153.0
350.22,150.0
350.28,142.0
350.34,140.0
350.41,138.0
350.47,137.0
350.53,137.0
350.59,119.0
350.66,134.0
350.72,117.0
350.78,116.0
350.85,137.0
350.91,121.0
350.97,126.0
351.04,131.0
351.1,120.0
351.16,109.0
351.22,111.0
351.29,115.0
351.35,119.0
351.41,112.0
351.48,95.0
351.54,93.0
351.6,88.0
351.67,89.0
351.73,84.0
351.79,104.0
351.85,90.0
351.92,101.0
351.98,82.0
352.04,89.0
352.11,98.0
352.17,78.0
352.23,81.0
352.3,81.0
352.36,89.0
352.42,100.0
352.48,106.0
352.55,111.0
352.61,102.0
352.67,83.0
352.74,77.0
352.8,86.0
352.86,84.0
352.93,70.0
352.99,79.0
353.05,96.0
353.11,90.0
353.18,104.0
353.24,89.0
353.3,89.0
353.37,70.0
353.43,59.0
353.49,57.0
353.56,67.0
353.62,76.0
353.68,62.0
353.74,74.0
353.81,75.0
353.87,89.0
353.93,80.0
354.0,75.0
354.06,93.0
354.12,93.0
354.19,92.0
354.25,66.0
354.31,81.0
354.37,74.0
354.44,65.0
354.5,62.0
354.56,41.0
354.63,39.0
354.69,48.0
354.75,38.0
354.82,24.0
354.88,38.0
354.94,44.0
355.0,45.0
355.07,51.0
355.13,48.0
355.19,49.0
355.26,48.0
355.32,39.0
355.38,34.0
355.45,43.0
355.51,50.0
355.57,56.0
355.63,60.0
355.7,57.0
355.76,66.0
355.82,71.0
355.89,61.0
355.95,67.0
356.01,66.0
356.08,55.0
356.14,74.0
356.2,65.0
356.26,69.0
356.33,67.0
356.39,56.0
356.45,91.0
356.52,74.0
356.58,63.0
356.64,79.0
356.71,75.0
356.77,80.0
356.83,92.0
356.89,86.0
356.96,75.0
357.02,73.0
357.08,59.0
357.15,74.0
357.21,77.0
357.27,76.0
357.34,89.0
357.4,98.0
357.46,83.0
357.52,100.0
357.59,107.0
357.65,103.0
357.71,93.0
357.78,95.0
357.84,104.0
357.9,93.0
357.97,97.0
358.03,125.0
358.09,114.0
358.15,109.0
358.22,81.0
358.28,92.0
358.34,106.0
358.41,96.0
358.47,103.0
358.53,96.0
358.6,95.0
358.66,109.0
358.72,115.0
358.78,111.0
358.85,126.0
358.91,127.0
358.97,121.0
359.04,104.0
359.1,102.0
359.16,131.0
359.23,117.0
359.29,106.0
359.35,112.0
359.41,107.0
359.48,127.0
359.54,123.0
359.6,108.0
359.67,126.0
359.73,145.0
359.79,128.0
359.86,142.0
359.92,135.0
359.98,111.0
360.04,126.0
360.11,126.0
360.17,100.0
360.23,114.0
360.3,115.0
360.36,122.0
360.42,93.0
360.49,113.0
360.55,107.0
360.61,101.0
360.67,113.0
360.74,128.0
360.8,111.0
360.86,117.0
360.93,133.0
360.99,118.0
361.05,123.0
361.12,111.0
361.18,112.0
361.24,106.0
361.3,104.0
361.37,90.0
361.43,100.0
361.49,101.0
361.56,109.0
361.62,131.0
361.68,140.0
361.75,140.0
361.81,127.0
361.87,126.0
361.93,129.0
362.0,128.0
362.06,148.0
362.12,123.0
362.19,113.0
362.25,129.0
362.31,150.0
362.38,137.0
362.44,133.0
362.5,140.0
362.56,130.0
362.63,131.0
362.69,128.0
362.75,123.0
362.82,120.0
362.88,121.0
362.94,108.0
363.01,118.0
363.07,128.0
363.13,108.0
363.19,100.0
363.26,120.0
363.32,115.0
363.38,105.0
363.45,87.0
363.51,108.0
363.57,124.0
363.64,115.0
363.7,106.0
363.76,104.0
363.82,98.0
363.89,140.0
363.95,120.0
364.01,124.0
364.08,121.0
364.14,98.0
364.2,86.0
364.27,79.0
364.33,84.0
364.39,111.0
364.45,106.0
364.52,75.0
364.58,96.0
364.64,114.0
364.71,104.0
364.77,118.0
364.83,98.0
364.9,96.0
364.96,99.0
365.02,97.0
365.08,105.0
365.15,110.0
365.21,106.0
365.27,94.0
365.34,118.0
365.4,135.0
365.46,125.0
365.53,118.0
365.59,97.0
365.65,107.0
365.71,96.0
365.78,115.0
365.84,103.0
365.9,89.0
365.97,130.0
366.03,110.0
366.09,116.0
366.16,117.0
366.22,117.0
366.28,100.0
366.34,93.0
366.41,118.0
366.47,133.0
366.53,128.0
366.6,96.0
366.66,119.0
366.72,132.0
366.79,137.0
366.85,122.0
366.91,122.0
366.97,115.0
367.04,120.0
367.1,127.0
367.16,134.0
367.23,118.0
367.29,133.0
367.35,139.0
367.42,141.0
367.48,122.0
367.54,140.0
367.6,123.0
367.67,101.0
367.73,115.0
367.79,107.0
367.86,118.0
367.92,119.0
367.98,126.0
368.05,134.0
368.11,127.0
368.17,134.0
368.23,120.0
368.3,110.0
368.36,102.0
368.42,95.0
368.49,99.0
368.55,93.0
368.61,93.0
368.68,89.0
368.74,97.0
368.8,100.0
368.86,112.0
368.93,104.0
368.99,118.0
369.05,114.0
369.12,109.0
369.18,112.0
369.24,94.0
369.31,105.0
369.37,95.0
369.43,100.0
369.49,100.0
369.56,97.0
369.62,91.0
369.68,81.0
369.75,85.0
369.81,74.0
369.87,83.0
369.94,84.0
370.0,82.0
370.06,106.0
370.12,96.0
370.19,106.0
370.25,118.0
370.31,95.0
370.38,85.0
370.44,53.0
370.5,53.0
370.57,76.0
370.63,74.0
370.69,62.0
370.75,68.0
370.82,82.0
370.88,80.0
370.94,80.0
371.01,103.0
371.07,111.0
371.13,102.0
371.2,104.0
371.26,107.0
371.32,106.0
371.38,93.0
371.45,75.0
371.51,80.0
371.57,74.0
371.64,70.0
371.7,72.0
371.76,90.0
371.83,97.0
371.89,67.0
371.95,82.0
372.01,100.0
372.08,95.0
372.14,88.0
372.2,93.0
372.27,114.0
372.33,98.0
372.39,90.0
372.46,95.0
372.52,109.0
372.58,110.0
372.64,92.0
372.71,78.0
372.77,86.0
372.83,84.0
372.9,95.0
372.96,88.0
373.02,94.0
373.09,78.0
373.15,62.0
373.21,84.0
373.27,98.0
373.34,79.0
373.4,89.0
373.46,100.0
373.53,81.0
373.59,101.0
373.65,106.0
373.72,105.0
373.78,108.0
373.84,92.0
373.9,89.0
373.97,105.0
374.03,122.0
374.09,123.0
374.16,124.0
374.22,108.0
374.28,105.0
374.35,105.0
374.41,122.0
374.47,132.0
374.53,122.0
374.6,117.0
374.66,130.0
374.72,121.0
374.79,120.0
374.85,112.0
374.91,112.0
374.98,111.0
375.04,126.0
375.1,123.0
375.16,108.0
375.23,111.0
375.29,112.0
375.35,124.0
375.42,119.0
375.48,123.0
375.54,129.0
375.61,126.0
375.67,136.0
375.73,137.0
375.79,144.0
375.86,148.0
375.92,153.0
375.98,173.0
376.05,159.0
376.11,153.0
376.17,155.0
376.24,150.0
376.3,141.0
376.36,145.0
376.42,132.0
376.49,144.0
376.55,144.0
376.61,140.0
376.68,122.0
376.74,131.0
376.8,128.0
376.87,126.0
376.93,164.0
376.99,167.0
377.05,151.0
377.12,157.0
377.18,163.0
377.24,160.0
377.31,166.0
377.37,167.0
377.43,155.0
377.5,151.0
377.56,152.0
377.62,163.0
377.68,182.0
377.75,163.0
377.81,152.0
377.87,144.0
377.94,162.0
378.0,158.0
378.06,149.0
378.13,135.0
378.19,144.0
378.25,153.0
378.31,154.0
378.38,134.0
378.44,135.0
378.5,127.0
378.57,120.0
378.63,137.0
378.69,122.0
378.76,120.0
378.82,129.0
378.88,139.0
378.94,154.0
379.01,144.0
379.07,146.0
379.13,149.0
379.2,144.0
379.26,111.0
379.32,131.0
379.39,126.0
379.45,107.0
379.51,108.0
379.57,104.0
379.64,122.0
379.7,106.0
379.76,97.0
379.83,116.0
379.89,134.0
379.95,113.0
380.02,122.0
380.08,122.0
380.14,100.0
380.2,107.0
380.27,93.0
380.33,104.0
380.39,93.0
380.46,102.0
380.52,107.0
380.58,89.0
380.65,89.0
380.71,88.0
380.77,77.0
380.83,78.0
380.9,86.0
380.96,84.0
381.02,90.0
381.09,80.0
381.15,91.0
381.21,82.0
381.28,80.0
381.34,85.0
381.4,74.0
381.46,78.0
381.53,63.0
381.59,101.0
381.65,79.0
381.72,88.0
381.78,111.0
381.84,86.0
381.91,100.0
381.97,85.0
382.03,103.0
382.09,85.0
382.16,96.0
382.22,85.0
382.28,78.0
382.35,89.0
382.41,96.0
382.47,105.0
382.54,101.0
382.6,96.0
382.66,111.0
382.72,106.0
382.79,104.0
382.85,104.0
382.91,111.0
382.98,96.0
383.04,127.0
383.1,126.0
383.17,122.0
383.23,137.0
383.29,132.0
383.35,112.0
383.42,128.0
383.48,119.0
383.54,115.0
383.61,119.0
383.67,111.0
383.73,131.0
383.8,112.0
383.86,123.0
383.92,128.0
383.98,116.0
384.05,97.0
384.11,82.0
384.17,85.0
384.24,96.0
384.3,111.0
384.36,95.0
384.43,93.0
384.49,90.0
384.55,103.0
384.61,104.0
384.68,95.0
384.74,72.0
384.8,73.0
384.87,58.0
384.93,70.0
384.99,77.0
385.06,86.0
385.12,64.0
385.18,58.0
385.24,45.0
385.31,52.0
385.37,63.0
385.43,57.0
385.5,65.0
385.56,63.0
385.62,47.0
385.69,51.0
385.75,61.0
385.81,79.0
385.87,76.0
385.94,79.0
386.0,73.0
386.06,70.0
386.13,76.0
386.19,70.0
386.25,60.0
386.32,65.0
386.38,45.0
386.44,35.0
386.5,50.0
386.57,56.0
386.63,69.0
386.69,63.0
386.76,46.0
386.82,46.0
386.88,43.0
386.95,38.0
387.01,32.0
387.07,43.0
387.13,31.0
387.2,23.0
387.26,50.0
387.32,39.0
387.39,54.0
387.45,47.0
387.51,22.0
387.58,35.0
387.64,46.0
387.7,53.0
387.76,31.0
387.83,41.0
387.89,17.0
387.95,17.0
388.02,36.0
388.08,20.0
388.14,38.0
388.21,36.0
388.27,23.0
388.33,34.0
388.39,26.0
388.46,19.0
388.52,23.0
388.58,34.0
388.65,32.0
388.71,38.0
388.77,49.0
388.84,29.0
388.9,34.0
388.96,36.0
389.02,41.0
389.09,26.0
389.15,48.0
389.21,49.0
389.28,34.0
389.34,18.0
389.4,45.0
389.47,46.0
389.53,32.0
389.59,32.0
389.65,37.0
389.72,14.0
389.78,24.0
389.84,32.0
389.91,16.0
389.97,21.0
390.03,27.0
390.1,18.0
390.16,34.0
390.22,23.0
390.28,20.0
390.35,42.0
390.41,37.0
390.47,33.0
390.54,27.0
390.6,29.0
390.66,53.0
390.73,35.0
390.79,41.0
390.85,37.0
390.91,60.0
390.98,53.0
391.04,45.0
391.1,52.0
391.17,56.0
391.23,49.0
391.29,42.0
391.36,68.0
391.42,68.0
391.48,60.0
391.54,69.0
391.61,81.0
391.67,84.0
391.73,82.0
391.8,83.0
391.86,83.0
391.92,102.0
391.99,103.0
392.05,89.0
392.11,87.0
392.17,95.0
392.24,111.0
392.3,102.0
392.36,112.0
392.43,115.0
392.49,100.0
392.55,111.0
392.62,123.0
392.68,123.0
392.74,137.0
392.8,145.0
392.87,140.0
392.93,140.0
392.99,154.0
393.06,152.0
393.12,174.0
393.18,153.0
393.25,156.0
393.31,170.0
393.37,166.0
393.43,170.0
393.5,168.0
393.56,190.0
393.62,208.0
393.69,195.0
393.75,198.0
393.81,199.0
393.88,194.0
393.94,207.0
394.0,214.0
394.06,217.0
394.13,202.0
394.19,200.0
394.25,188.0
394.32,173.0
394.38,195.0
394.44,162.0
394.51,172.0
394.57,161.0
394.63,157.0
394.69,167.0
394.76,165.0
394.82,157.0
394.88,172.0
394.95,191.0
395.01,175.0
395.07,169.0
395.14,169.0
395.2,166.0
395.26,177.0
395.32,194.0
395.39,185.0
395.45,175.0
395.51,187.0
395.58,176.0
395.64,175.0
395.7,148.0
395.77,145.0
395.83,141.0
395.89,136.0
395.95,154.0
396.02,159.0
396.08,158.0
396.14,152.0
396.21,152.0
396.27,162.0
396.33,163.0
396.4,149.0
396.46,144.0
396.52,142.0
396.58,147.0
396.65,156.0
396.71,153.0
396.77,148.0
396.84,157.0
396.9,162.0
396.96,160.0
397.03,147.0
397.09,147.0
397.15,158.0
397.21,144.0
397.28,165.0
397.34,169.0
397.4,183.0
397.47,185.0
397.53,188.0
397.59,185.0
397.66,167.0
397.72,181.0
397.78,159.0
397.84,165.0
397.91,171.0
397.97,172.0
398.03,157.0
398.1,169.0
398.16,167.0
398.22,157.0
398.29,184.0
398.35,179.0
398.41,170.0
398.47,172.0
398.54,179.0
398.6,167.0
398.66,182.0
398.73,191.0
398.79,174.0
398.85,185.0
398.92,186.0
398.98,189.0
399.04,193.0
399.1,207.0
399.17,211.0
399.23,202.0
399.29,196.0
399.36,183.0
399.42,210.0
399.48,193.0
399.55,198.0
399.61,205.0
399.67,195.0
399.73,199.0
399.8,203.0
399.86,200.0
399.92,190.0
399.99,178.0
400.05,175.0
400.11,202.0
400.18,200.0
400.24,179.0
400.3,164.0
400.36,175.0
400.43,191.0
400.49,196.0
400.55,192.0
400.62,178.0
400.68,170.0
400.74,172.0
400.81,163.0
400.87,169.0
400.93,163.0
400.99,155.0
401.06,165.0
401.12,150.0
401.18,162.0
401.25,139.0
401.31,159.0
401.37,165.0
401.44,167.0
401.5,174.0
401.56,166.0
401.62,154.0
401.69,129.0
401.75,162.0
401.81,166.0
401.88,152.0
401.94,143.0
402.0,140.0
402.07,128.0
402.13,158.0
402.19,147.0
402.25,155.0
402.32,151.0
402.38,144.0
402.44,125.0
402.51,123.0
402.57,121.0
402.63,135.0
402.7,126.0
402.76,148.0
402.82,148.0
402.88,133.0
402.95,141.0
403.01,139.0
403.07,146.0
403.14,144.0
403.2,147.0
403.26,144.0
403.33,141.0
403.39,134.0
403.45,133.0
403.51,132.0
403.58,139.0
403.64,121.0
403.7,135.0
403.77,115.0
403.83,116.0
403.89,133.0
403.96,135.0
404.02,150.0
404.08,155.0
404.14,128.0
404.21,132.0
404.27,137.0
404.33,125.0
404.4,139.0
404.46,130.0
404.52,125.0
404.59,142.0
404.65,136.0
404.71,112.0
404.77,100.0
404.84,112.0
404.9,128.0
404.96,109.0
405.03,92.0
405.09,95.0
405.15,114.0
405.22,104.0
405.28,89.0
405.34,71.0
405.4,84.0
405.47,67.0
405.53,51.0
405.59,61.0
405.66,49.0
405.72,69.0
405.78,65.0
405.85,53.0
405.91,59.0
405.97,56.0
406.03,45.0
406.1,54.0
406.16,60.0
406.22,62.0
406.29,67.0
406.35,81.0
406.41,61.0
406.48,55.0
406.54,62.0
406.6,53.0
406.66,46.0
406.73,52.0
406.79,56.0
406.85,58.0
406.92,53.0
406.98,68.0
407.04,55.0
407.11,36.0
407.17,56.0
407.23,43.0
407.29,52.0
407.36,20.0
407.42,18.0
407.48,48.0
407.55,26.0
407.61,45.0
407.67,41.0
407.74,49.0
407.8,52.0
407.86,33.0
407.92,50.0
407.99,60.0
408.05,51.0
408.11,57.0
408.18,60.0
408.24,70.0
408.3,73.0
408.37,54.0
408.43,70.0
408.49,71.0
408.55,100.0
408.62,106.0
408.68,96.0
408.74,89.0
408.81,107.0
408.87,109.0
408.93,106.0
409.0,115.0
409.06,110.0
409.12,101.0
409.18,104.0
409.25,97.0
409.31,85.0
409.37,89.0
409.44,98.0
409.5,75.0
409.56,97.0
409.63,118.0
409.69,95.0
409.75,97.0
409.81,106.0
409.88,115.0
409.94,100.0
410.0,119.0
410.07,108.0
410.13,120.0
410.19,119.0
410.26,100.0
410.32,75.0
410.38,98.0
410.44,121.0
410.51,104.0
410.57,104.0
410.63,115.0
410.7,104.0
410.76,106.0
410.82,91.0
410.89,73.0
410.95,100.0
411.01,112.0
411.07,92.0
411.14,90.0
411.2,102.0
411.26,100.0
411.33,112.0
411.39,103.0
411.45,87.0
411.52,83.0
411.58,91.0
411.64,89.0
411.7,100.0
411.77,94.0
411.83,114.0
411.89,111.0
411.96,120.0
412.02,98.0
412.08,100.0
412.15,113.0
412.21,107.0
412.27,103.0
412.33,105.0
412.4,94.0
412.46,115.0
412.52,117.0
412.59,100.0
412.65,106.0
412.71,113.0
412.78,89.0
412.84,106.0
412.9,82.0
412.96,77.0
413.03,97.0
413.09,95.0
413.15,100.0
413.22,98.0
413.28,97.0
413.34,105.0
413.41,77.0
413.47,91.0
413.53,100.0
413.59,109.0
413.66,104.0
413.72,93.0
413.78,84.0
413.85,94.0
413.91,85.0
413.97,75.0
414.04,67.0
414.1,95.0
414.16,82.0
414.22,78.0
414.29,58.0
414.35,57.0
414.41,64.0
414.48,51.0
414.54,37.0
414.6,24.0
414.67,40.0
414.73,33.0
414.79,60.0
414.85,68.0
414.92,52.0
414.98,66.0
415.04,45.0
415.11,45.0
415.17,59.0
415.23,44.0
415.3,49.0
415.36,61.0
415.42,82.0
415.48,60.0
415.55,75.0
415.61,90.0
415.67,87.0
415.74,74.0
415.8,68.0
415.86,83.0
415.93,78.0
415.99,96.0
416.05,92.0
416.11,104.0
416.18,101.0
416.24,110.0
416.3,104.0
416.37,101.0
416.43,123.0
416.49,87.0
416.56,93.0
416.62,104.0
416.68,126.0
416.74,122.0
416.81,136.0
416.87,130.0
416.93,142.0
417.0,133.0
417.06,118.0
417.12,125.0
417.19,104.0
417.25,104.0
417.31,92.0
417.37,95.0
417.44,108.0
417.5,104.0
417.56,114.0
417.63,111.0
417.69,114.0
417.75,107.0
417.82,89.0
417.88,94.0
417.94,91.0
418.0,104.0
418.07,113.0
418.13,102.0
418.19,93.0
418.26,98.0
418.32,115.0
418.38,126.0
418.45,116.0
418.51,117.0
418.57,129.0
418.63,119.0
418.7,105.0
418.76,122.0
418.82,109.0
418.89,115.0
418.95,119.0
419.01,111.0
419.08,125.0
419.14,134.0
419.2,106.0
419.26,94.0
419.33,101.0
419.39,115.0
419.45,117.0
419.52,117.0
419.58,111.0
419.64,122.0
419.71,129.0
419.77,119.0
419.83,123.0
419.89,96.0
419.96,104.0
420.02,95.0
420.08,80.0
420.15,89.0
420.21,69.0
420.27,76.0
420.34,86.0
420.4,95.0
420.46,89.0
420.52,109.0
420.59,101.0
420.65,107.0
420.71,96.0
420.78,79.0
420.84,62.0
420.9,78.0
420.97,89.0
421.03,68.0
421.09,59.0
421.15,90.0
421.22,86.0
421.28,106.0
421.34,105.0
421.41,84.0
421.47,102.0
421.53,93.0
421.6,70.0
421.66,74.0
421.72,78.0
421.78,64.0
421.85,88.0
421.91,71.0
421.97,70.0
422.04,71.0
422.1,81.0
422.16,57.0
422.23,68.0
422.29,54.0
422.35,46.0
422.41,48.0
422.48,34.0
422.54,56.0
422.6,49.0
422.67,45.0
422.73,34.0
422.79,32.0
422.86,49.0
422.92,43.0
422.98,35.0
423.04,33.0
423.11,23.0
423.17,39.0
423.23,34.0
423.3,39.0
423.36,50.0
423.42,40.0
423.49,44.0
423.55,48.0
423.61,42.0
423.67,29.0
423.74,35.0
423.8,22.0
423.86,42.0
423.93,41.0
423.99,52.0
424.05,60.0
424.12,77.0
424.18,73.0
424.24,70.0
424.3,86.0
424.37,73.0
424.43,79.0
424.49,92.0
424.56,86.0
424.62,87.0
424.68,81.0
424.75,98.0
424.81,89.0
424.87,104.0
424.93,95.0
425.0,83.0
425.06,89.0
425.12,102.0
425.19,109.0
425.25,96.0
425.31,78.0
425.38,104.0
425.44,93.0
425.5,95.0
425.56,109.0
425.63,98.0
425.69,89.0
425.75,109.0
425.82,115.0
425.88,110.0
425.94,106.0
426.01,118.0
426.07,123.0
426.13,135.0
426.19,138.0
426.26,128.0
426.32,137.0
426.38,117.0
426.45,106.0
426.51,114.0
426.57,110.0
426.64,115.0
426.7,111.0
426.76,130.0
426.82,138.0
426.89,133.0
426.95,141.0
427.01,142.0
427.08,143.0
427.14,156.0
427.2,140.0
427.27,159.0
427.33,166.0
427.39,166.0
427.45,168.0
427.52,159.0
427.58,148.0
427.64,155.0
427.71,154.0
427.77,147.0
427.83,152.0
427.9,148.0
427.96,152.0
428.02,143.0
428.08,162.0
428.15,173.0
428.21,176.0
428.27,159.0
428.34,153.0
428.4,145.0
428.46,132.0
428.53,137.0
428.59,170.0
428.65,162.0
428.71,160.0
428.78,161.0
428.84,154.0
428.9,161.0
428.97,155.0
429.03,149.0
429.09,150.0
429.16,128.0
429.22,142.0
429.28,150.0
429.34,125.0
429.41,128.0
429.47,152.0
429.53,136.0
429.6,136.0
429.66,125.0
429.72,124.0
429.79,132.0
429.85,141.0
429.91,140.0
429.97,125.0
430.04,118.0
430.1,120.0
430.16,130.0
430.23,126.0
430.29,117.0
430.35,115.0
430.42,125.0
430.48,115.0
430.54,98.0
430.6,111.0
430.67,111.0
430.73,117.0
430.79,115.0
430.86,118.0
430.92,122.0
430.98,120.0
431.05,129.0
431.11,131.0
431.17,139.0
431.23,143.0
431.3,127.0
431.36,132.0
431.42,135.0
431.49,140.0
431.55,141.0
431.61,145.0
431.68,123.0
431.74,139.0
431.8,133.0
431.86,115.0
431.93,140.0
431.99,113.0
432.05,120.0
432.12,126.0
432.18,113.0
432.24,107.0
432.31,122.0
432.37,129.0
432.43,151.0
432.49,136.0
432.56,137.0
432.62,128.0
432.68,133.0
432.75,122.0
432.81,112.0
432.87,131.0
432.94,132.0
433.0,137.0
433.06,150.0
433.12,141.0
433.19,149.0
433.25,145.0
433.31,130.0
433.38,142.0
433.44,117.0
433.5,151.0
433.57,131.0
433.63,128.0
433.69,135.0
433.75,142.0
433.82,129.0
433.88,133.0
433.94,139.0
434.01,115.0
434.07,135.0
434.13,117.0
434.2,111.0
434.26,122.0
434.32,132.0
434.38,130.0
434.45,117.0
434.51,130.0
434.57,138.0
434.64,115.0
434.7,126.0
434.76,125.0
434.83,119.0
434.89,120.0
434.95,137.0
435.01,144.0
435.08,143.0
435.14,134.0
435.2,129.0
435.27,128.0
435.33,144.0
435.39,135.0
435.46,131.0
435.52,118.0
435.58,126.0
435.64,106.0
435.71,111.0
435.77,119.0
435.83,125.0
435.9,115.0
435.96,118.0
436.02,107.0
436.09,109.0
436.15,117.0
436.21,126.0
436.27,111.0
436.34,124.0
436.4,146.0
436.46,136.0
436.53,155.0
436.59,129.0
436.65,149.0
436.72,141.0
436.78,136.0
436.84,129.0
436.9,126.0
436.97,111.0
437.03,109.0
437.09,103.0
437.16,102.0
437.22,118.0
437.28,96.0
437.35,101.0
437.41,103.0
437.47,94.0
437.53,92.0
437.6,76.0
437.66,111.0
437.72,92.0
437.79,70.0
437.85,77.0
437.91,54.0
437.98,58.0
438.04,54.0
438.1,58.0
438.16,60.0
438.23,41.0
438.29,36.0
438.35,40.0
438.42,32.0
438.48,49.0
438.54,60.0
438.61,43.0
438.67,32.0
438.73,49.0
438.79,45.0
438.86,57.0
438.92,49.0
438.98,45.0
439.05,52.0
439.11,50.0
439.17,38.0
439.24,42.0
439.3,63.0
439.36,65.0
439.42,44.0
439.49,55.0
439.55,34.0
439.61,42.0
439.68,32.0
439.74,38.0
439.8,42.0
439.87,26.0
439.93,19.0
439.99,23.0
440.05,31.0
440.12,29.0
440.18,31.0
440.24,47.0
440.31,36.0
440.37,49.0
440.43,51.0
440.5,18.0
440.56,9.0
440.62,19.0
440.68,10.0
440.75,33.0
440.81,33.0
440.87,30.0
440.94,30.0
441.0,35.0
441.06,22.0
441.13,20.0
441.19,23.0
441.25,28.0
441.31,48.0
441.38,37.0
441.44,32.0
441.5,36.0
441.57,24.0
441.63,13.0
441.69,23.0
441.76,19.0
441.82,13.0
441.88,22.0
441.94,21.0
442.01,18.0
442.07,16.0
442.13,18.0
442.2,25.0
442.26,14.0
442.32,35.0
442.39,42.0
442.45,42.0
442.51,73.0
442.57,46.0
442.64,57.0
442.7,54.0
442.76,57.0
442.83,60.0
442.89,66.0
442.95,90.0
443.02,84.0
443.08,72.0
443.14,79.0
443.2,90.0
443.27,114.0
443.33,96.0
443.39,102.0
443.46,104.0
443.52,95.0
443.58,112.0
443.65,117.0
443.71,108.0
443.77,106.0
443.83,95.0
443.9,81.0
443.96,120.0
444.02,116.0
444.09,103.0
444.15,111.0
444.21,104.0
444.28,118.0
444.34,114.0
444.4,108.0
444.46,116.0
444.53,104.0
444.59,126.0
444.65,109.0
444.72,114.0
444.78,114.0
444.84,100.0
444.91,100.0
444.97,103.0
445.03,98.0
445.09,96.0
445.16,90.0
445.22,107.0
445.28,96.0
445.35,92.0
445.41,106.0
445.47,123.0
445.54,98.0
445.6,95.0
445.66,100.0
445.72,106.0
445.79,95.0
445.85,114.0
445.91,92.0
445.98,98.0
446.04,122.0
446.1,100.0
446.17,112.0
446.23,84.0
446.29,90.0
446.35,95.0
446.42,115.0
446.48,97.0
446.54,105.0
446.61,107.0
446.67,96.0
446.73,104.0
446.8,100.0
446.86,96.0
446.92,106.0
446.98,113.0
447.05,111.0
447.11,128.0
447.17,101.0
447.24,113.0
447.3,117.0
447.36,84.0
447.43,96.0
447.49,109.0
447.55,113.0
447.61,110.0
447.68,94.0
447.74,110.0
447.8,106.0
447.87,98.0
447.93,96.0
447.99,112.0
448.06,140.0
448.12,115.0
448.18,107.0
448.24,109.0
448.31,98.0
448.37,99.0
448.43,105.0
448.5,120.0
448.56,105.0
448.62,97.0
448.69,106.0
448.75,120.0
448.81,124.0
448.87,135.0
448.94,142.0
449.0,137.0
449.06,134.0
449.13,135.0
449.19,130.0
449.25,122.0
449.32,131.0
449.38,141.0
449.44,140.0
449.5,128.0
449.57,146.0
449.63,143.0
449.69,137.0
449.76,150.0
449.82,139.0
449.88,134.0
449.95,140.0
450.01,116.0
450.07,119.0
450.13,115.0
450.2,112.0
450.26,129.0
450.32,135.0
450.39,125.0
450.45,137.0
450.51,157.0
450.58,138.0
450.64,127.0
450.7,133.0
450.76,152.0
450.83,163.0
450.89,156.0
450.95,139.0
451.02,166.0
451.08,137.0
451.14,147.0
451.21,152.0
451.27,155.0
451.33,161.0
451.39,137.0
451.46,153.0
451.52,124.0
451.58,119.0
451.65,147.0
451.71,137.0
451.77,126.0
451.84,150.0
451.9,166.0
451.96,159.0
452.02,138.0
452.09,144.0
452.15,152.0
452.21,158.0
452.28,150.0
452.34,138.0
452.4,154.0
452.47,143.0
452.53,144.0
452.59,144.0
452.65,140.0
452.72,141.0
452.78,142.0
452.84,145.0
452.91,138.0
452.97,142.0
453.03,144.0
453.1,140.0
453.16,142.0
453.22,143.0
453.28,132.0
453.35,150.0
453.41,160.0
453.47,152.0
453.54,122.0
453.6,134.0
453.66,133.0
453.73,136.0
453.79,132.0
453.85,138.0
453.91,125.0
453.98,130.0
454.04,131.0
454.1,135.0
454.17,143.0
454.23,144.0
454.29,137.0
454.36,149.0
454.42,132.0
454.48,125.0
454.54,126.0
454.61,128.0
454.67,136.0
454.73,120.0
454.8,137.0
454.86,123.0
454.92,108.0
454.99,114.0
455.05,108.0
455.11,118.0
455.17,124.0
455.24,116.0
455.3,122.0
455.36,126.0
455.43,120.0
455.49,135.0
455.55,123.0
455.62,127.0
455.68,118.0
455.74,118.0
455.8,100.0
455.87,98.0
455.93,85.0
455.99,83.0
456.06,101.0
456.12,101.0
456.18,96.0
456.25,106.0
456.31,105.0
456.37,88.0
456.43,93.0
456.5,97.0
456.56,84.0
456.62,71.0
456.69,70.0
456.75,75.0
456.81,96.0
456.88,78.0
456.94,96.0
457.0,84.0
457.06,87.0
457.13,97.0
457.19,86.0
457.25,96.0
457.32,68.0
457.38,76.0
457.44,62.0
457.51,77.0
457.57,85.0
457.63,73.0
457.69,64.0
457.76,83.0
457.82,61.0
457.88,93.0
457.95,93.0
458.01,72.0
458.07,94.0
458.14,90.0
458.2,104.0
458.26,103.0
458.32,93.0
458.39,97.0
458.45,100.0
458.51,85.0
458.58,100.0
458.64,118.0
458.7,97.0
458.77,89.0
458.83,104.0
458.89,116.0
458.95,122.0
459.02,106.0
459.08,126.0
459.14,115.0
459.21,122.0
459.27,137.0
459.33,141.0
459.4,118.0
459.46,116.0
459.52,143.0
459.58,133.0
459.65,124.0
459.71,136.0
459.77,155.0
459.84,147.0
459.9,132.0
459.96,123.0
460.03,130.0
460.09,131.0
460.15,153.0
460.21,148.0
460.28,155.0
460.34,148.0
460.4,142.0
460.47,116.0
460.53,127.0
460.59,153.0
460.66,143.0
460.72,158.0
460.78,137.0
460.84,167.0
460.91,162.0
460.97,154.0
461.03,157.0
461.1,146.0
461.16,147.0
461.22,154.0
461.29,170.0
461.35,182.0
461.41,180.0
461.47,166.0
461.54,181.0
461.6,188.0
461.66,186.0
461.73,192.0
461.79,184.0
461.85,194.0
461.92,186.0
461.98,175.0
462.04,174.0
462.1,184.0
462.17,179.0
462.23,167.0
462.29,181.0
462.36,192.0
462.42,183.0
462.48,177.0
462.55,159.0
462.61,170.0
462.67,158.0
462.73,145.0
462.8,157.0
462.86,139.0
462.92,163.0
462.99,160.0
463.05,155.0
463.11,156.0
463.18,150.0
463.24,148.0
463.3,134.0
463.36,153.0
463.43,155.0
463.49,135.0
463.55,131.0
463.62,132.0
463.68,131.0
463.74,144.0
463.81,156.0
463.87,144.0
463.93,150.0
463.99,167.0
464.06,158.0
464.12,143.0
464.18,153.0
464.25,167.0
464.31,133.0
464.37,129.0
464.44,166.0
464.5,137.0
464.56,150.0
464.62,145.0
464.69,137.0
464.75,142.0
464.81,142.0
464.88,144.0
464.94,142.0
465.0,165.0
465.07,157.0
465.13,166.0
465.19,166.0
465.25,157.0
465.32,159.0
465.38,166.0
465.44,197.0
465.51,180.0
465.57,183.0
465.63,181.0
465.7,201.0
465.76,191.0
465.82,191.0
465.88,186.0
465.95,180.0
466.01,195.0
466.07,189.0
466.14,206.0
466.2,191.0
466.26,197.0
466.33,177.0
466.39,179.0
466.45,211.0
466.51,195.0
466.58,200.0
466.64,187.0
466.7,176.0
466.77,172.0
466.83,169.0
466.89,162.0
466.96,152.0
467.02,156.0
467.08,157.0
467.14,162.0
467.21,151.0
467.27,137.0
467.33,147.0
467.4,142.0
467.46,156.0
467.52,167.0
467.59,155.0
467.65,158.0
467.71,146.0
467.77,158.0
467.84,150.0
467.9,128.0
467.96,144.0
468.03,147.0
468.09,155.0
468.15,125.0
468.22,133.0
468.28,131.0
468.34,130.0
468.4,137.0
468.47,140.0
468.53,131.0
468.59,126.0
468.66,131.0
468.72,122.0
468.78,127.0
468.85,142.0
468.91,124.0
468.97,133.0
469.03,130.0
469.1,132.0
469.16,147.0
469.22,142.0
469.29,159.0
469.35,144.0
469.41,138.0
469.48,133.0
469.54,144.0
469.6,149.0
469.66,143.0
469.73,137.0
469.79,133.0
469.85,134.0
469.92,111.0
469.98,128.0
470.04,149.0
470.11,140.0
470.17,150.0
470.23,142.0
470.29,118.0
470.36,113.0
470.42,101.0
470.48,98.0
470.55,89.0
470.61,82.0
470.67,93.0
470.74,86.0
470.8,85.0
470.86,78.0
470.92,72.0
470.99,56.0
471.05,67.0
471.11,81.0
471.18,42.0
471.24,55.0
471.3,73.0
471.37,73.0
471.43,54.0
471.49,53.0
471.55,58.0
471.62,64.0
471.68,73.0
471.74,70.0
471.81,42.0
471.87,45.0
471.93,40.0
472.0,34.0
472.06,16.0
472.12,45.0
472.18,35.0
472.25,42.0
472.31,50.0
472.37,58.0
472.44,57.0
472.5,52.0
472.56,42.0
472.63,50.0
472.69,19.0
472.75,-1.0
472.81,12.0
472.88,4.0
472.94,-15.0
473.0,-14.0
473.07,-11.0
473.13,-20.0
473.19,-7.0
473.26,-9.0
473.32,-18.0
473.38,4.0
473.44,-10.0
473.51,3.0
473.57,-1.0
473.63,-7.0
473.7,-9.0
473.76,-14.0
473.82,-18.0
473.89,-39.0
473.95,-2.0
474.01,-14.0
474.07,-15.0
474.14,-8.0
474.2,-19.0
474.26,-6.0
474.33,-13.0
474.39,-4.0
474.45,-21.0
474.52,-13.0
474.58,-5.0
474.64,-3.0
474.7,2.0
474.77,18.0
474.83,25.0
474.89,27.0
474.96,6.0
475.02,1.0
475.08,14.0
475.15,11.0
475.21,19.0
475.27,37.0
475.33,27.0
475.4,13.0
475.46,2.0
475.52,27.0
475.59,34.0
475.65,40.0
475.71,57.0
475.78,42.0
475.84,40.0
475.9,53.0
475.96,69.0
476.03,74.0
476.09,87.0
476.15,88.0
476.22,89.0
476.28,75.0
476.34,86.0
476.41,103.0
476.47,97.0
476.53,99.0
476.59,95.0
476.66,97.0
476.72,113.0
476.78,91.0
476.85,105.0
476.91,111.0
476.97,110.0
477.04,133.0
477.1,131.0
477.16,130.0
477.22,118.0
477.29,140.0
477.35,129.0
477.41,128.0
477.48,128.0
477.54,122.0
477.6,123.0
477.67,130.0
477.73,146.0
477.79,130.0
477.85,160.0
477.92,133.0
477.98,116.0
478.04,131.0
478.11,129.0
478.17,144.0
478.23,132.0
478.3,126.0
478.36,126.0
478.42,149.0
478.48,132.0
478.55,128.0
478.61,120.0
478.67,134.0
478.74,137.0
478.8,136.0
478.86,129.0
478.93,127.0
478.99,135.0
479.05,150.0
479.11,139.0
479.18,145.0
479.24,132.0
479.3,145.0
479.37,152.0
479.43,156.0
479.49,150.0
479.56,132.0
479.62,109.0
479.68,138.0
479.74,110.0
479.81,101.0
479.87,153.0
479.93,142.0
480.0,140.0
480.06,159.0
480.12,141.0
480.19,160.0
480.25,162.0
480.31,167.0
480.37,176.0
480.44,157.0
480.5,174.0
480.56,182.0
480.63,176.0
480.69,181.0
480.75,171.0
480.82,179.0
480.88,171.0
480.94,177.0
481.0,174.0
481.07,173.0
481.13,170.0
481.19,165.0
481.26,164.0
481.32,154.0
481.38,159.0
481.45,154.0
481.51,160.0
481.57,148.0
481.63,138.0
481.7,141.0
481.76,140.0
481.82,126.0
481.89,135.0
481.95,128.0
482.01,133.0
482.08,125.0
482.14,108.0
482.2,139.0
482.26,137.0
482.33,145.0
482.39,136.0
482.45,148.0
482.52,163.0
482.58,165.0
482.64,151.0
482.71,159.0
482.77,172.0
482.83,167.0
482.89,164.0
482.96,174.0
483.02,198.0
483.08,182.0
483.15,184.0
483.21,189.0
483.27,174.0
483.34,157.0
483.4,183.0
483.46,198.0
483.52,199.0
483.59,201.0
483.65,187.0
483.71,214.0
483.78,206.0
483.84,202.0
483.9,218.0
483.97,211.0
484.03,179.0
484.09,193.0
484.15,203.0
484.22,199.0
484.28,206.0
484.34,223.0
484.41,205.0
484.47,215.0
484.53,205.0
484.6,212.0
484.66,193.0
484.72,185.0
484.78,204.0
484.85,184.0
484.91,183.0
484.97,183.0
485.04,202.0
485.1,198.0
485.16,194.0
485.23,174.0
485.29,173.0
485.35,220.0
485.41,218.0
485.48,221.0
485.54,219.0
485.6,201.0
485.67,190.0
485.73,192.0
485.79,204.0
485.86,225.0
485.92,209.0
485.98,226.0
486.04,220.0
486.11,204.0
486.17,195.0
486.23,211.0
486.3,201.0
486.36,188.0
486.42,196.0
486.49,177.0
486.55,163.0
486.61,167.0
486.67,188.0
486.74,191.0
486.8,160.0
486.86,165.0
486.93,160.0
486.99,141.0
487.05,155.0
487.12,157.0
487.18,169.0
487.24,178.0
487.3,157.0
487.37,145.0
487.43,144.0
487.49,152.0
487.56,167.0
487.62,157.0
487.68,150.0
487.75,141.0
487.81,117.0
487.87,118.0
487.93,94.0
488.0,86.0
488.06,94.0
488.12,85.0
488.19,69.0
488.25,82.0
488.31,68.0
488.38,68.0
488.44,91.0
488.5,67.0
488.56,84.0
488.63,66.0
488.69,71.0
488.75,72.0
488.82,65.0
488.88,53.0
488.94,62.0
489.01,46.0
489.07,41.0
489.13,78.0
489.19,50.0
489.26,39.0
489.32,50.0
489.38,67.0
489.45,78.0
489.51,58.0
489.57,55.0
489.64,64.0
489.7,55.0
489.76,54.0
489.82,39.0
489.89,31.0
489.95,25.0
490.01,32.0
490.08,18.0
490.14,16.0
490.2,5.0
490.27,13.0
490.33,12.0
490.39,2.0
490.45,27.0
490.52,25.0
490.58,33.0
490.64,50.0
490.71,47.0
490.77,49.0
490.83,44.0
490.9,29.0
490.96,26.0
491.02,34.0
491.08,31.0
491.15,37.0
491.21,46.0
491.27,49.0
491.34,42.0
491.4,56.0
491.46,45.0
491.53,35.0
491.59,38.0
491.65,33.0
491.71,39.0
491.78,42.0
491.84,28.0
491.9,44.0
491.97,40.0
492.03,41.0
492.09,54.0
492.16,39.0
492.22,31.0
492.28,47.0
492.34,64.0
492.41,66.0
492.47,67.0
492.53,53.0
492.6,67.0
492.66,64.0
492.72,69.0
492.79,67.0
492.85,60.0
492.91,67.0
492.97,66.0
493.04,59.0
493.1,60.0
493.16,71.0
493.23,82.0
493.29,97.0
493.35,95.0
493.42,92.0
493.48,102.0
493.54,96.0
493.6,90.0
493.67,91.0
493.73,75.0
493.79,94.0
493.86,104.0
493.92,110.0
493.98,111.0
494.05,111.0
494.11,95.0
494.17,104.0
494.23,116.0
494.3,99.0
494.36,89.0
494.42,120.0
494.49,119.0
494.55,116.0
494.61,117.0
494.68,128.0
494.74,137.0
494.8,145.0
494.86,142.0
494.93,125.0
494.99,114.0
495.05,121.0
495.12,127.0
495.18,116.0
495.24,119.0
495.31,133.0
495.37,144.0
495.43,127.0
495.49,105.0
495.56,119.0
495.62,113.0
495.68,97.0
495.75,108.0
495.81,104.0
495.87,104.0
495.94,85.0
496.0,93.0
496.06,93.0
496.12,84.0
496.19,85.0
496.25,90.0
496.31,82.0
496.38,89.0
496.44,101.0
496.5,88.0
496.57,91.0
496.63,71.0
496.69,80.0
496.75,80.0
496.82,103.0
496.88,85.0
496.94,99.0
497.01,92.0
497.07,71.0
497.13,79.0
497.2,74.0
497.26,64.0
497.32,76.0
497.38,91.0
497.45,80.0
497.51,67.0
497.57,56.0
497.64,46.0
497.7,57.0
497.76,66.0
497.83,62.0
497.89,51.0
497.95,66.0
498.01,74.0
498.08,75.0
498.14,90.0
498.2,104.0
498.27,95.0
498.33,99.0
498.39,110.0
498.46,96.0
498.52,98.0
498.58,79.0
498.64,74.0
498.71,73.0
498.77,89.0
498.83,112.0
498.9,113.0
498.96,115.0
499.02,100.0
499.09,123.0
499.15,108.0
499.21,110.0
499.27,108.0
499.34,111.0
499.4,99.0
499.46,94.0
499.53,119.0
499.59,115.0
499.65,111.0
499.72,115.0
499.78,109.0
499.84,107.0
499.9,125.0
499.97,112.0
500.03,127.0
500.09,135.0
500.16,143.0
500.22,147.0
500.28,141.0
500.35,151.0
500.41,151.0
500.47,135.0
500.53,141.0
500.6,123.0
500.66,118.0
500.72,149.0
500.79,157.0
500.85,150.0
500.91,139.0
500.98,147.0
501.04,151.0
501.1,148.0
501.16,161.0
501.23,150.0
501.29,166.0
501.35,165.0
501.42,167.0
501.48,175.0
501.54,179.0
501.61,179.0
501.67,152.0
501.73,161.0
501.79,163.0
501.86,183.0
501.92,183.0
501.98,173.0
502.05,166.0
502.11,169.0
502.17,188.0
502.24,191.0
502.3,189.0
502.36,192.0
502.42,183.0
502.49,185.0
502.55,191.0
502.61,198.0
502.68,193.0
502.74,197.0
502.8,183.0
502.87,179.0
502.93,174.0
502.99,205.0
503.05,222.0
503.12,205.0
503.18,184.0
503.24,172.0
503.31,204.0
503.37,207.0
503.43,188.0
503.5,211.0
503.56,220.0
503.62,206.0
503.68,190.0
503.75,181.0
503.81,161.0
503.87,165.0
503.94,158.0
504.0,151.0
504.06,156.0
504.13,167.0
504.19,163.0
504.25,161.0
504.31,149.0
504.38,141.0
504.44,154.0
504.5,144.0
504.57,137.0
504.63,134.0
504.69,142.0
504.76,151.0
504.82,123.0
504.88,130.0
504.94,133.0
505.01,121.0
505.07,127.0
505.13,126.0
505.2,119.0
505.26,116.0
505.32,112.0
505.39,99.0
505.45,126.0
505.51,132.0
505.57,122.0
505.64,114.0
505.7,96.0
505.76,113.0
505.83,108.0
505.89,119.0
505.95,102.0
506.02,83.0
506.08,96.0
506.14,82.0
506.2,75.0
506.27,82.0
506.33,75.0
506.39,83.0
506.46,78.0
506.52,77.0
506.58,77.0
506.65,70.0
506.71,49.0
506.77,72.0
506.83,85.0
506.9,76.0
506.96,59.0
507.02,66.0
507.09,80.0
507.15,76.0
507.21,71.0
507.28,60.0
507.34,78.0
507.4,75.0
507.46,55.0
507.53,59.0
507.59,67.0
507.65,58.0
507.72,71.0
507.78,47.0
507.84,43.0
507.91,50.0
507.97,53.0
508.03,60.0
508.09,68.0
508.16,70.0
508.22,53.0
508.28,70.0
508.35,65.0
508.41,56.0
508.47,58.0
508.54,74.0
508.6,71.0
508.66,74.0
508.72,66.0
508.79,67.0
508.85,77.0
508.91,71.0
508.98,91.0
509.04,97.0
509.1,96.0
509.17,79.0
509.23,89.0
509.29,87.0
509.35,72.0
509.42,78.0
509.48,78.0
509.54,64.0
509.61,103.0
509.67,112.0
509.73,113.0
509.8,115.0
509.86,115.0
509.92,130.0
509.98,129.0
510.05,125.0
510.11,111.0
510.17,141.0
510.24,135.0
510.3,122.0
510.36,131.0
510.43,144.0
510.49,127.0
510.55,116.0
510.61,140.0
510.68,123.0
510.74,118.0
510.8,125.0
510.87,123.0
510.93,124.0
510.99,108.0
511.06,122.0
511.12,131.0
511.18,133.0
511.24,141.0
511.31,133.0
511.37,138.0
511.43,156.0
511.5,149.0
511.56,152.0
511.62,152.0
511.69,140.0
511.75,151.0
511.81,148.0
511.87,139.0
511.94,145.0
512.0,150.0
512.06,159.0
512.13,135.0
512.19,135.0
512.25,147.0
512.32,139.0
512.38,136.0
512.44,135.0
512.5,143.0
512.57,149.0
512.63,148.0
512.69,129.0
512.76,128.0
512.82,129.0
512.88,139.0
512.95,128.0
513.01,149.0
513.07,144.0
513.13,148.0
513.2,154.0
513.26,156.0
513.32,138.0
513.39,154.0
513.45,165.0
513.51,144.0
513.58,146.0
513.64,153.0
513.7,168.0
513.76,148.0
513.83,163.0
513.89,139.0
513.95,152.0
514.02,154.0
514.08,167.0
514.14,148.0
514.21,166.0
514.27,179.0
514.33,157.0
514.39,160.0
514.46,161.0
514.52,153.0
514.58,125.0
514.65,136.0
514.71,119.0
514.77,125.0
514.84,127.0
514.9,126.0
514.96,113.0
515.02,115.0
515.09,125.0
515.15,140.0
515.21,138.0
515.28,150.0
515.34,132.0
515.4,126.0
515.47,156.0
515.53,147.0
515.59,138.0
515.65,155.0
515.72,157.0
515.78,151.0
515.84,186.0
515.91,175.0
515.97,180.0
516.03,181.0
516.1,198.0
516.16,185.0
516.22,200.0
516.28,212.0
516.35,217.0
516.41,218.0
516.47,196.0
516.54,225.0
516.6,220.0
516.66,207.0
516.73,192.0
516.79,212.0
516.85,209.0
516.91,207.0
516.98,218.0
517.04,232.0
517.1,235.0
517.17,216.0
517.23,211.0
517.29,233.0
517.36,222.0
517.42,226.0
517.48,225.0
517.54,222.0
517.61,200.0
517.67,225.0
517.73,230.0
517.8,219.0
517.86,205.0
517.92,201.0
517.99,209.0
518.05,185.0
518.11,201.0
518.17,204.0
518.24,202.0
518.3,191.0
518.36,181.0
518.43,174.0
518.49,188.0
518.55,194.0
518.62,197.0
518.68,198.0
518.74,195.0
518.8,206.0
518.87,215.0
518.93,203.0
518.99,177.0
519.06,198.0
519.12,189.0
519.18,197.0
519.25,187.0
519.31,192.0
519.37,184.0
519.43,163.0
519.5,170.0
519.56,162.0
519.62,157.0
519.69,143.0
519.75,152.0
519.81,144.0
519.88,152.0
519.94,159.0
520.0,160.0
520.06,152.0
520.13,151.0
520.19,149.0
520.25,166.0
520.32,170.0
520.38,164.0
520.44,173.0
520.51,193.0
520.57,180.0
520.63,155.0
520.69,164.0
520.76,162.0
520.82,162.0
520.88,158.0
520.95,131.0
521.01,135.0
521.07,148.0
521.14,162.0
521.2,167.0
521.26,145.0
521.32,147.0
521.39,154.0
521.45,155.0
521.51,145.0
521.58,154.0
521.64,132.0
521.7,115.0
521.77,126.0
521.83,123.0
521.89,108.0
521.95,104.0
522.02,102.0
522.08,88.0
522.14,85.0
522.21,76.0
522.27,86.0
522.33,92.0
522.4,80.0
522.46,74.0
522.52,80.0
522.58,59.0
522.65,52.0
522.71,53.0
522.77,46.0
522.84,56.0
522.9,58.0
522.96,40.0
523.03,48.0
523.09,23.0
523.15,17.0
523.21,9.0
523.28,7.0
523.34,2.0
523.4,4.0
523.47,25.0
523.53,1.0
523.59,-1.0
523.66,8.0
523.72,0.0
523.78,3.0
523.84,9.0
523.91,-3.0
523.97,6.0
524.03,2.0
524.1,-4.0
524.16,-21.0
524.22,2.0
524.29,32.0
524.35,14.0
524.41,7.0
524.47,-22.0
524.54,-3.0
524.6,-28.0
524.66,-12.0
524.73,-4.0
524.79,-15.0
524.85,-9.0
524.92,13.0
524.98,19.0
525.04,0.0
525.1,-9.0
525.17,-7.0
525.23,-19.0
525.29,9.0
525.36,4.0
525.42,17.0
525.48,32.0
525.55,31.0
525.61,7.0
525.67,4.0
525.73,-10.0
525.8,-5.0
525.86,-10.0
525.92,-32.0
525.99,-7.0
526.05,-11.0
526.11,-8.0
526.18,-5.0
526.24,19.0
526.3,2.0
526.36,12.0
526.43,13.0
526.49,-10.0
526.55,12.0
526.62,37.0
526.68,41.0
526.74,17.0
526.81,12.0
526.87,6.0
526.93,13.0
526.99,17.0
527.06,30.0
527.12,23.0
527.18,39.0
527.25,50.0
527.31,60.0
527.37,65.0
527.44,66.0
527.5,52.0
527.56,59.0
527.62,62.0
527.69,59.0
527.75,60.0
527.81,65.0
527.88,83.0
527.94,88.0
528.0,66.0
528.07,58.0
528.13,84.0
528.19,60.0
528.25,66.0
528.32,56.0
528.38,73.0
528.44,89.0
528.51,92.0
528.57,94.0
528.63,111.0
528.7,115.0
528.76,93.0
528.82,102.0
528.88,98.0
528.95,89.0
529.01,92.0
529.07,125.0
529.14,125.0
529.2,100.0
529.26,123.0
529.33,118.0
529.39,96.0
529.45,104.0
529.51,113.0
529.58,113.0
529.64,105.0
529.7,91.0
529.77,102.0
529.83,101.0
529.89,90.0
529.96,109.0
530.02,109.0
530.08,103.0
530.14,115.0
530.21,105.0
530.27,104.0
530.33,106.0
530.4,118.0
530.46,116.0
530.52,129.0
530.59,140.0
530.65,137.0
530.71,121.0
530.77,133.0
530.84,127.0
530.9,130.0
530.96,108.0
531.03,122.0
531.09,137.0
531.15,135.0
531.22,127.0
531.28,116.0
531.34,140.0
531.4,157.0
531.47,146.0
531.53,138.0
531.59,160.0
531.66,138.0
531.72,115.0
531.78,129.0
531.85,138.0
531.91,138.0
531.97,158.0
532.03,154.0
532.1,136.0
532.16,147.0
532.22,147.0
532.29,148.0
532.35,155.0
532.41,127.0
532.48,139.0
532.54,144.0
532.6,145.0
532.66,138.0
532.73,144.0
532.79,148.0
532.85,155.0
532.92,153.0
532.98,148.0
533.04,159.0
533.11,162.0
533.17,180.0
533.23,166.0
533.29,165.0
533.36,176.0
533.42,155.0
533.48,173.0
533.55,178.0
533.61,180.0
533.67,166.0
533.74,164.0
533.8,162.0
533.86,170.0
533.92,163.0
533.99,158.0
534.05,141.0
534.11,159.0
534.18,167.0
534.24,188.0
534.3,185.0
534.37,184.0
534.43,177.0
534.49,151.0
534.55,173.0
534.62,198.0
534.68,177.0
534.74,180.0
534.81,162.0
534.87,168.0
534.93,160.0
535.0,140.0
535.06,166.0
535.12,158.0
535.18,170.0
535.25,157.0
535.31,160.0
535.37,158.0
535.44,166.0
535.5,163.0
535.56,182.0
535.63,176.0
535.69,164.0
535.75,170.0
535.81,180.0
535.88,216.0
535.94,182.0
536.0,203.0
536.07,196.0
536.13,187.0
536.19,206.0
536.26,213.0
536.32,205.0
536.38,198.0
536.44,198.0
536.51,179.0
536.57,201.0
536.63,207.0
536.7,199.0
536.76,209.0
536.82,201.0
536.89,190.0
536.95,188.0
537.01,190.0
537.07,184.0
537.14,159.0
537.2,167.0
537.26,156.0
537.33,152.0
537.39,149.0
537.45,162.0
537.52,152.0
537.58,151.0
537.64,163.0
537.7,142.0
537.77,142.0
537.83,152.0
537.89,147.0
537.96,154.0
538.02,151.0
538.08,146.0
538.15,136.0
538.21,130.0
538.27,140.0
538.33,133.0
538.4,129.0
538.46,108.0
538.52,118.0
538.59,132.0
538.65,124.0
538.71,133.0
538.78,140.0
538.84,128.0
538.9,132.0
538.96,137.0
539.03,139.0
539.09,116.0
539.15,105.0
539.22,113.0
539.28,116.0
539.34,125.0
539.41,107.0
539.47,105.0
539.53,104.0
539.59,107.0
539.66,118.0
539.72,91.0
539.78,95.0
539.85,86.0
539.91,69.0
539.97,87.0
540.04,68.0
540.1,67.0
540.16,77.0
540.22,66.0
540.29,56.0
540.35,48.0
540.41,49.0
540.48,51.0
540.54,34.0
540.6,46.0
540.67,30.0
540.73,34.0
540.79,26.0
540.85,32.0
540.92,29.0
540.98,14.0
541.04,11.0
541.11,20.0
541.17,36.0
541.23,41.0
541.3,26.0
541.36,29.0
541.42,6.0
541.48,8.0
541.55,8.0
541.61,11.0
541.67,3.0
541.74,21.0
541.8,15.0
541.86,3.0
541.93,10.0
541.99,9.0
542.05,34.0
542.11,15.0
542.18,22.0
542.24,36.0
542.3,28.0
542.37,38.0
542.43,35.0
542.49,46.0
542.56,31.0
542.62,58.0
542.68,33.0
542.74,53.0
542.81,44.0
542.87,36.0
542.93,49.0
543.0,53.0
543.06,59.0
543.12,63.0
543.19,63.0
543.25,64.0
543.31,83.0
543.37,74.0
543.44,67.0
543.5,63.0
543.56,77.0
543.63,71.0
543.69,70.0
543.75,93.0
543.82,73.0
543.88,84.0
543.94,103.0
544.0,93.0
544.07,100.0
544.13,95.0
544.19,102.0
544.26,118.0
544.32,115.0
544.38,107.0
544.45,101.0
544.51,101.0
544.57,93.0
544.63,112.0
544.7,108.0
544.76,103.0
544.82,118.0
544.89,96.0
544.95,102.0
545.01,96.0
545.08,99.0
545.14,88.0
545.2,97.0
545.26,98.0
545.33,121.0
545.39,106.0
545.45,97.0
545.52,86.0
545.58,85.0
545.64,95.0
545.71,86.0
545.77,71.0
545.83,65.0
545.89,96.0
545.96,72.0
546.02,80.0
546.08,89.0
546.15,89.0
546.21,76.0
546.27,78.0
546.34,85.0
546.4,74.0
546.46,75.0
546.52,66.0
546.59,82.0
546.65,79.0
546.71,72.0
546.78,80.0
546.84,68.0
546.9,76.0
546.97,64.0
547.03,62.0
547.09,59.0
547.15,61.0
547.22,66.0
547.28,89.0
547.34,68.0
547.41,55.0
547.47,66.0
547.53,78.0
547.6,70.0
547.66,68.0
547.72,61.0
547.78,74.0
547.85,65.0
547.91,82.0
547.97,88.0
548.04,93.0
548.1,94.0
548.16,83.0
548.23,89.0
548.29,80.0
548.35,75.0
548.41,88.0
548.48,91.0
548.54,93.0
548.6,85.0
548.67,67.0
548.73,77.0
548.79,77.0
548.86,66.0
548.92,74.0
548.98,75.0
549.04,70.0
549.11,82.0
549.17,76.0
549.23,83.0
549.3,60.0
549.36,74.0
549.42,70.0
549.49,58.0
549.55,67.0
549.61,73.0
549.67,88.0
549.74,80.0
549.8,92.0
549.86,100.0
549.93,104.0
549.99,98.0
550.05,88.0
550.12,120.0
550.18,108.0
550.24,128.0
550.3,113.0
550.37,95.0
550.43,93.0
550.49,98.0
550.56,104.0
550.62,78.0
550.68,90.0
550.75,92.0
550.81,67.0
550.87,75.0
550.93,64.0
551.0,65.0
551.06,78.0
551.12,61.0
551.19,79.0
551.25,86.0
551.31,97.0
551.38,78.0
551.44,73.0
551.5,91.0
551.56,86.0
551.63,100.0
551.69,95.0
551.75,102.0
551.82,103.0
551.88,83.0
551.94,86.0
552.01,78.0
552.07,69.0
552.13,81.0
552.19,81.0
552.26,92.0
552.32,92.0
552.38,85.0
552.45,92.0
552.51,114.0
552.57,113.0
552.64,124.0
552.7,114.0
552.76,105.0
552.82,109.0
552.89,104.0
552.95,105.0
553.01,113.0
553.08,110.0
553.14,111.0
553.2,97.0
553.27,77.0
553.33,103.0
553.39,102.0
553.45,122.0
553.52,125.0
553.58,131.0
553.64,122.0
553.71,122.0
553.77,122.0
553.83,137.0
553.9,144.0
553.96,138.0
554.02,127.0
554.08,128.0
554.15,134.0
554.21,130.0
554.27,140.0
554.34,125.0
554.4,114.0
554.46,119.0
554.53,138.0
554.59,126.0
554.65,112.0
554.71,116.0
554.78,96.0
554.84,96.0
554.9,107.0
554.97,92.0
555.03,103.0
555.09,107.0
555.16,100.0
555.22,104.0
555.28,111.0
555.34,97.0
555.41,91.0
555.47,97.0
555.53,106.0
555.6,75.0
555.66,80.0
555.72,82.0
555.79,94.0
555.85,63.0
555.91,65.0
555.97,75.0
556.04,70.0
556.1,75.0
556.16,70.0
556.23,64.0
556.29,59.0
556.35,51.0
556.42,64.0
556.48,42.0
556.54,58.0
556.6,48.0
556.67,41.0
556.73,49.0
556.79,67.0
556.86,56.0
556.92,56.0
556.98,67.0
557.05,56.0
557.11,56.0
557.17,58.0
557.23,59.0
557.3,44.0
557.36,38.0
557.42,23.0
557.49,48.0
557.55,39.0
557.61,48.0
557.68,57.0
557.74,41.0
557.8,47.0
557.86,57.0
557.93,55.0
557.99,52.0
558.05,53.0
558.12,47.0
558.18,54.0
558.24,38.0
558.31,61.0
558.37,69.0
558.43,67.0
558.49,56.0
558.56,69.0
558.62,52.0
558.68,74.0
558.75,86.0
558.81,62.0
558.87,93.0
558.94,78.0
559.0,79.0
559.06,93.0
559.12,81.0
559.19,93.0
559.25,89.0
559.31,84.0
559.38,73.0
559.44,75.0
559.5,77.0
559.57,84.0
559.63,85.0
559.69,78.0
559.75,90.0
559.82,84.0
559.88,102.0
559.94,99.0
560.01,94.0
560.07,107.0
560.13,99.0
560.2,125.0
560.26,129.0
560.32,130.0
560.38,125.0
560.45,122.0
560.51,170.0
560.57,150.0
560.64,162.0
560.7,148.0
560.76,158.0
560.83,150.0
560.89,133.0
560.95,147.0
561.01,144.0
561.08,142.0
561.14,149.0
561.2,159.0
561.27,163.0
561.33,162.0
561.39,159.0
561.46,142.0
561.52,160.0
561.58,177.0
561.64,181.0
561.71,193.0
561.77,181.0
561.83,165.0
561.9,181.0
561.96,194.0
562.02,189.0
562.09,183.0
562.15,204.0
562.21,209.0
562.27,197.0
562.34,209.0
562.4,223.0
562.46,204.0
562.53,209.0
562.59,193.0
562.65,183.0
562.72,189.0
562.78,198.0
562.84,210.0
562.9,220.0
562.97,227.0
563.03,221.0
563.09,216.0
563.16,215.0
563.22,210.0
563.28,208.0
563.35,234.0
563.41,204.0
563.47,209.0
563.53,203.0
563.6,215.0
563.66,233.0
563.72,228.0
563.79,214.0
563.85,207.0
563.91,191.0
563.98,185.0
564.04,188.0
564.1,191.0
564.16,198.0
564.23,195.0
564.29,182.0
564.35,195.0
564.42,204.0
564.48,224.0
564.54,207.0
564.61,220.0
564.67,211.0
564.73,198.0
564.79,221.0
564.86,214.0
564.92,234.0
564.98,223.0
565.05,233.0
565.11,229.0
565.17,229.0
565.24,235.0
565.3,212.0
565.36,232.0
565.42,232.0
565.49,242.0
565.55,242.0
565.61,236.0
565.68,254.0
565.74,267.0
565.8,258.0
565.87,272.0
565.93,266.0
565.99,265.0
566.05,262.0
566.12,246.0
566.18,239.0
566.24,250.0
566.31,253.0
566.37,243.0
566.43,262.0
566.5,254.0
566.56,264.0
566.62,247.0
566.68,257.0
566.75,251.0
566.81,259.0
566.87,263.0
566.94,265.0
567.0,259.0
567.06,269.0
567.13,266.0
567.19,255.0
567.25,243.0
567.31,250.0
567.38,255.0
567.44,262.0
567.5,267.0
567.57,272.0
567.63,283.0
567.69,276.0
567.76,269.0
567.82,283.0
567.88,295.0
567.94,292.0
568.01,269.0
568.07,271.0
568.13,287.0
568.2,265.0
568.26,276.0
568.32,270.0
568.39,269.0
568.45,279.0
568.51,280.0
568.57,273.0
568.64,277.0
568.7,255.0
568.76,259.0
568.83,246.0
568.89,241.0
568.95,257.0
569.02,269.0
569.08,257.0
569.14,247.0
569.2,249.0
569.27,244.0
569.33,237.0
569.39,256.0
569.46,239.0
569.52,228.0
569.58,250.0
569.65,236.0
569.71,234.0
569.77,218.0
569.83,227.0
569.9,230.0
569.96,218.0
570.02,210.0
570.09,199.0
570.15,209.0
570.21,178.0
570.28,199.0
570.34,210.0
570.4,211.0
570.46,209.0
570.53,188.0
570.59,176.0
570.65,160.0
570.72,173.0
570.78,174.0
570.84,176.0
570.91,199.0
570.97,176.0
571.03,163.0
571.09,192.0
571.16,163.0
571.22,180.0
571.28,176.0
571.35,165.0
571.41,190.0
571.47,201.0
571.54,182.0
571.6,175.0
571.66,170.0
571.72,168.0
571.79,165.0
571.85,171.0
571.91,159.0
571.98,173.0
572.04,179.0
572.1,175.0
572.17,174.0
572.23,151.0
572.29,154.0
572.35,129.0
572.42,131.0
572.48,121.0
572.54,111.0
572.61,114.0
572.67,110.0
572.73,107.0
572.8,102.0
572.86,113.0
572.92,111.0
572.98,105.0
573.05,105.0
573.11,84.0
573.17,74.0
573.24,49.0
573.3,54.0
573.36,53.0
573.43,45.0
573.49,47.0
573.55,31.0
573.61,28.0
573.68,-2.0
573.74,4.0
573.8,21.0
573.87,12.0
573.93,-5.0
573.99,-2.0
574.06,10.0
574.12,16.0
574.18,3.0
574.24,21.0
574.31,14.0
574.37,15.0
574.43,14.0
574.5,14.0
574.56,10.0
574.62,20.0
574.69,11.0
574.75,-2.0
574.81,10.0
574.87,24.0
574.94,9.0
575.0,-4.0
575.06,1.0
575.13,7.0
575.19,3.0
575.25,-6.0
575.32,-11.0
575.38,-2.0
575.44,6.0
575.5,5.0
575.57,-21.0
575.63,6.0
575.69,1.0
575.76,-9.0
575.82,-7.0
575.88,-6.0
575.95,-7.0
576.01,-4.0
576.07,7.0
576.13,-2.0
576.2,-23.0
576.26,-13.0
576.32,8.0
576.39,20.0
576.45,24.0
576.51,24.0
576.58,60.0
576.64,50.0
576.7,43.0
576.76,41.0
576.83,23.0
576.89,20.0
576.95,37.0
577.02,35.0
577.08,51.0
577.14,45.0
577.21,30.0
577.27,35.0
577.33,74.0
577.39,33.0
577.46,46.0
577.52,55.0
577.58,55.0
577.65,45.0
577.71,55.0
577.77,70.0
577.84,82.0
577.9,67.0
577.96,58.0
578.02,46.0
578.09,68.0
578.15,78.0
578.21,66.0
578.28,67.0
578.34,78.0
578.4,77.0
578.47,76.0
578.53,77.0
578.59,55.0
578.65,87.0
578.72,105.0
578.78,92.0
578.84,90.0
578.91,85.0
578.97,89.0
579.03,96.0
579.1,96.0
579.16,101.0
579.22,93.0
579.28,110.0
579.35,105.0
579.41,93.0
579.47,122.0
579.54,106.0
579.6,121.0
579.66,99.0
579.73,91.0
579.79,120.0
579.85,108.0
579.91,120.0
579.98,103.0
580.04,107.0
580.1,116.0
580.17,78.0
580.23,88.0
580.29,118.0
580.36,126.0
580.42,109.0
580.48,111.0
580.54,128.0
580.61,120.0
580.67,114.0
580.73,121.0
580.8,100.0
580.86,110.0
580.92,103.0
580.99,102.0
581.05,102.0
581.11,113.0
581.17,110.0
581.24,111.0
581.3,117.0
581.36,104.0
581.43,136.0
581.49,103.0
581.55,107.0
581.62,112.0
581.68,104.0
581.74,98.0
581.8,115.0
581.87,96.0
581.93,100.0
581.99,99.0
582.06,119.0
582.12,136.0
582.18,124.0
582.25,133.0
582.31,120.0
582.37,119.0
582.43,138.0
582.5,133.0
582.56,125.0
582.62,128.0
582.69,121.0
582.75,129.0
582.81,111.0
582.88,106.0
582.94,111.0
583.0,128.0
583.06,109.0
583.13,126.0
583.19,143.0
583.25,156.0
583.32,146.0
583.38,163.0
583.44,152.0
583.51,173.0
583.57,151.0
583.63,155.0
583.69,165.0
583.76,157.0
583.82,163.0
583.88,154.0
583.95,180.0
584.01,178.0
584.07,186.0
584.14,194.0
584.2,189.0
584.26,219.0
584.32,201.0
584.39,186.0
584.45,203.0
584.51,187.0
584.58,197.0
584.64,195.0
584.7,202.0
584.77,188.0
584.83,184.0
584.89,188.0
584.95,177.0
585.02,192.0
585.08,183.0
585.14,173.0
585.21,168.0
585.27,163.0
585.33,183.0
585.4,168.0
585.46,189.0
585.52,172.0
585.58,178.0
585.65,184.0
585.71,187.0
585.77,172.0
585.84,176.0
585.9,184.0
585.96,181.0
586.03,199.0
586.09,200.0
586.15,217.0
586.21,226.0
586.28,222.0
586.34,206.0
586.4,220.0
586.47,195.0
586.53,214.0
586.59,206.0
586.66,212.0
586.72,191.0
586.78,186.0
586.84,190.0
586.91,202.0
586.97,204.0
587.03,197.0
587.1,197.0
587.16,211.0
587.22,214.0
587.29,211.0
587.35,173.0
587.41,198.0
587.47,202.0
587.54,225.0
587.6,237.0
587.66,224.0
587.73,216.0
587.79,220.0
587.85,209.0
587.92,208.0
587.98,234.0
588.04,227.0
588.1,207.0
588.17,228.0
588.23,249.0
588.29,245.0
588.36,223.0
588.42,224.0
588.48,219.0
588.55,230.0
588.61,212.0
588.67,205.0
588.73,213.0
588.8,191.0
588.86,209.0
588.92,198.0
588.99,200.0
589.05,194.0
589.11,214.0
589.18,190.0
589.24,161.0
589.3,177.0
589.36,164.0
589.43,147.0
589.49,166.0
589.55,150.0
589.62,180.0
589.68,134.0
589.74,153.0
589.81,152.0
589.87,139.0
589.93,158.0
589.99,133.0
590.06,128.0
590.12,99.0
590.18,96.0
590.25,100.0
590.31,96.0
590.37,106.0
590.44,98.0
590.5,127.0
590.56,103.0
590.62,101.0
590.69,132.0
590.75,103.0
590.81,112.0
590.88,103.0
590.94,94.0
591.0,93.0
591.07,108.0
591.13,113.0
591.19,92.0
591.25,112.0
591.32,83.0
591.38,91.0
591.44,94.0
591.51,65.0
591.57,106.0
591.63,68.0
591.7,78.0
591.76,97.0
591.82,92.0
591.88,82.0
591.95,83.0
592.01,81.0
592.07,72.0
592.14,66.0
592.2,95.0
592.26,76.0
592.33,81.0
592.39,116.0
592.45,41.0
592.51,59.0
592.58,79.0
592.64,59.0
592.7,51.0
592.77,8.0
592.83,67.0
592.89,38.0
592.96,79.0
593.02,92.0
593.08,99.0
593.14,98.0
593.21,92.0
593.27,125.0
593.33,94.0
593.4,94.0
593.46,126.0
593.52,59.0
593.59,106.0
593.65,85.0
593.71,111.0
593.77,137.0
593.84,114.0
593.9,175.0
593.96,142.0
594.03,122.0
594.09,173.0
594.15,169.0
594.22,198.0
594.28,208.0
594.34,227.0
594.4,216.0
594.47,192.0
594.53,192.0
594.59,178.0
594.66,202.0
594.72,204.0
594.78,225.0
594.85,213.0
594.91,201.0
594.97,199.0
595.03,207.0
595.1,178.0
595.16,169.0
595.22,180.0
595.29,168.0
595.35,187.0
595.41,157.0
595.48,181.0
595.54,176.0
595.6,178.0
595.66,172.0
595.73,169.0
595.79,136.0
595.85,128.0
595.92,139.0
595.98,144.0
596.04,154.0
596.11,155.0
596.17,141.0
596.23,123.0
596.29,124.0
596.36,109.0
596.42,113.0
596.48,82.0
596.55,117.0
596.61,119.0
596.67,110.0
596.74,107.0
596.8,96.0
596.86,92.0
596.92,103.0
596.99,103.0
597.05,124.0
597.11,92.0
597.18,88.0
597.24,96.0
597.3,24.0
597.37,41.0
597.43,27.0
597.49,49.0
597.55,31.0
597.62,29.0
597.68,69.0
597.74,59.0
597.81,67.0
597.87,63.0
597.93,102.0
598.0,90.0
598.06,130.0
598.12,110.0
598.18,120.0
598.25,114.0
598.31,100.0
598.37,115.0
598.44,123.0
598.5,94.0
598.56,94.0
598.63,70.0
598.69,82.0
598.75,58.0
598.81,82.0
598.88,49.0
598.94,49.0
599.0,38.0
599.07,32.0
599.13,48.0
599.19,5.0
599.26,37.0
599.32,38.0
599.38,19.0
599.44,24.0
599.51,22.0
599.57,32.0
599.63,4.0
599.7,4.0
599.76,19.0
599.82,5.0
599.89,59.0
599.95,45.0
600.01,68.0
600.07,93.0
600.14,75.0
600.2,84.0
600.26,77.0
600.33,82.0
600.39,87.0
600.45,54.0
600.52,73.0
600.58,77.0
600.64,77.0
600.7,80.0
600.77,73.0
600.83,48.0
600.89,66.0
600.96,81.0
601.02,73.0
601.08,62.0
601.15,101.0
601.21,18.0
601.27,78.0
601.33,17.0
601.4,48.0
601.46,97.0
601.52,90.0
601.59,137.0
601.65,152.0
601.71,140.0
601.78,143.0
601.84,188.0
601.9,153.0
601.96,170.0
602.03,126.0
602.09,142.0
602.15,125.0
602.22,101.0
602.28,112.0
602.34,85.0
602.41,124.0
602.47,74.0
602.53,109.0
602.59,100.0
602.66,68.0
602.72,93.0
602.78,68.0
602.85,82.0
602.91,63.0
602.97,26.0
603.04,46.0
603.1,37.0
603.16,28.0
603.22,51.0
603.29,94.0
603.35,113.0
603.41,147.0
603.48,163.0
603.54,121.0
603.6,148.0
603.67,98.0
603.73,140.0
603.79,134.0
603.85,191.0
603.92,206.0
603.98,185.0
604.04,188.0
604.11,129.0
604.17,139.0
604.23,158.0
604.3,176.0
604.36,197.0
604.42,164.0
604.48,209.0
604.55,203.0
604.61,154.0
604.67,175.0
604.74,160.0
604.8,161.0
604.86,172.0
604.93,156.0
604.99,162.0
605.05,71.0
605.11,74.0
605.18,43.0
605.24,44.0
605.3,63.0
605.37,49.0
605.43,69.0
605.49,64.0
605.56,63.0
605.62,56.0
605.68,35.0
605.74,64.0
605.81,27.0
605.87,55.0
605.93,48.0
606.0,66.0
606.06,68.0
606.12,38.0
606.19,74.0
606.25,27.0
606.31,49.0
606.37,48.0
606.44,19.0
606.5,38.0
606.56,47.0
606.63,64.0
606.69,68.0
606.75,35.0
606.82,89.0
606.88,88.0
606.94,118.0
607.0,106.0
607.07,125.0
607.13,93.0
607.19,80.0
607.26,88.0
607.32,58.0
607.38,67.0
607.45,59.0
607.51,55.0
607.57,59.0
607.63,40.0
607.7,39.0
607.76,7.0
607.82,-9.0
607.89,-34.0
607.95,-4.0
608.01,18.0
608.08,20.0
608.14,21.0
608.2,13.0
608.26,9.0
608.33,-5.0
608.39,-11.0
608.45,-35.0
608.52,-51.0
608.58,-70.0
608.64,-23.0
608.71,-26.0
608.77,-4.0
608.83,29.0
608.89,53.0
608.96,55.0
609.02,71.0
609.08,73.0
609.15,64.0
609.21,84.0
609.27,110.0
609.34,98.0
609.4,111.0
609.46,110.0
609.52,104.0
609.59,85.0
609.65,52.0
609.71,71.0
609.78,59.0
609.84,61.0
609.9,81.0
609.97,55.0
610.03,79.0
610.09,78.0
610.15,79.0
610.22,59.0
610.28,48.0
610.34,58.0
610.41,30.0
610.47,59.0
610.53,37.0
610.6,55.0
610.66,69.0
610.72,36.0
610.78,59.0
610.85,24.0
610.91,14.0
610.97,36.0
611.04,30.0
611.1,56.0
611.16,70.0
611.23,69.0
611.29,67.0
611.35,78.0
611.41,78.0
611.48,86.0
611.54,73.0
611.6,119.0
611.67,133.0
611.73,134.0
611.79,126.0
611.86,123.0
611.92,114.0
611.98,116.0
612.04,93.0
612.11,91.0
612.17,107.0
612.23,101.0
612.3,147.0
612.36,138.0
612.42,118.0
612.49,116.0
612.55,90.0
612.61,69.0
612.67,98.0
612.74,85.0
612.8,103.0
612.86,60.0
612.93,88.0
612.99,92.0
613.05,98.0
613.12,98.0
613.18,99.0
613.24,122.0
613.3,127.0
613.37,118.0
613.43,94.0
613.49,136.0
613.56,129.0
613.62,148.0
613.68,180.0
613.75,179.0
613.81,155.0
613.87,157.0
613.93,142.0
614.0,165.0
614.06,177.0
614.12,200.0
614.19,206.0
614.25,212.0
614.31,222.0
614.38,195.0
614.44,186.0
614.5,176.0
614.56,151.0
614.63,126.0
614.69,123.0
614.75,115.0
614.82,132.0
614.88,149.0
614.94,160.0
615.01,163.0
615.07,135.0
615.13,142.0
615.19,114.0
615.26,141.0
615.32,112.0
615.38,127.0
615.45,123.0
615.51,144.0
615.57,110.0
615.64,89.0
615.7,109.0
615.76,101.0
615.82,91.0
615.89,91.0
615.95,92.0
616.01,112.0
616.08,110.0
616.14,110.0
616.2,165.0
616.27,176.0
616.33,194.0
616.39,190.0
616.45,213.0
616.52,211.0
616.58,217.0
616.64,227.0
616.71,237.0
616.77,254.0
616.83,241.0
616.9,258.0
616.96,244.0
617.02,234.0
617.08,243.0
617.15,221.0
617.21,236.0
617.27,214.0
617.34,221.0
617.4,233.0
617.46,216.0
617.53,203.0
617.59,191.0
617.65,213.0
617.71,250.0
617.78,233.0
617.84,230.0
617.9,203.0
617.97,206.0
618.03,196.0
618.09,197.0
618.16,214.0
618.22,195.0
618.28,202.0
618.34,177.0
618.41,199.0
618.47,159.0
618.53,184.0
618.6,185.0
618.66,191.0
618.72,203.0
618.79,182.0
618.85,199.0
618.91,173.0
618.97,193.0
619.04,167.0
619.1,186.0
619.16,176.0
619.23,175.0
619.29,190.0
619.35,196.0
619.42,209.0
619.48,199.0
619.54,162.0
619.6,170.0
619.67,201.0
619.73,201.0
619.79,235.0
619.86,225.0
619.92,250.0
619.98,233.0
620.05,233.0
620.11,237.0
620.17,252.0
620.23,246.0
620.3,224.0
620.36,239.0
620.42,240.0
620.49,222.0
620.55,237.0
620.61,235.0
620.68,237.0
620.74,231.0
620.8,225.0
620.86,232.0
620.93,236.0
620.99,247.0
621.05,283.0
621.12,264.0
621.18,279.0
621.24,251.0
621.31,243.0
621.37,268.0
621.43,229.0
621.49,234.0
621.56,233.0
621.62,252.0
621.68,233.0
621.75,210.0
621.81,215.0
621.87,184.0
621.94,213.0
622.0,213.0
622.06,232.0
622.12,236.0
622.19,227.0
622.25,247.0
622.31,217.0
622.38,236.0
622.44,216.0
622.5,158.0
622.57,161.0
622.63,138.0
622.69,127.0
622.75,186.0
622.82,166.0
622.88,167.0
622.94,191.0
623.01,146.0
623.07,150.0
623.13,116.0
623.2,138.0
623.26,144.0
623.32,127.0
623.38,170.0
623.45,151.0
623.51,142.0
623.57,129.0
623.64,104.0
623.7,107.0
623.76,122.0
623.83,103.0
623.89,123.0
623.95,119.0
624.01,127.0
624.08,114.0
624.14,111.0
624.2,125.0
624.27,133.0
624.33,140.0
624.39,126.0
624.46,139.0
624.52,140.0
624.58,126.0
624.64,161.0
624.71,143.0
624.77,146.0
624.83,132.0
624.9,123.0
624.96,119.0
625.02,73.0
625.09,94.0
625.15,86.0
625.21,90.0
625.27,95.0
625.34,77.0
625.4,82.0
625.46,74.0
625.53,77.0
625.59,78.0
625.65,62.0
625.72,74.0
625.78,37.0
625.84,37.0
625.9,46.0
625.97,27.0
626.03,29.0
626.09,9.0
626.16,4.0
626.22,-3.0
626.28,2.0
626.35,11.0
626.41,12.0
626.47,12.0
626.53,18.0
626.6,55.0
626.66,37.0
626.72,-6.0
626.79,5.0
626.85,8.0
626.91,5.0
626.98,4.0
627.04,9.0
627.1,28.0
627.16,73.0
627.23,103.0
627.29,88.0
627.35,99.0
627.42,110.0
627.48,105.0
627.54,105.0
627.61,107.0
627.67,113.0
627.73,101.0
627.79,103.0
627.86,136.0
627.92,150.0
627.98,151.0
628.05,127.0
628.11,119.0
628.17,112.0
628.24,113.0
628.3,124.0
628.36,134.0
628.42,124.0
628.49,136.0
628.55,99.0
628.61,98.0
628.68,43.0
628.74,37.0
628.8,20.0
628.87,25.0
628.93,22.0
628.99,24.0
629.05,57.0
629.12,52.0
629.18,64.0
629.24,49.0
629.31,65.0
629.37,49.0
629.43,47.0
629.5,48.0
629.56,59.0
629.62,48.0
629.68,53.0
629.75,67.0
629.81,75.0
629.87,97.0
629.94,88.0
630.0,61.0
630.06,87.0
630.13,70.0
630.19,74.0
630.25,89.0
630.31,86.0
630.38,77.0
630.44,87.0
630.5,113.0
630.57,98.0
630.63,98.0
630.69,125.0
630.76,129.0
630.82,134.0
630.88,126.0
630.94,107.0
631.01,69.0
631.07,56.0
631.13,57.0
631.2,80.0
631.26,90.0
631.32,83.0
631.39,96.0
631.45,113.0
631.51,94.0
631.57,115.0
631.64,101.0
631.7,117.0
631.76,112.0
631.83,117.0
631.89,86.0
631.95,116.0
632.02,122.0
632.08,117.0
632.14,107.0
632.2,126.0
632.27,122.0
632.33,105.0
632.39,127.0
632.46,122.0
632.52,127.0
632.58,116.0
632.65,102.0
632.71,99.0
632.77,121.0
632.83,109.0
632.9,105.0
632.96,135.0
633.02,109.0
633.09,133.0
633.15,115.0
633.21,119.0
633.28,132.0
633.34,120.0
633.4,128.0
633.46,96.0
633.53,109.0
633.59,126.0
633.65,118.0
633.72,143.0
633.78,161.0
633.84,170.0
633.91,178.0
633.97,156.0
634.03,153.0
634.09,171.0
634.16,175.0
634.22,145.0
634.28,180.0
634.35,180.0
634.41,189.0
634.47,197.0
634.54,216.0
634.6,219.0
634.66,233.0
634.72,219.0
634.79,204.0
634.85,198.0
634.91,186.0
634.98,165.0
635.04,187.0
635.1,175.0
635.17,124.0
635.23,129.0
635.29,124.0
635.35,121.0
635.42,120.0
635.48,120.0
635.54,138.0
635.61,132.0
635.67,148.0
635.73,164.0
635.8,169.0
635.86,173.0
635.92,137.0
635.98,168.0
636.05,182.0
636.11,168.0
636.17,189.0
636.24,180.0
636.3,179.0
636.36,165.0
636.43,170.0
636.49,179.0
636.55,182.0
636.61,174.0
636.68,186.0
636.74,182.0
636.8,207.0
636.87,175.0
636.93,190.0
636.99,199.0
637.06,178.0
637.12,179.0
637.18,183.0
637.24,205.0
637.31,226.0
637.37,196.0
637.43,189.0
637.5,214.0
637.56,200.0
637.62,201.0
637.69,165.0
637.75,184.0
637.81,175.0
637.87,197.0
637.94,212.0
638.0,206.0
638.06,214.0
638.13,223.0
638.19,220.0
638.25,222.0
638.32,243.0
638.38,215.0
638.44,219.0
638.5,203.0
638.57,208.0
638.63,203.0
638.69,194.0
638.76,179.0
638.82,194.0
638.88,209.0
638.95,208.0
639.01,204.0
639.07,213.0
639.13,210.0
639.2,215.0
639.26,218.0
639.32,222.0
639.39,220.0
639.45,164.0
639.51,176.0
639.58,176.0
639.64,181.0
639.7,197.0
639.76,197.0
639.83,197.0
639.89,205.0
639.95,195.0
640.02,200.0
640.08,190.0
640.14,198.0
640.21,198.0
640.27,210.0
640.33,189.0
640.39,158.0
640.46,163.0
640.52,157.0
640.58,150.0
640.65,156.0
640.71,132.0
640.77,125.0
640.84,140.0
640.9,125.0
640.96,145.0
641.02,153.0
641.09,135.0
641.15,146.0
641.21,178.0
641.28,179.0
641.34,141.0
641.4,124.0
641.47,148.0
641.53,147.0
641.59,134.0
641.65,146.0
641.72,154.0
641.78,149.0
641.84,150.0
641.91,138.0
641.97,141.0
642.03,124.0
642.1,153.0
642.16,146.0
642.22,137.0
642.28,144.0
642.35,126.0
642.41,136.0
642.47,141.0
642.54,128.0
642.6,160.0
642.66,168.0
642.73,177.0
642.79,132.0
642.85,120.0
642.91,144.0
642.98,144.0
643.04,150.0
643.1,156.0
643.17,158.0
643.23,148.0
643.29,119.0
643.36,123.0
643.42,112.0
643.48,123.0
643.54,138.0
643.61,133.0
643.67,102.0
643.73,138.0
643.8,121.0
643.86,124.0
643.92,101.0
643.99,126.0
644.05,118.0
644.11,112.0
644.17,127.0
644.24,128.0
644.3,105.0
644.36,87.0
644.43,101.0
644.49,109.0
644.55,126.0
644.62,119.0
644.68,124.0
644.74,139.0
644.8,122.0
644.87,121.0
644.93,136.0
644.99,126.0
645.06,152.0
645.12,146.0
645.18,135.0
645.25,154.0
645.31,143.0
645.37,148.0
645.43,165.0
645.5,131.0
645.56,126.0
645.62,107.0
645.69,87.0
645.75,86.0
645.81,69.0
645.88,98.0
645.94,105.0
646.0,131.0
646.06,151.0
646.13,130.0
646.19,145.0
646.25,110.0
646.32,115.0
646.38,123.0
646.44,114.0
646.51,124.0
646.57,80.0
646.63,105.0
646.69,105.0
646.76,92.0
646.82,115.0
646.88,109.0
646.95,115.0
647.01,99.0
647.07,107.0
647.14,110.0
647.2,115.0
647.26,128.0
647.32,108.0
647.39,118.0
647.45,136.0
647.51,126.0
647.58,114.0
647.64,110.0
647.7,120.0
647.77,118.0
647.83,105.0
647.89,129.0
647.95,124.0
648.02,109.0
648.08,112.0
648.14,153.0
648.21,142.0
648.27,121.0
648.33,145.0
648.4,132.0
648.46,150.0
648.52,154.0
648.58,141.0
648.65,148.0
648.71,148.0
648.77,147.0
648.84,124.0
648.9,119.0
648.96,125.0
649.03,127.0
649.09,91.0
649.15,104.0
649.21,94.0
649.28,91.0
649.34,79.0
649.4,83.0
649.47,66.0
649.53,78.0
649.59,65.0
649.66,81.0
649.72,102.0
649.78,71.0
649.84,81.0
649.91,105.0
649.97,104.0
650.03,130.0
650.1,142.0
650.16,119.0
650.22,109.0
650.29,126.0
650.35,126.0
650.41,138.0
650.47,126.0
650.54,162.0
650.6,151.0
650.66,146.0
650.73,132.0
650.79,133.0
650.85,137.0
650.92,137.0
650.98,134.0
651.04,156.0
651.1,157.0
651.17,154.0
651.23,170.0
651.29,141.0
651.36,146.0
651.42,176.0
651.48,157.0
651.55,139.0
651.61,135.0
651.67,152.0
651.73,161.0
651.8,149.0
651.86,146.0
651.92,150.0
651.99,129.0
652.05,115.0
652.11,117.0
652.18,84.0
652.24,98.0
652.3,120.0
652.36,102.0
652.43,100.0
652.49,126.0
652.55,134.0
652.62,142.0
652.68,122.0
652.74,128.0
652.81,148.0
652.87,110.0
652.93,142.0
652.99,136.0
653.06,180.0
653.12,188.0
653.18,175.0
653.25,185.0
653.31,170.0
653.37,190.0
653.44,186.0
653.5,185.0
653.56,179.0
653.62,219.0
653.69,203.0
653.75,204.0
653.81,203.0
653.88,176.0
653.94,165.0
654.0,177.0
654.07,166.0
654.13,155.0
654.19,157.0
654.25,134.0
654.32,110.0
654.38,114.0
654.44,93.0
654.51,103.0
654.57,105.0
654.63,97.0
654.7,90.0
654.76,116.0
654.82,113.0
654.88,95.0
654.95,74.0
655.01,95.0
655.07,114.0
655.14,90.0
655.2,125.0
655.26,115.0
655.33,128.0
655.39,102.0
655.45,107.0
655.51,115.0
655.58,89.0
655.64,83.0
655.7,64.0
655.77,108.0
655.83,85.0
655.89,95.0
655.96,112.0
656.02,124.0
656.08,112.0
656.14,133.0
656.21,118.0
656.27,122.0
656.33,129.0
656.4,114.0
656.46,129.0
656.52,115.0
656.59,143.0
656.65,124.0
656.71,127.0
656.77,99.0
656.84,93.0
656.9,78.0
656.96,66.0
657.03,78.0
657.09,56.0
657.15,63.0
657.22,61.0
657.28,69.0
657.34,57.0
657.4,29.0
657.47,28.0
657.53,6.0
657.59,19.0
657.66,37.0
657.72,52.0
657.78,28.0
657.85,22.0
657.91,7.0
657.97,-3.0
658.03,-34.0
658.1,-26.0
658.16,-32.0
658.22,-18.0
658.29,-6.0
658.35,-16.0
658.41,-30.0
658.48,-18.0
658.54,-8.0
658.6,-7.0
658.66,0.0
658.73,18.0
658.79,25.0
658.85,24.0
658.92,38.0
658.98,29.0
659.04,44.0
659.11,28.0
659.17,0.0
659.23,4.0
659.29,-9.0
659.36,-6.0
659.42,-29.0
659.48,-10.0
659.55,-20.0
659.61,-1.0
659.67,-13.0
659.74,6.0
659.8,12.0
659.86,13.0
659.92,24.0
659.99,42.0
660.05,29.0
660.11,18.0
660.18,37.0
660.24,27.0
660.3,11.0
660.37,32.0
660.43,49.0
660.49,28.0
660.55,40.0
660.62,39.0
660.68,15.0
660.74,5.0
660.81,-5.0
660.87,17.0
660.93,30.0
661.0,30.0
661.06,0.0
661.12,4.0
661.18,35.0
661.25,12.0
661.31,27.0
661.37,23.0
661.44,42.0
661.5,56.0
661.56,59.0
661.63,53.0
661.69,45.0
661.75,28.0
661.81,19.0
661.88,54.0
661.94,56.0
662.0,43.0
662.07,62.0
662.13,69.0
662.19,49.0
662.26,45.0
662.32,53.0
662.38,48.0
662.44,64.0
662.51,64.0
662.57,58.0
662.63,67.0
662.7,67.0
662.76,106.0
662.82,93.0
662.89,115.0
662.95,101.0
663.01,84.0
663.07,101.0
663.14,78.0
663.2,112.0
663.26,86.0
663.33,79.0
663.39,69.0
663.45,76.0
663.52,96.0
663.58,90.0
663.64,86.0
663.7,89.0
663.77,79.0
663.83,73.0
663.89,84.0
663.96,70.0
664.02,78.0
664.08,67.0
664.15,78.0
664.21,69.0
664.27,82.0
664.33,109.0
664.4,97.0
664.46,92.0
664.52,79.0
664.59,86.0
664.65,78.0
664.71,66.0
664.78,107.0
664.84,86.0
664.9,105.0
664.96,77.0
665.03,82.0
665.09,97.0
665.15,65.0
665.22,117.0
665.28,100.0
665.34,101.0
665.41,106.0
665.47,103.0
665.53,108.0
665.59,98.0
665.66,123.0
665.72,106.0
665.78,130.0
665.85,159.0
665.91,150.0
665.97,178.0
666.04,152.0
666.1,150.0
666.16,172.0
666.22,160.0
666.29,149.0
666.35,165.0
666.41,143.0
666.48,136.0
666.54,169.0
666.6,157.0
666.67,133.0
666.73,158.0
666.79,165.0
666.85,166.0
666.92,172.0
666.98,154.0
667.04,142.0
667.11,133.0
667.17,136.0
667.23,140.0
667.3,179.0
667.36,168.0
667.42,181.0
667.48,152.0
667.55,155.0
667.61,183.0
667.67,184.0
667.74,186.0
667.8,198.0
667.86,196.0
667.93,188.0
667.99,170.0
668.05,211.0
668.11,197.0
668.18,204.0
668.24,200.0
668.3,213.0
668.37,186.0
668.43,207.0
668.49,206.0
668.56,188.0
668.62,185.0
668.68,182.0
668.74,203.0
668.81,197.0
668.87,186.0
668.93,204.0
669.0,216.0
669.06,221.0
669.12,203.0
669.19,210.0
669.25,198.0
669.31,180.0
669.37,191.0
669.44,189.0
669.5,197.0
669.56,204.0
669.63,188.0
669.69,159.0
669.75,177.0
669.82,179.0
669.88,217.0
669.94,219.0
670.0,216.0
670.07,210.0
670.13,218.0
670.19,214.0
670.26,219.0
670.32,192.0
670.38,203.0
670.45,218.0
670.51,224.0
670.57,214.0
670.63,205.0
670.7,212.0
670.76,241.0
670.82,230.0
670.89,236.0
670.95,234.0
671.01,240.0
671.08,228.0
671.14,218.0
671.2,240.0
671.26,263.0
671.33,249.0
671.39,240.0
671.45,245.0
671.52,241.0
671.58,253.0
671.64,251.0
671.71,238.0
671.77,234.0
671.83,253.0
671.89,244.0
671.96,247.0
672.02,285.0
672.08,276.0
672.15,272.0
672.21,276.0
672.27,260.0
672.34,274.0
672.4,263.0
672.46,255.0
672.52,275.0
672.59,266.0
672.65,281.0
672.71,289.0
672.78,254.0
672.84,258.0
672.9,232.0
672.97,268.0
673.03,240.0
673.09,254.0
673.15,276.0
673.22,255.0
673.28,222.0
673.34,223.0
673.41,229.0
673.47,229.0
673.53,233.0
673.6,227.0
673.66,232.0
673.72,221.0
673.78,197.0
673.85,211.0
673.91,212.0
673.97,191.0
674.04,186.0
674.1,188.0
674.16,168.0
674.23,188.0
674.29,191.0
674.35,202.0
674.41,211.0
674.48,192.0
674.54,211.0
674.6,204.0
674.67,189.0
674.73,148.0
674.79,174.0
674.86,176.0
674.92,154.0
674.98,146.0
675.04,124.0
675.11,129.0
675.17,136.0
675.23,131.0
675.3,130.0
675.36,148.0
675.42,144.0
675.49,119.0
675.55,129.0
675.61,117.0
675.67,127.0
675.74,119.0
675.8,116.0
675.86,126.0
675.93,119.0
675.99,163.0
676.05,148.0
676.12,141.0
676.18,138.0
676.24,124.0
676.3,128.0
676.37,128.0
676.43,114.0
676.49,120.0
676.56,109.0
676.62,116.0
676.68,126.0
676.75,145.0
676.81,105.0
676.87,104.0
676.93,114.0
677.0,116.0
677.06,105.0
677.12,94.0
677.19,87.0
677.25,112.0
677.31,109.0
677.38,107.0
677.44,108.0
677.5,115.0
677.56,103.0
677.63,99.0
677.69,115.0
677.75,100.0
677.82,90.0
677.88,82.0
677.94,85.0
678.01,100.0
678.07,96.0
678.13,85.0
678.19,104.0
678.26,55.0
678.32,59.0
678.38,85.0
678.45,71.0
678.51,85.0
678.57,61.0
678.64,85.0
678.7,97.0
678.76,75.0
678.82,88.0
678.89,81.0
678.95,85.0
679.01,95.0
679.08,119.0
679.14,122.0
679.2,100.0
679.27,116.0
679.33,104.0
679.39,120.0
679.45,115.0
679.52,109.0
679.58,114.0
679.64,121.0
679.71,100.0
679.77,119.0
679.83,102.0
679.9,100.0
679.96,117.0
680.02,111.0
680.08,117.0
680.15,107.0
680.21,111.0
680.27,110.0
680.34,107.0
680.4,85.0
680.46,86.0
680.53,114.0
680.59,136.0
680.65,129.0
680.71,133.0
680.78,122.0
680.84,122.0
680.9,111.0
680.97,93.0
681.03,88.0
681.09,113.0
681.16,98.0
681.22,101.0
681.28,84.0
681.34,98.0
681.41,90.0
681.47,99.0
681.53,100.0
681.6,88.0
681.66,123.0
681.72,126.0
681.79,111.0
681.85,102.0
681.91,115.0
681.97,113.0
682.04,111.0
682.1,116.0
682.16,122.0
682.23,121.0
682.29,114.0
682.35,141.0
682.42,141.0
682.48,113.0
682.54,107.0
682.6,94.0
682.67,109.0
682.73,122.0
682.79,122.0
682.86,95.0
682.92,114.0
682.98,109.0
683.05,87.0
683.11,106.0
683.17,93.0
683.23,71.0
683.3,86.0
683.36,115.0
683.42,130.0
683.49,111.0
683.55,100.0
683.61,106.0
683.68,102.0
683.74,92.0
683.8,87.0
683.86,124.0
683.93,98.0
683.99,88.0
684.05,118.0
684.12,107.0
684.18,124.0
684.24,132.0
684.31,106.0
684.37,117.0
684.43,104.0
684.49,118.0
684.56,130.0
684.62,117.0
684.68,126.0
684.75,129.0
684.81,114.0
684.87,105.0
684.94,105.0
685.0,124.0
685.06,124.0
685.12,138.0
685.19,132.0
685.25,138.0
685.31,118.0
685.38,115.0
685.44,114.0
685.5,137.0
685.57,140.0
685.63,127.0
685.69,156.0
685.75,123.0
685.82,109.0
685.88,114.0
685.94,106.0
686.01,136.0
686.07,118.0
686.13,106.0
686.2,130.0
686.26,110.0
686.32,123.0
686.38,144.0
686.45,151.0
686.51,159.0
686.57,128.0
686.64,126.0
686.7,140.0
686.76,153.0
686.83,159.0
686.89,152.0
686.95,138.0
687.01,162.0
687.08,169.0
687.14,163.0
687.2,158.0
687.27,156.0
687.33,136.0
687.39,139.0
687.46,173.0
687.52,157.0
687.58,199.0
687.64,213.0
687.71,189.0
687.77,185.0
687.83,186.0
687.9,175.0
687.96,159.0
688.02,177.0
688.09,203.0
688.15,178.0
688.21,181.0
688.27,180.0
688.34,189.0
688.4,181.0
688.46,180.0
688.53,195.0
688.59,194.0
688.65,186.0
688.72,201.0
688.78,188.0
688.84,183.0
688.9,172.0
688.97,170.0
689.03,182.0
689.09,170.0
689.16,173.0
689.22,184.0
689.28,177.0
689.35,170.0
689.41,174.0
689.47,199.0
689.53,179.0
689.6,178.0
689.66,195.0
689.72,177.0
689.79,172.0
689.85,178.0
689.91,195.0
689.98,211.0
690.04,193.0
690.1,186.0
690.16,172.0
690.23,162.0
690.29,140.0
690.35,159.0
690.42,191.0
690.48,189.0
690.54,178.0
690.61,192.0
690.67,203.0
690.73,189.0
690.79,188.0
690.86,194.0
690.92,213.0
690.98,207.0
691.05,209.0
691.11,198.0
691.17,178.0
691.24,155.0
691.3,163.0
691.36,192.0
691.42,165.0
691.49,170.0
691.55,169.0
691.61,180.0
691.68,170.0
691.74,160.0
691.8,142.0
691.87,146.0
691.93,158.0
691.99,157.0
692.05,148.0
692.12,118.0
692.18,134.0
692.24,115.0
692.31,115.0
692.37,126.0
692.43,125.0
692.5,111.0
692.56,134.0
692.62,128.0
692.68,132.0
692.75,105.0
692.81,117.0
692.87,118.0
692.94,111.0
693.0,118.0
693.06,105.0
693.13,118.0
693.19,87.0
693.25,95.0
693.31,118.0
693.38,98.0
693.44,99.0
693.5,101.0
693.57,99.0
693.63,119.0
693.69,100.0
693.76,113.0
693.82,120.0
693.88,109.0
693.94,98.0
694.01,110.0
694.07,115.0
694.13,108.0
694.2,120.0
694.26,116.0
694.32,96.0
694.39,89.0
694.45,112.0
694.51,106.0
694.57,104.0
694.64,115.0
694.7,120.0
694.76,100.0
694.83,104.0
694.89,93.0
694.95,80.0
695.02,80.0
695.08,61.0
695.14,87.0
695.2,68.0
695.27,65.0
695.33,46.0
695.39,51.0
695.46,66.0
695.52,85.0
695.58,68.0
695.65,79.0
695.71,91.0
695.77,92.0
695.83,92.0
695.9,116.0
695.96,109.0
696.02,113.0
696.09,130.0
696.15,106.0
696.21,78.0
696.28,107.0
696.34,94.0
696.4,116.0
696.46,97.0
696.53,79.0
696.59,109.0
696.65,96.0
696.72,121.0
696.78,116.0
696.84,105.0
696.91,97.0
696.97,79.0
697.03,97.0
697.09,100.0
697.16,86.0
697.22,90.0
697.28,93.0
697.35,76.0
697.41,83.0
697.47,81.0
697.54,78.0
697.6,107.0
697.66,98.0
697.72,113.0
697.79,114.0
697.85,88.0
697.91,89.0
697.98,84.0
698.04,87.0
698.1,73.0
698.17,81.0
698.23,86.0
698.29,89.0
698.35,84.0
698.42,84.0
698.48,89.0
698.54,123.0
698.61,110.0
698.67,95.0
698.73,111.0
698.8,102.0
698.86,95.0
698.92,92.0
698.98,89.0
699.05,106.0
699.11,125.0
699.17,113.0
699.24,104.0
699.3,100.0
699.36,111.0
699.43,112.0
699.49,107.0
699.55,128.0
699.61,125.0
699.68,114.0
699.74,112.0
699.8,113.0
699.87,94.0
699.93,112.0
699.99,106.0
700.06,114.0
700.12,122.0
700.18,116.0
700.24,131.0
700.31,148.0
700.37,138.0
700.43,136.0
700.5,118.0
700.56,130.0
700.62,126.0
700.69,133.0
700.75,136.0
700.81,133.0
700.87,134.0
700.94,122.0
701.0,142.0
701.06,142.0
701.13,144.0
701.19,146.0
701.25,144.0
701.32,137.0
701.38,141.0
701.44,126.0
701.5,151.0
701.57,144.0
701.63,130.0
701.69,98.0
701.76,120.0
701.82,101.0
701.88,124.0
701.95,136.0
702.01,134.0
702.07,126.0
702.13,98.0
702.2,130.0
702.26,133.0
702.32,136.0
702.39,134.0
702.45,150.0
702.51,165.0
702.58,139.0
702.64,144.0
702.7,144.0
702.76,152.0
702.83,166.0
702.89,188.0
702.95,169.0
703.02,160.0
703.08,181.0
703.14,170.0
703.21,164.0
703.27,179.0
703.33,182.0
703.39,196.0
703.46,198.0
703.52,202.0
703.58,199.0
703.65,183.0
703.71,172.0
703.77,183.0
703.84,182.0
703.9,188.0
703.96,174.0
704.02,164.0
704.09,192.0
704.15,186.0
704.21,168.0
704.28,184.0
704.34,165.0
704.4,163.0
704.47,162.0
704.53,181.0
704.59,184.0
704.65,191.0
704.72,205.0
704.78,203.0
704.84,201.0
704.91,170.0
704.97,162.0
705.03,166.0
705.1,154.0
705.16,141.0
705.22,156.0
705.28,166.0
705.35,167.0
705.41,159.0
705.47,153.0
705.54,159.0
705.6,159.0
705.66,178.0
705.73,167.0
705.79,174.0
705.85,194.0
705.91,171.0
705.98,169.0
706.04,192.0
706.1,188.0
706.17,198.0
706.23,188.0
706.29,171.0
706.36,166.0
706.42,192.0
706.48,166.0
706.54,160.0
706.61,183.0
706.67,180.0
706.73,177.0
706.8,191.0
706.86,184.0
706.92,160.0
706.99,166.0
707.05,179.0
707.11,166.0
707.17,172.0
707.24,162.0
707.3,142.0
707.36,151.0
707.43,107.0
707.49,136.0
707.55,129.0
707.62,150.0
707.68,162.0
707.74,131.0
707.8,164.0
707.87,133.0
707.93,115.0
707.99,137.0
708.06,92.0
708.12,97.0
708.18,140.0
708.25,126.0
708.31,136.0
708.37,145.0
708.43,142.0
708.5,135.0
708.56,148.0
708.62,137.0
708.69,133.0
708.75,107.0
708.81,115.0
708.88,100.0
708.94,111.0
709.0,98.0
709.06,98.0
709.13,108.0
709.19,76.0
709.25,80.0
709.32,71.0
709.38,66.0
709.44,74.0
709.51,45.0
709.57,45.0
709.63,54.0
709.69,39.0
709.76,31.0
709.82,32.0
709.88,23.0
709.95,29.0
710.01,49.0
710.07,52.0
710.14,57.0
710.2,67.0
710.26,42.0
710.32,36.0
710.39,64.0
710.45,55.0
710.51,35.0
710.58,3.0
710.64,-8.0
710.7,12.0
710.77,16.0
710.83,48.0
710.89,30.0
710.95,36.0
711.02,19.0
711.08,36.0
711.14,29.0
711.21,22.0
711.27,33.0
711.33,37.0
711.4,40.0
711.46,33.0
711.52,32.0
711.58,42.0
711.65,28.0
711.71,37.0
711.77,51.0
711.84,52.0
711.9,56.0
711.96,67.0
712.03,76.0
712.09,91.0
712.15,93.0
712.21,74.0
712.28,78.0
712.34,70.0
712.4,65.0
712.47,78.0
712.53,60.0
712.59,64.0
712.66,60.0
712.72,61.0
712.78,48.0
712.84,56.0
712.91,65.0
712.97,59.0
713.03,84.0
713.1,70.0
713.16,75.0
713.22,68.0
713.29,76.0
713.35,77.0
713.41,63.0
713.47,65.0
713.54,78.0
713.6,101.0
713.66,94.0
713.73,72.0
713.79,87.0
713.85,106.0
713.92,75.0
713.98,86.0
714.04,95.0
714.1,95.0
714.17,89.0
714.23,98.0
714.29,92.0
714.36,102.0
714.42,105.0
714.48,94.0
714.55,106.0
714.61,123.0
714.67,128.0
714.73,126.0
714.8,127.0
714.86,149.0
714.92,139.0
714.99,127.0
715.05,125.0
715.11,127.0
715.18,135.0
715.24,132.0
715.3,136.0
715.36,110.0
715.43,110.0
715.49,102.0
715.55,117.0
715.62,134.0
715.68,117.0
715.74,125.0
715.81,108.0
715.87,117.0
715.93,106.0
715.99,113.0
716.06,124.0
716.12,116.0
716.18,108.0
716.25,92.0
716.31,82.0
716.37,85.0
716.44,93.0
716.5,78.0
716.56,92.0
716.62,118.0
716.69,107.0
716.75,103.0
716.81,104.0
716.88,84.0
716.94,77.0
717.0,92.0
717.07,118.0
717.13,118.0
717.19,104.0
717.25,126.0
717.32,110.0
717.38,105.0
717.44,125.0
717.51,123.0
717.57,123.0
717.63,141.0
717.7,147.0
717.76,144.0
717.82,114.0
717.88,109.0
717.95,136.0
718.01,126.0
718.07,139.0
718.14,127.0
718.2,126.0
718.26,141.0
718.33,143.0
718.39,145.0
718.45,160.0
718.51,148.0
718.58,136.0
718.64,140.0
718.7,140.0
718.77,145.0
718.83,155.0
718.89,167.0
718.96,176.0
719.02,188.0
719.08,183.0
719.14,184.0
719.21,208.0
719.27,203.0
719.33,168.0
719.4,190.0
719.46,177.0
719.52,191.0
719.59,177.0
719.65,189.0
719.71,187.0
719.77,191.0
719.84,194.0
719.9,194.0
719.96,192.0
720.03,179.0
720.09,195.0
720.15,192.0
720.22,205.0
720.28,205.0
720.34,206.0
720.4,230.0
720.47,236.0
720.53,228.0
720.59,216.0
720.66,212.0
720.72,206.0
720.78,223.0
720.85,217.0
720.91,214.0
720.97,222.0
721.03,243.0
721.1,236.0
721.16,238.0
721.22,245.0
721.29,245.0
721.35,233.0
721.41,228.0
721.48,241.0
721.54,225.0
721.6,231.0
721.66,250.0
721.73,244.0
721.79,257.0
721.85,256.0
721.92,249.0
721.98,259.0
722.04,275.0
722.11,255.0
722.17,268.0
722.23,272.0
722.29,263.0
722.36,271.0
722.42,254.0
722.48,267.0
722.55,269.0
722.61,268.0
722.67,288.0
722.74,268.0
722.8,264.0
722.86,283.0
722.92,279.0
722.99,261.0
723.05,258.0
723.11,262.0
723.18,250.0
723.24,259.0
723.3,247.0
723.37,231.0
723.43,250.0
723.49,256.0
723.55,245.0
723.62,258.0
723.68,252.0
723.74,264.0
723.81,259.0
723.87,267.0
723.93,255.0
724.0,252.0
724.06,242.0
724.12,236.0
724.18,219.0
724.25,238.0
724.31,250.0
724.37,252.0
724.44,241.0
724.5,241.0
724.56,230.0
724.63,237.0
724.69,230.0
724.75,223.0
724.81,242.0
724.88,245.0
724.94,230.0
725.0,231.0
725.07,217.0
725.13,206.0
725.19,199.0
725.26,195.0
725.32,210.0
725.38,210.0
725.44,206.0
725.51,210.0
725.57,195.0
725.63,190.0
725.7,211.0
725.76,202.0
725.82,201.0
725.89,204.0
725.95,174.0
726.01,184.0
726.07,195.0
726.14,217.0
726.2,215.0
726.26,206.0
726.33,205.0
726.39,188.0
726.45,169.0
726.52,180.0
726.58,186.0
726.64,172.0
726.7,205.0
726.77,184.0
726.83,182.0
726.89,188.0
726.96,182.0
727.02,178.0
727.08,178.0
727.15,184.0
727.21,153.0
727.27,151.0
727.33,147.0
727.4,147.0
727.46,141.0
727.52,156.0
727.59,161.0
727.65,181.0
727.71,162.0
727.78,174.0
727.84,173.0
727.9,168.0
727.96,180.0
728.03,187.0
728.09,194.0
728.15,181.0
728.22,190.0
728.28,166.0
728.34,187.0
728.41,194.0
728.47,176.0
728.53,183.0
728.59,198.0
728.66,208.0
728.72,192.0
728.78,183.0
728.85,190.0
728.91,171.0
728.97,181.0
729.04,180.0
729.1,170.0
729.16,169.0
729.22,184.0
729.29,158.0
729.35,192.0
729.41,188.0
729.48,158.0
729.54,152.0
729.6,151.0
729.67,165.0
729.73,137.0
729.79,155.0
729.85,165.0
729.92,162.0
729.98,156.0
730.04,139.0
730.11,143.0
730.17,154.0
730.23,155.0
730.3,170.0
730.36,144.0
730.42,136.0
730.48,145.0
730.55,161.0
730.61,146.0
730.67,150.0
730.74,167.0
730.8,145.0
730.86,151.0
730.93,135.0
730.99,148.0
731.05,161.0
731.11,160.0
731.18,175.0
731.24,168.0
731.3,176.0
731.37,180.0
731.43,157.0
731.49,134.0
731.56,137.0
731.62,142.0
731.68,135.0
731.74,142.0
731.81,131.0
731.87,141.0
731.93,140.0
732.0,101.0
732.06,97.0
732.12,134.0
732.19,130.0
732.25,145.0
732.31,157.0
732.37,155.0
732.44,181.0
732.5,171.0
732.56,165.0
732.63,158.0
732.69,164.0
732.75,159.0
732.82,173.0
732.88,169.0
732.94,154.0
733.0,129.0
733.07,159.0
733.13,154.0
733.19,167.0
733.26,170.0
733.32,147.0
733.38,155.0
733.45,155.0
733.51,149.0
733.57,145.0
733.63,150.0
733.7,132.0
733.76,141.0
733.82,156.0
733.89,126.0
733.95,126.0
734.01,120.0
734.08,127.0
734.14,121.0
734.2,112.0
734.26,136.0
734.33,133.0
734.39,129.0
734.45,142.0
734.52,123.0
734.58,126.0
734.64,153.0
734.71,129.0
734.77,134.0
734.83,111.0
734.89,123.0
734.96,123.0
735.02,122.0
735.08,118.0
735.15,112.0
735.21,128.0
735.27,120.0
735.34,107.0
735.4,114.0
735.46,128.0
735.52,132.0
735.59,142.0
735.65,146.0
735.71,136.0
735.78,143.0
735.84,141.0
735.9,171.0
735.97,123.0
736.03,151.0
736.09,149.0
736.15,129.0
736.22,152.0
736.28,132.0
736.34,139.0
736.41,134.0
736.47,134.0
736.53,129.0
736.6,145.0
736.66,149.0
736.72,137.0
736.78,140.0
736.85,129.0
736.91,126.0
736.97,142.0
737.04,148.0
737.1,150.0
737.16,154.0
737.23,167.0
737.29,166.0
737.35,158.0
737.41,164.0
737.48,168.0
737.54,151.0
737.6,154.0
737.67,159.0
737.73,152.0
737.79,159.0
737.86,156.0
737.92,155.0
737.98,144.0
738.04,148.0
738.11,160.0
738.17,145.0
738.23,136.0
738.3,145.0
738.36,151.0
738.42,161.0
738.49,157.0
738.55,160.0
738.61,152.0
738.67,170.0
738.74,150.0
738.8,158.0
738.86,172.0
738.93,179.0
738.99,167.0
739.05,174.0
739.12,185.0
739.18,156.0
739.24,178.0
739.3,172.0
739.37,144.0
739.43,158.0
739.49,151.0
739.56,161.0
739.62,145.0
739.68,151.0
739.75,147.0
739.81,162.0
739.87,158.0
739.93,146.0
740.0,124.0
740.06,117.0
740.12,118.0
740.19,137.0
740.25,137.0
740.31,131.0
740.38,123.0
740.44,110.0
740.5,151.0
740.56,136.0
740.63,144.0
740.69,136.0
740.75,128.0
740.82,138.0
740.88,128.0
740.94,147.0
741.01,142.0
741.07,143.0
741.13,134.0
741.19,127.0
741.26,140.0
741.32,109.0
741.38,117.0
741.45,93.0
741.51,114.0
741.57,91.0
741.64,109.0
741.7,132.0
741.76,112.0
741.82,98.0
741.89,67.0
741.95,80.0
742.01,87.0
742.08,82.0
742.14,100.0
742.2,92.0
742.27,81.0
742.33,82.0
742.39,77.0
742.45,70.0
742.52,54.0
742.58,60.0
742.64,70.0
742.71,88.0
742.77,78.0
742.83,79.0
742.9,74.0
742.96,79.0
743.02,52.0
743.08,76.0
743.15,63.0
743.21,52.0
743.27,45.0
743.34,45.0
743.4,70.0
743.46,61.0
743.53,54.0
743.59,41.0
743.65,34.0
743.71,37.0
743.78,38.0
743.84,42.0
743.9,49.0
743.97,33.0
744.03,22.0
744.09,35.0
744.16,24.0
744.22,45.0
744.28,47.0
744.34,52.0
744.41,57.0
744.47,62.0
744.53,59.0
744.6,78.0
744.66,71.0
744.72,70.0
744.79,92.0
744.85,101.0
744.91,95.0
744.97,74.0
745.04,85.0
745.1,84.0
745.16,99.0
745.23,111.0
745.29,100.0
745.35,74.0
745.42,55.0
745.48,76.0
745.54,67.0
745.6,85.0
745.67,92.0
745.73,98.0
745.79,95.0
745.86,85.0
745.92,75.0
745.98,79.0
746.05,80.0
746.11,75.0
746.17,52.0
746.23,53.0
746.3,63.0
746.36,40.0
746.42,34.0
746.49,26.0
746.55,26.0
746.61,25.0
746.68,45.0
746.74,30.0
746.8,39.0
746.86,44.0
746.93,57.0
746.99,64.0
747.05,53.0
747.12,53.0
747.18,33.0
747.24,52.0
747.31,53.0
747.37,68.0
747.43,54.0
747.49,57.0
747.56,70.0
747.62,41.0
747.68,45.0
747.75,58.0
747.81,55.0
747.87,49.0
747.94,67.0
748.0,70.0
748.06,76.0
748.12,91.0
748.19,76.0
748.25,61.0
748.31,66.0
748.38,69.0
748.44,70.0
748.5,77.0
748.57,74.0
748.63,84.0
748.69,83.0
748.75,96.0
748.82,90.0
748.88,79.0
748.94,107.0
749.01,82.0
749.07,76.0
749.13,77.0
749.2,84.0
749.26,94.0
749.32,80.0
749.38,92.0
749.45,81.0
749.51,83.0
749.57,103.0
749.64,108.0
749.7,104.0
749.76,85.0
749.83,98.0
749.89,99.0
749.95,94.0
750.01,87.0
750.08,85.0
750.14,87.0
750.2,107.0
750.27,117.0
750.33,102.0
750.39,82.0
750.46,82.0
750.52,89.0
750.58,85.0
750.64,110.0
750.71,93.0
750.77,76.0
750.83,78.0
750.9,97.0
750.96,94.0
751.02,122.0
751.09,136.0
751.15,118.0
751.21,120.0
751.27,106.0
751.34,102.0
751.4,133.0
751.46,128.0
751.53,124.0
751.59,146.0
751.65,150.0
751.72,143.0
751.78,147.0
751.84,142.0
751.9,155.0
751.97,167.0
752.03,161.0
752.09,180.0
752.16,186.0
752.22,193.0
752.28,185.0
752.35,197.0
752.41,195.0
752.47,180.0
752.53,185.0
752.6,193.0
752.66,210.0
752.72,213.0
752.79,184.0
752.85,184.0
752.91,205.0
752.98,213.0
753.04,192.0
753.1,206.0
753.16,217.0
753.23,220.0
753.29,234.0
753.35,233.0
753.42,225.0
753.48,216.0
753.54,229.0
753.61,257.0
753.67,264.0
753.73,265.0
753.79,274.0
753.86,267.0
753.92,283.0
753.98,288.0
754.05,270.0
754.11,255.0
754.17,282.0
754.24,283.0
754.3,272.0
754.36,271.0
754.42,262.0
754.49,280.0
754.55,293.0
754.61,280.0
754.68,263.0
754.74,261.0
754.8,262.0
754.87,266.0
754.93,271.0
754.99,279.0
755.05,286.0
755.12,247.0
755.18,252.0
755.24,267.0
755.31,280.0
755.37,290.0
755.43,280.0
755.5,309.0
755.56,301.0
755.62,293.0
755.68,277.0
755.75,246.0
755.81,273.0
755.87,279.0
755.94,266.0
756.0,250.0
756.06,241.0
756.13,253.0
756.19,242.0
756.25,222.0
756.31,246.0
756.38,235.0
756.44,244.0
756.5,252.0
756.57,232.0
756.63,222.0
756.69,236.0
756.76,232.0
756.82,241.0
756.88,234.0
756.94,227.0
757.01,225.0
757.07,218.0
757.13,231.0
757.2,224.0
757.26,217.0
757.32,200.0
757.39,214.0
757.45,223.0
757.51,211.0
757.57,210.0
757.64,219.0
757.7,206.0
757.76,199.0
757.83,198.0
757.89,203.0
757.95,212.0
758.02,182.0
758.08,200.0
758.14,195.0
758.2,184.0
758.27,191.0
758.33,208.0
758.39,190.0
758.46,194.0
758.52,173.0
758.58,181.0
758.65,158.0
758.71,165.0
758.77,176.0
758.83,164.0
758.9,158.0
758.96,158.0
759.02,160.0
759.09,142.0
759.15,153.0
759.21,170.0
759.28,173.0
759.34,174.0
759.4,172.0
759.46,164.0
759.53,165.0
759.59,151.0
759.65,169.0
759.72,159.0
759.78,143.0
759.84,154.0
759.91,143.0
759.97,123.0
760.03,131.0
760.09,119.0
760.16,126.0
760.22,115.0
760.28,117.0
760.35,108.0
760.41,115.0
760.47,118.0
760.54,90.0
760.6,94.0
760.66,93.0
760.72,78.0
760.79,82.0
760.85,92.0
760.91,98.0
760.98,98.0
761.04,100.0
761.1,91.0
761.17,79.0
761.23,77.0
761.29,71.0
761.35,80.0
761.42,68.0
761.48,58.0
761.54,60.0
761.61,69.0
761.67,53.0
761.73,48.0
761.8,56.0
761.86,73.0
761.92,61.0
761.98,51.0
762.05,54.0
762.11,47.0
762.17,49.0
762.24,64.0
762.3,65.0
762.36,71.0
762.43,67.0
762.49,43.0
762.55,48.0
762.61,39.0
762.68,41.0
762.74,41.0
762.8,37.0
762.87,70.0
762.93,48.0
762.99,49.0
763.06,49.0
763.12,42.0
763.18,29.0
763.24,48.0
763.31,41.0
763.37,26.0
763.43,26.0
763.5,26.0
763.56,27.0
763.62,18.0
763.69,41.0
763.75,41.0
763.81,33.0
763.87,6.0
763.94,33.0
764.0,44.0
764.06,41.0
764.13,34.0
764.19,41.0
764.25,31.0
764.32,30.0
764.38,38.0
764.44,37.0
764.5,33.0
764.57,28.0
764.63,9.0
764.69,16.0
764.76,18.0
764.82,20.0
764.88,19.0
764.95,7.0
765.01,-7.0
765.07,7.0
765.13,15.0
765.2,-1.0
765.26,23.0
765.32,14.0
765.39,7.0
765.45,15.0
765.51,23.0
765.58,27.0
765.64,15.0
765.7,36.0
765.76,14.0
765.83,22.0
765.89,35.0
765.95,18.0
766.02,19.0
766.08,38.0
766.14,30.0
766.21,36.0
766.27,17.0
766.33,29.0
766.39,29.0
766.46,17.0
766.52,20.0
766.58,10.0
766.65,0.0
766.71,22.0
766.77,3.0
766.84,6.0
766.9,31.0
766.96,32.0
767.02,22.0
767.09,19.0
767.15,22.0
767.21,11.0
767.28,23.0
767.34,42.0
767.4,38.0
767.47,27.0
767.53,36.0
767.59,-2.0
767.65,-9.0
767.72,18.0
767.78,11.0
767.84,3.0
767.91,-13.0
767.97,-17.0
768.03,-24.0
768.1,-12.0
768.16,-5.0
768.22,3.0
768.28,9.0
768.35,-2.0
768.41,23.0
768.47,5.0
768.54,-3.0
768.6,11.0
768.66,23.0
768.73,34.0
768.79,26.0
768.85,42.0
768.91,38.0
768.98,44.0
769.04,52.0
769.1,34.0
769.17,30.0
769.23,25.0
769.29,34.0
769.36,30.0
769.42,42.0
769.48,51.0
769.54,34.0
769.61,35.0
769.67,41.0
769.73,43.0
769.8,27.0
769.86,40.0
769.92,28.0
769.99,39.0
770.05,46.0
770.11,43.0
770.17,65.0
770.24,87.0
770.3,74.0
770.36,72.0
770.43,69.0
770.49,73.0
770.55,89.0
770.62,96.0
770.68,92.0
770.74,109.0
770.8,94.0
770.87,90.0
770.93,114.0
770.99,95.0
771.06,99.0
771.12,103.0
771.18,92.0
771.25,99.0
771.31,114.0
771.37,109.0
771.43,114.0
771.5,125.0
771.56,109.0
771.62,118.0
771.69,99.0
771.75,86.0
771.81,81.0
771.88,106.0
771.94,106.0
772.0,118.0
772.06,130.0
772.13,137.0
772.19,127.0
772.25,117.0
772.32,135.0
772.38,144.0
772.44,142.0
772.51,149.0
772.57,143.0
772.63,156.0
772.69,147.0
772.76,161.0
772.82,161.0
772.88,173.0
772.95,166.0
773.01,161.0
773.07,137.0
773.14,161.0
773.2,149.0
773.26,158.0
773.32,169.0
773.39,169.0
773.45,170.0
773.51,151.0
773.58,174.0
773.64,183.0
773.7,168.0
773.77,184.0
773.83,173.0
773.89,178.0
773.95,186.0
774.02,184.0
774.08,180.0
774.14,169.0
774.21,169.0
774.27,181.0
774.33,189.0
774.4,181.0
774.46,164.0
774.52,169.0
774.58,187.0
774.65,182.0
774.71,166.0
774.77,186.0
774.84,161.0
774.9,151.0
774.96,154.0
775.03,153.0
775.09,170.0
775.15,169.0
775.21,150.0
775.28,144.0
775.34,139.0
775.4,149.0
775.47,154.0
775.53,146.0
775.59,126.0
775.66,139.0
775.72,135.0
775.78,159.0
775.84,185.0
775.91,198.0
775.97,189.0
776.03,180.0
776.1,180.0
776.16,190.0
776.22,183.0
776.29,173.0
776.35,172.0
776.41,180.0
776.47,166.0
776.54,169.0
776.6,164.0
776.66,172.0
776.73,177.0
776.79,191.0
776.85,203.0
776.92,206.0
776.98,206.0
777.04,194.0
777.1,196.0
777.17,182.0
777.23,181.0
777.29,183.0
777.36,188.0
777.42,206.0
777.48,211.0
777.55,190.0
777.61,199.0
777.67,187.0
777.73,199.0
777.8,196.0
777.86,191.0
777.92,202.0
777.99,186.0
778.05,213.0
778.11,219.0
778.18,202.0
778.24,206.0
778.3,194.0
778.36,205.0
778.43,202.0
778.49,210.0
778.55,196.0
778.62,198.0
778.68,202.0
778.74,200.0
778.81,221.0
778.87,212.0
778.93,212.0
778.99,214.0
779.06,207.0
779.12,216.0
779.18,235.0
779.25,245.0
779.31,243.0
779.37,240.0
779.44,242.0
779.5,216.0
779.56,214.0
779.62,207.0
779.69,221.0
779.75,224.0
779.81,200.0
779.88,213.0
779.94,221.0
780.0,246.0
780.07,260.0
780.13,242.0
780.19,246.0
780.25,224.0
780.32,235.0
780.38,214.0
780.44,221.0
780.51,228.0
780.57,213.0
780.63,221.0
780.7,213.0
780.76,211.0
780.82,203.0
780.88,216.0
780.95,191.0
781.01,208.0
781.07,203.0
781.14,220.0
781.2,222.0
781.26,205.0
781.33,238.0
781.39,219.0
781.45,209.0
781.51,211.0
781.58,218.0
781.64,225.0
781.7,202.0
781.77,202.0
781.83,186.0
781.89,197.0
781.96,210.0
782.02,203.0
782.08,199.0
782.14,196.0
782.21,178.0
782.27,184.0
782.33,187.0
782.4,180.0
782.46,174.0
782.52,184.0
782.59,173.0
782.65,188.0
782.71,212.0
782.77,194.0
782.84,183.0
782.9,194.0
782.96,165.0
783.03,177.0
783.09,199.0
783.15,220.0
783.22,214.0
783.28,192.0
783.34,213.0
783.4,196.0
783.47,206.0
783.53,183.0
783.59,191.0
783.66,199.0
783.72,186.0
783.78,189.0
783.85,185.0
783.91,183.0
783.97,170.0
784.03,158.0
784.1,183.0
784.16,179.0
784.22,193.0
784.29,180.0
784.35,194.0
784.41,186.0
784.48,191.0
784.54,206.0
784.6,172.0
784.66,189.0
784.73,208.0
784.79,194.0
784.85,200.0
784.92,175.0
784.98,192.0
785.04,193.0
785.11,191.0
785.17,184.0
785.23,185.0
785.29,177.0
785.36,172.0
785.42,151.0
785.48,173.0
785.55,166.0
785.61,152.0
785.67,142.0
785.74,173.0
785.8,177.0
785.86,151.0
785.92,148.0
785.99,161.0
786.05,162.0
786.11,148.0
786.18,138.0
786.24,137.0
786.3,173.0
786.37,140.0
786.43,151.0
786.49,155.0
786.55,158.0
786.62,157.0
786.68,145.0
786.74,158.0
786.81,144.0
786.87,128.0
786.93,151.0
787.0,158.0
787.06,155.0
787.12,147.0
787.18,162.0
787.25,152.0
787.31,162.0
787.37,168.0
787.44,169.0
787.5,170.0
787.56,178.0
787.63,177.0
787.69,168.0
787.75,177.0
787.81,169.0
787.88,182.0
787.94,180.0
788.0,177.0
788.07,194.0
788.13,169.0
788.19,161.0
788.26,172.0
788.32,172.0
788.38,178.0
788.44,181.0
788.51,179.0
788.57,176.0
788.63,157.0
788.7,160.0
788.76,153.0
788.82,150.0
788.89,159.0
788.95,162.0
789.01,161.0
789.07,175.0
789.14,154.0
789.2,182.0
789.26,177.0
789.33,161.0
789.39,158.0
789.45,169.0
789.52,152.0
789.58,143.0
789.64,137.0
789.7,152.0
789.77,162.0
789.83,178.0
789.89,178.0
789.96,179.0
790.02,169.0
790.08,171.0
790.15,168.0
790.21,180.0
790.27,178.0
790.33,181.0
790.4,171.0
790.46,169.0
790.52,171.0
790.59,171.0
790.65,162.0
790.71,132.0
790.78,140.0
790.84,152.0
790.9,131.0
790.96,127.0
791.03,113.0
791.09,129.0
791.15,134.0
791.22,129.0
791.28,150.0
791.34,145.0
791.41,153.0
791.47,130.0
791.53,119.0
791.59,125.0
791.66,112.0
791.72,114.0
791.78,102.0
791.85,90.0
791.91,114.0
791.97,123.0
792.04,128.0
792.1,99.0
792.16,99.0
792.22,100.0
792.29,105.0
792.35,91.0
792.41,96.0
792.48,115.0
792.54,92.0
792.6,83.0
792.67,84.0
792.73,98.0
792.79,106.0
792.85,91.0
792.92,92.0
792.98,62.0
793.04,55.0
793.11,67.0
793.17,71.0
793.23,65.0
793.3,78.0
793.36,71.0
793.42,67.0
793.48,48.0
793.55,57.0
793.61,41.0
793.67,48.0
793.74,85.0
793.8,77.0
793.86,51.0
793.93,55.0
793.99,55.0
794.05,65.0
794.11,62.0
794.18,50.0
794.24,57.0
794.3,55.0
794.37,66.0
794.43,60.0
794.49,74.0
794.56,88.0
794.62,69.0
794.68,73.0
794.74,85.0
794.81,71.0
794.87,64.0
794.93,67.0
795.0,79.0
795.06,77.0
795.12,71.0
795.19,76.0
795.25,72.0
795.31,65.0
795.37,55.0
795.44,85.0
795.5,41.0
795.56,62.0
795.63,68.0
795.69,66.0
795.75,53.0
795.82,70.0
795.88,61.0
795.94,47.0
796.0,62.0
796.07,64.0
796.13,59.0
796.19,48.0
796.26,41.0
796.32,42.0
796.38,49.0
796.45,54.0
796.51,44.0
796.57,51.0
796.63,43.0
796.7,50.0
796.76,37.0
796.82,43.0
796.89,62.0
796.95,58.0
797.01,60.0
797.08,57.0
797.14,49.0
797.2,45.0
797.26,54.0
797.33,54.0
797.39,29.0
797.45,37.0
797.52,42.0
797.58,34.0
797.64,50.0
797.71,55.0
797.77,59.0
797.83,52.0
797.89,43.0
797.96,38.0
798.02,40.0
798.08,46.0
798.15,41.0
798.21,49.0
798.27,56.0
798.34,55.0
798.4,56.0
798.46,66.0
798.52,29.0
798.59,40.0
798.65,41.0
798.71,41.0
798.78,54.0
798.84,37.0
798.9,54.0
798.97,53.0
799.03,60.0
799.09,51.0
799.15,47.0
799.22,44.0
799.28,44.0
799.34,42.0
799.41,60.0
799.47,53.0
799.53,55.0
799.6,69.0
799.66,49.0
799.72,55.0
799.78,59.0
799.85,56.0
799.91,76.0
799.97,60.0
800.04,65.0
800.1,57.0
800.16,87.0
800.23,70.0
800.29,56.0
800.35,60.0
800.41,81.0
800.48,88.0
800.54,87.0
800.6,74.0
800.67,62.0
800.73,91.0
800.79,63.0
800.86,83.0
800.92,90.0
800.98,111.0
801.04,110.0
801.11,102.0
801.17,117.0
801.23,102.0
801.3,101.0
801.36,85.0
801.42,111.0
801.49,108.0
801.55,114.0
801.61,113.0
801.67,108.0
801.74,125.0
801.8,119.0
801.86,121.0
801.93,102.0
801.99,128.0
802.05,113.0
802.12,113.0
802.18,122.0
802.24,99.0
802.3,83.0
802.37,84.0
802.43,94.0
802.49,107.0
802.56,98.0
802.62,102.0
802.68,118.0
802.75,110.0
802.81,119.0
802.87,131.0
802.93,131.0
803.0,135.0
803.06,123.0
803.12,110.0
803.19,133.0
803.25,138.0
803.31,147.0
803.38,146.0
803.44,140.0
803.5,151.0
803.56,142.0
803.63,137.0
803.69,143.0
803.75,150.0
803.82,144.0
803.88,150.0
803.94,148.0
804.01,152.0
804.07,147.0
804.13,151.0
804.19,159.0
804.26,172.0
804.32,170.0
804.38,175.0
804.45,186.0
804.51,147.0
804.57,151.0
804.64,159.0
804.7,165.0
804.76,185.0
804.82,178.0
804.89,183.0
804.95,158.0
805.01,151.0
805.08,161.0
805.14,168.0
805.2,182.0
805.27,171.0
805.33,170.0
805.39,156.0
805.45,179.0
805.52,192.0
805.58,197.0
805.64,200.0
805.71,202.0
805.77,195.0
805.83,190.0
805.9,189.0
805.96,191.0
806.02,200.0
806.08,213.0
806.15,197.0
806.21,189.0
806.27,186.0
806.34,206.0
806.4,206.0
806.46,227.0
806.53,208.0
806.59,206.0
806.65,219.0
806.71,225.0
806.78,231.0
806.84,228.0
806.9,225.0
806.97,215.0
807.03,200.0
807.09,202.0
807.16,212.0
807.22,218.0
807.28,222.0
807.34,219.0
807.41,235.0
807.47,228.0
807.53,228.0
807.6,229.0
807.66,230.0
807.72,200.0
807.79,224.0
807.85,229.0
807.91,223.0
807.97,225.0
808.04,214.0
808.1,215.0
808.16,195.0
808.23,213.0
808.29,210.0
808.35,219.0
808.42,195.0
808.48,197.0
808.54,201.0
808.6,191.0
808.67,192.0
808.73,179.0
808.79,178.0
808.86,179.0
808.92,181.0
808.98,178.0
809.05,186.0
809.11,179.0
809.17,175.0
809.23,169.0
809.3,181.0
809.36,161.0
809.42,166.0
809.49,184.0
809.55,178.0
809.61,186.0
809.68,166.0
809.74,169.0
809.8,176.0
809.86,173.0
809.93,177.0
809.99,172.0
810.05,182.0
810.12,181.0
810.18,165.0
810.24,176.0
810.31,181.0
810.37,178.0
810.43,172.0
810.49,161.0
810.56,169.0
810.62,166.0
810.68,158.0
810.75,156.0
810.81,168.0
810.87,167.0
810.94,163.0
811.0,146.0
811.06,151.0
811.12,174.0
811.19,145.0
811.25,165.0
811.31,162.0
811.38,158.0
811.44,162.0
811.5,150.0
811.57,168.0
811.63,152.0
811.69,139.0
811.75,167.0
811.82,161.0
811.88,161.0
811.94,142.0
812.01,114.0
812.07,136.0
812.13,141.0
812.2,129.0
812.26,140.0
812.32,140.0
812.38,118.0
812.45,119.0
812.51,130.0
812.57,123.0
812.64,130.0
812.7,145.0
812.76,124.0
812.83,125.0
812.89,125.0
812.95,117.0
813.01,104.0
813.08,121.0
813.14,115.0
813.2,98.0
813.27,74.0
813.33,87.0
813.39,95.0
813.46,90.0
813.52,79.0
813.58,78.0
813.64,82.0
813.71,78.0
813.77,68.0
813.83,76.0
813.9,79.0
813.96,83.0
814.02,68.0
814.09,93.0
814.15,92.0
814.21,76.0
814.27,71.0
814.34,69.0
814.4,78.0
814.46,80.0
814.53,79.0
814.59,92.0
814.65,70.0
814.72,74.0
814.78,95.0
814.84,88.0
814.9,107.0
814.97,98.0
815.03,87.0
815.09,88.0
815.16,106.0
815.22,86.0
815.28,82.0
815.35,99.0
815.41,93.0
815.47,71.0
815.53,95.0
815.6,111.0
815.66,74.0
815.72,69.0
815.79,48.0
815.85,63.0
815.91,65.0
815.98,66.0
816.04,63.0
816.1,61.0
816.16,78.0
816.23,71.0
816.29,92.0
816.35,67.0
816.42,73.0
816.48,89.0
816.54,80.0
816.61,84.0
816.67,91.0
816.73,95.0
816.79,76.0
816.86,67.0
816.92,69.0
816.98,70.0
817.05,81.0
817.11,79.0
817.17,89.0
817.24,101.0
817.3,89.0
817.36,88.0
817.42,84.0
817.49,107.0
817.55,100.0
817.61,85.0
817.68,79.0
817.74,95.0
817.8,92.0
817.87,98.0
817.93,99.0
817.99,99.0
818.05,101.0
818.12,97.0
818.18,107.0
818.24,66.0
818.31,68.0
818.37,95.0
818.43,75.0
818.5,72.0
818.56,75.0
818.62,81.0
818.68,83.0
818.75,103.0
818.81,110.0
818.87,100.0
818.94,87.0
819.0,107.0
819.06,107.0
819.13,92.0
819.19,85.0
819.25,90.0
819.31,81.0
819.38,107.0
819.44,93.0
819.5,103.0
819.57,110.0
819.63,96.0
819.69,93.0
819.76,80.0
819.82,81.0
819.88,96.0
819.94,93.0
820.01,115.0
820.07,108.0
820.13,118.0
820.2,114.0
820.26,118.0
820.32,129.0
820.39,129.0
820.45,116.0
820.51,139.0
820.57,125.0
820.64,130.0
820.7,131.0
820.76,123.0
820.83,124.0
820.89,129.0
820.95,139.0
821.02,133.0
821.08,148.0
821.14,140.0
821.2,125.0
821.27,140.0
821.33,144.0
821.39,136.0
821.46,126.0
821.52,129.0
821.58,132.0
821.65,131.0
821.71,126.0
821.77,125.0
821.83,128.0
821.9,132.0
821.96,140.0
822.02,151.0
822.09,139.0
822.15,147.0
822.21,155.0
822.28,146.0
822.34,167.0
822.4,170.0
822.46,159.0
822.53,165.0
822.59,148.0
822.65,146.0
822.72,151.0
822.78,132.0
822.84,133.0
822.91,132.0
822.97,145.0
823.03,133.0
823.09,122.0
823.16,146.0
823.22,148.0
823.28,139.0
823.35,136.0
823.41,133.0
823.47,126.0
823.54,125.0
823.6,137.0
823.66,154.0
823.72,150.0
823.79,139.0
823.85,143.0
823.91,152.0
823.98,154.0
824.04,131.0
824.1,145.0
824.17,156.0
824.23,122.0
824.29,138.0
824.35,137.0
824.42,140.0
824.48,157.0
824.54,156.0
824.61,132.0
824.67,150.0
824.73,147.0
824.8,162.0
824.86,153.0
824.92,170.0
824.98,165.0
825.05,166.0
825.11,192.0
825.17,163.0
825.24,175.0
825.3,166.0
825.36,159.0
825.43,169.0
825.49,165.0
825.55,160.0
825.61,162.0
825.68,172.0
825.74,161.0
825.8,165.0
825.87,151.0
825.93,155.0
825.99,154.0
826.06,164.0
826.12,159.0
826.18,166.0
826.24,152.0
826.31,156.0
826.37,151.0
826.43,156.0
826.5,160.0
826.56,156.0
826.62,161.0
826.69,177.0
826.75,168.0
826.81,153.0
826.87,164.0
826.94,151.0
827.0,146.0
827.06,139.0
827.13,122.0
827.19,126.0
827.25,140.0
827.32,139.0
827.38,136.0
827.44,144.0
827.5,118.0
827.57,139.0
827.63,127.0
827.69,112.0
827.76,126.0
827.82,138.0
827.88,140.0
827.95,118.0
828.01,114.0
828.07,131.0
828.13,138.0
828.2,120.0
828.26,105.0
828.32,114.0
828.39,135.0
828.45,121.0
828.51,146.0
828.58,131.0
828.64,145.0
828.7,129.0
828.76,120.0
828.83,127.0
828.89,118.0
828.95,117.0
829.02,126.0
829.08,136.0
829.14,125.0
829.21,133.0
829.27,142.0
829.33,138.0
829.39,139.0
829.46,137.0
829.52,133.0
829.58,139.0
829.65,104.0
829.71,111.0
829.77,113.0
829.84,121.0
829.9,121.0
829.96,101.0
830.02,113.0
830.09,126.0
830.15,111.0
830.21,128.0
830.28,129.0
830.34,129.0
830.4,117.0
830.47,128.0
830.53,135.0
830.59,119.0
830.65,123.0
830.72,142.0
830.78,129.0
830.84,144.0
830.91,131.0
830.97,140.0
831.03,125.0
831.1,118.0
831.16,140.0
831.22,135.0
831.28,150.0
831.35,140.0
831.41,139.0
831.47,127.0
831.54,137.0
831.6,142.0
831.66,108.0
831.73,137.0
831.79,137.0
831.85,124.0
831.91,159.0
831.98,120.0
832.04,146.0
832.1,123.0
832.17,134.0
832.23,138.0
832.29,126.0
832.36,143.0
832.42,135.0
832.48,139.0
832.54,150.0
832.61,151.0
832.67,161.0
832.73,142.0
832.8,151.0
832.86,156.0
832.92,151.0
832.99,140.0
833.05,131.0
833.11,121.0
833.17,138.0
833.24,142.0
833.3,131.0
833.36,121.0
833.43,164.0
833.49,151.0
833.55,124.0
833.62,136.0
833.68,146.0
833.74,141.0
833.8,145.0
833.87,158.0
833.93,143.0
833.99,151.0
834.06,152.0
834.12,154.0
834.18,152.0
834.25,156.0
834.31,168.0
834.37,173.0
834.43,159.0
834.5,158.0
834.56,170.0
834.62,167.0
834.69,177.0
834.75,176.0
834.81,159.0
834.88,169.0
834.94,165.0
835.0,158.0
835.06,158.0
835.13,158.0
835.19,166.0
835.25,155.0
835.32,145.0
835.38,150.0
835.44,143.0
835.51,150.0
835.57,154.0
835.63,164.0
835.69,178.0
835.76,156.0
835.82,167.0
835.88,162.0
835.95,175.0
836.01,153.0
836.07,160.0
836.14,161.0
836.2,153.0
836.26,173.0
836.32,147.0
836.39,158.0
836.45,178.0
836.51,180.0
836.58,167.0
836.64,150.0
836.7,159.0
836.77,174.0
836.83,181.0
836.89,182.0
836.95,170.0
837.02,174.0
837.08,170.0
837.14,183.0
837.21,167.0
837.27,191.0
837.33,208.0
837.4,198.0
837.46,194.0
837.52,219.0
837.58,213.0
837.65,220.0
837.71,221.0
837.77,205.0
837.84,198.0
837.9,208.0
837.96,202.0
838.03,221.0
838.09,208.0
838.15,196.0
838.21,195.0
838.28,201.0
838.34,202.0
838.4,211.0
838.47,197.0
838.53,180.0
838.59,173.0
838.66,170.0
838.72,187.0
838.78,193.0
838.84,202.0
838.91,187.0
838.97,197.0
839.03,196.0
839.1,203.0
839.16,200.0
839.22,201.0
839.29,203.0
839.35,217.0
839.41,219.0
839.47,211.0
839.54,230.0
839.6,226.0
839.66,216.0
839.73,207.0
839.79,233.0
839.85,223.0
839.92,202.0
839.98,223.0
840.04,219.0
840.1,226.0
840.17,209.0
840.23,224.0
840.29,224.0
840.36,221.0
840.42,191.0
840.48,205.0
840.55,221.0
840.61,200.0
840.67,219.0
840.73,212.0
840.8,213.0
840.86,227.0
840.92,208.0
840.99,210.0
841.05,225.0
841.11,198.0
841.18,210.0
841.24,183.0
841.3,203.0
841.36,192.0
841.43,175.0
841.49,194.0
841.55,186.0
841.62,177.0
841.68,200.0
841.74,216.0
841.81,198.0
841.87,202.0
841.93,204.0
841.99,196.0
842.06,202.0
842.12,197.0
842.18,199.0
842.25,177.0
842.31,181.0
842.37,178.0
842.44,184.0
842.5,162.0
842.56,154.0
842.62,166.0
842.69,164.0
842.75,150.0
842.81,169.0
842.88,178.0
842.94,179.0
843.0,182.0
843.07,162.0
843.13,155.0
843.19,148.0
843.25,146.0
843.32,147.0
843.38,138.0
843.44,163.0
843.51,158.0
843.57,158.0
843.63,156.0
843.7,143.0
843.76,158.0
843.82,147.0
843.88,159.0
843.95,169.0
844.01,154.0
844.07,148.0
844.14,169.0
844.2,140.0
844.26,148.0
844.33,150.0
844.39,155.0
844.45,151.0
844.51,143.0
844.58,157.0
844.64,138.0
844.7,150.0
844.77,152.0
844.83,132.0
844.89,151.0
844.96,145.0
845.02,136.0
845.08,134.0
845.14,120.0
845.21,128.0
845.27,141.0
845.33,139.0
845.4,133.0
845.46,135.0
845.52,144.0
845.59,129.0
845.65,144.0
845.71,144.0
845.77,140.0
845.84,113.0
845.9,125.0
845.96,148.0
846.03,143.0
846.09,145.0
846.15,133.0
846.22,128.0
846.28,111.0
846.34,139.0
846.4,126.0
846.47,118.0
846.53,115.0
846.59,85.0
846.66,80.0
846.72,82.0
846.78,99.0
846.85,90.0
846.91,67.0
846.97,67.0
847.03,76.0
847.1,66.0
847.16,85.0
847.22,77.0
847.29,81.0
847.35,108.0
847.41,95.0
847.48,112.0
847.54,111.0
847.6,96.0
847.66,93.0
847.73,101.0
847.79,85.0
847.85,104.0
847.92,92.0
847.98,87.0
848.04,90.0
848.11,112.0
848.17,100.0
848.23,93.0
848.29,93.0
848.36,108.0
848.42,81.0
848.48,82.0
848.55,77.0
848.61,76.0
848.67,61.0
848.74,58.0
848.8,60.0
848.86,58.0
848.92,61.0
848.99,63.0
849.05,69.0
849.11,84.0
849.18,76.0
849.24,78.0
849.3,67.0
849.37,74.0
849.43,81.0
849.49,59.0
849.55,62.0
849.62,66.0
849.68,86.0
849.74,67.0
849.81,66.0
849.87,60.0
849.93,56.0
850.0,49.0
850.06,56.0
850.12,66.0
850.18,65.0
850.25,61.0
850.31,52.0
850.37,36.0
850.44,40.0
850.5,35.0
850.56,46.0
850.63,30.0
850.69,48.0
850.75,58.0
850.81,44.0
850.88,33.0
850.94,23.0
851.0,40.0
851.07,50.0
851.13,53.0
851.19,42.0
851.26,33.0
851.32,49.0
851.38,51.0
851.44,57.0
851.51,60.0
851.57,59.0
851.63,54.0
851.7,49.0
851.76,71.0
851.82,60.0
851.89,48.0
851.95,65.0
852.01,43.0
852.07,57.0
852.14,35.0
852.2,46.0
852.26,58.0
852.33,48.0
852.39,59.0
852.45,71.0
852.52,68.0
852.58,64.0
852.64,86.0
852.7,94.0
852.77,88.0
852.83,90.0
852.89,84.0
852.96,76.0
853.02,68.0
853.08,96.0
853.15,84.0
853.21,94.0
853.27,83.0
853.33,71.0
853.4,74.0
853.46,81.0
853.52,111.0
853.59,107.0
853.65,109.0
853.71,115.0
853.78,136.0
853.84,142.0
853.9,129.0
853.96,136.0
854.03,121.0
854.09,111.0
854.15,132.0
854.22,120.0
854.28,124.0
854.34,133.0
854.41,120.0
854.47,124.0
854.53,123.0
854.59,136.0
854.66,143.0
854.72,125.0
854.78,122.0
854.85,135.0
854.91,125.0
854.97,133.0
855.04,140.0
855.1,142.0
855.16,145.0
855.22,151.0
855.29,154.0
855.35,160.0
855.41,162.0
855.48,141.0
855.54,147.0
855.6,157.0
855.67,159.0
855.73,161.0
855.79,162.0
855.85,153.0
855.92,142.0
855.98,171.0
856.04,158.0
856.11,175.0
856.17,181.0
856.23,172.0
856.3,180.0
856.36,191.0
856.42,178.0
856.48,190.0
856.55,195.0
856.61,190.0
856.67,189.0
856.74,199.0
856.8,191.0
856.86,184.0
856.93,194.0
856.99,199.0
857.05,179.0
857.11,178.0
857.18,187.0
857.24,180.0
857.3,178.0
857.37,177.0
857.43,168.0
857.49,161.0
857.56,170.0
857.62,162.0
857.68,165.0
857.74,188.0
857.81,173.0
857.87,186.0
857.93,185.0
858.0,192.0
858.06,187.0
858.12,197.0
858.19,186.0
858.25,180.0
858.31,175.0
858.37,176.0
858.44,159.0
858.5,151.0
858.56,158.0
858.63,172.0
858.69,158.0
858.75,154.0
858.82,173.0
858.88,173.0
858.94,177.0
859.0,173.0
859.07,165.0
859.13,171.0
859.19,172.0
859.26,164.0
859.32,173.0
859.38,166.0
859.45,149.0
859.51,147.0
859.57,138.0
859.63,139.0
859.7,142.0
859.76,144.0
859.82,151.0
859.89,148.0
859.95,138.0
860.01,164.0
860.08,166.0
860.14,139.0
860.2,158.0
860.26,152.0
860.33,155.0
860.39,165.0
860.45,167.0
860.52,172.0
860.58,160.0
860.64,158.0
860.71,166.0
860.77,185.0
860.83,169.0
860.89,188.0
860.96,164.0
861.02,156.0
861.08,175.0
861.15,174.0
861.21,191.0
861.27,171.0
861.34,140.0
861.4,147.0
861.46,140.0
861.52,129.0
861.59,145.0
861.65,144.0
861.71,156.0
861.78,157.0
861.84,141.0
861.9,149.0
861.97,148.0
862.03,137.0
862.09,134.0
862.15,127.0
862.22,123.0
862.28,140.0
862.34,152.0
862.41,137.0
862.47,157.0
862.53,155.0
862.6,163.0
862.66,164.0
862.72,153.0
862.78,142.0
862.85,151.0
862.91,139.0
862.97,125.0
863.04,142.0
863.1,148.0
863.16,138.0
863.23,123.0
863.29,131.0
863.35,109.0
863.41,132.0
863.48,139.0
863.54,129.0
863.6,121.0
863.67,128.0
863.73,127.0
863.79,127.0
863.86,108.0
863.92,114.0
863.98,120.0
864.04,125.0
864.11,136.0
864.17,125.0
864.23,123.0
864.3,139.0
864.36,120.0
864.42,96.0
864.49,126.0
864.55,112.0
864.61,100.0
864.67,110.0
864.74,123.0
864.8,100.0
864.86,81.0
864.93,61.0
864.99,48.0
865.05,70.0
865.12,77.0
865.18,89.0
865.24,82.0
865.3,78.0
865.37,86.0
865.43,111.0
865.49,101.0
865.56,105.0
865.62,121.0
865.68,105.0
865.75,84.0
865.81,82.0
865.87,93.0
865.93,85.0
866.0,79.0
866.06,97.0
866.12,92.0
866.19,84.0
866.25,87.0
866.31,81.0
866.38,77.0
866.44,95.0
866.5,92.0
866.56,73.0
866.63,78.0
866.69,104.0
866.75,105.0
866.82,82.0
866.88,75.0
866.94,103.0
867.01,111.0
867.07,91.0
867.13,111.0
867.19,107.0
867.26,115.0
867.32,104.0
867.38,77.0
867.45,73.0
867.51,63.0
867.57,68.0
867.64,47.0
867.7,60.0
867.76,60.0
867.82,54.0
867.89,46.0
867.95,37.0
868.01,41.0
868.08,32.0
868.14,37.0
868.2,38.0
868.27,41.0
868.33,53.0
868.39,56.0
868.45,53.0
868.52,59.0
868.58,55.0
868.64,50.0
868.71,54.0
868.77,61.0
868.83,59.0
868.9,61.0
868.96,70.0
869.02,54.0
869.08,65.0
869.15,60.0
869.21,69.0
869.27,76.0
869.34,64.0
869.4,78.0
869.46,88.0
869.53,77.0
869.59,60.0
869.65,58.0
869.71,67.0
869.78,66.0
869.84,59.0
869.9,56.0
869.97,66.0
870.03,71.0
870.09,77.0
870.16,63.0
870.22,69.0
870.28,67.0
870.34,64.0
870.41,74.0
870.47,93.0
870.53,107.0
870.6,107.0
870.66,95.0
870.72,101.0
870.79,82.0
870.85,74.0
870.91,97.0
870.97,105.0
871.04,96.0
871.1,116.0
871.16,128.0
871.23,118.0
871.29,113.0
871.35,96.0
871.42,95.0
871.48,98.0
871.54,114.0
871.6,109.0
871.67,104.0
871.73,128.0
871.79,126.0
871.86,118.0
871.92,140.0
871.98,138.0
872.05,121.0
872.11,129.0
872.17,129.0
872.23,118.0
872.3,118.0
872.36,114.0
872.42,152.0
872.49,149.0
872.55,147.0
872.61,145.0
872.68,140.0
872.74,163.0
872.8,153.0
872.86,151.0
872.93,131.0
872.99,137.0
873.05,150.0
873.12,162.0
873.18,163.0
873.24,149.0
873.31,173.0
873.37,174.0
873.43,171.0
873.49,182.0
873.56,184.0
873.62,178.0
873.68,204.0
873.75,209.0
873.81,208.0
873.87,227.0
873.94,223.0
874.0,228.0
874.06,222.0
874.12,216.0
874.19,217.0
874.25,235.0
874.31,225.0
874.38,221.0
874.44,214.0
874.5,208.0
874.57,209.0
874.63,213.0
874.69,216.0
874.75,208.0
874.82,166.0
874.88,175.0
874.94,177.0
875.01,181.0
875.07,173.0
875.13,169.0
875.2,189.0
875.26,168.0
875.32,147.0
875.38,161.0
875.45,164.0
875.51,153.0
875.57,165.0
875.64,155.0
875.7,143.0
875.76,156.0
875.83,169.0
875.89,173.0
875.95,163.0
876.01,175.0
876.08,177.0
876.14,177.0
876.2,171.0
876.27,178.0
876.33,173.0
876.39,178.0
876.46,195.0
876.52,172.0
876.58,163.0
876.64,172.0
876.71,172.0
876.77,168.0
876.83,179.0
876.9,194.0
876.96,185.0
877.02,206.0
877.09,213.0
877.15,184.0
877.21,202.0
877.27,203.0
877.34,192.0
877.4,167.0
877.46,167.0
877.53,142.0
877.59,140.0
877.65,135.0
877.72,163.0
877.78,169.0
877.84,170.0
877.9,159.0
877.97,150.0
878.03,158.0
878.09,168.0
878.16,166.0
878.22,158.0
878.28,166.0
878.35,172.0
878.41,173.0
878.47,180.0
878.53,173.0
878.6,188.0
878.66,179.0
878.72,185.0
878.79,186.0
878.85,170.0
878.91,170.0
878.98,151.0
879.04,155.0
879.1,188.0
879.16,186.0
879.23,172.0
879.29,158.0
879.35,171.0
879.42,150.0
879.48,150.0
879.54,153.0
879.61,148.0
879.67,150.0
879.73,144.0
879.79,144.0
879.86,142.0
879.92,158.0
879.98,146.0
880.05,159.0
880.11,153.0
880.17,142.0
880.24,132.0
880.3,154.0
880.36,159.0
880.42,168.0
880.49,142.0
880.55,147.0
880.61,172.0
880.68,161.0
880.74,152.0
880.8,143.0
880.87,129.0
880.93,128.0
880.99,135.0
881.05,139.0
881.12,140.0
881.18,126.0
881.24,128.0
881.31,121.0
881.37,158.0
881.43,129.0
881.5,147.0
881.56,159.0
881.62,135.0
881.68,160.0
881.75,139.0
881.81,145.0
881.87,155.0
881.94,155.0
882.0,137.0
882.06,130.0
882.13,141.0
882.19,109.0
882.25,103.0
882.31,125.0
882.38,121.0
882.44,149.0
882.5,109.0
882.57,103.0
882.63,109.0
882.69,114.0
882.76,118.0
882.82,108.0
882.88,122.0
882.94,131.0
883.01,118.0
883.07,105.0
883.13,101.0
883.2,109.0
883.26,132.0
883.32,132.0
883.39,118.0
883.45,122.0
883.51,128.0
883.57,113.0
883.64,110.0
883.7,103.0
883.76,120.0
883.83,100.0
883.89,85.0
883.95,111.0
884.02,111.0
884.08,123.0
884.14,133.0
884.2,121.0
884.27,128.0
884.33,135.0
884.39,113.0
884.46,119.0
884.52,96.0
884.58,115.0
884.65,127.0
884.71,104.0
884.77,107.0
884.83,94.0
884.9,108.0
884.96,105.0
885.02,99.0
885.09,123.0
885.15,103.0
885.21,102.0
885.28,129.0
885.34,130.0
885.4,143.0
885.46,138.0
885.53,144.0
885.59,152.0
885.65,144.0
885.72,154.0
885.78,166.0
885.84,162.0
885.91,131.0
885.97,158.0
886.03,151.0
886.09,153.0
886.16,150.0
886.22,139.0
886.28,161.0
886.35,149.0
886.41,143.0
886.47,150.0
886.54,144.0
886.6,147.0
886.66,158.0
886.72,155.0
886.79,144.0
886.85,151.0
886.91,153.0
886.98,166.0
887.04,161.0
887.1,167.0
887.17,160.0
887.23,150.0
887.29,162.0
887.35,148.0
887.42,178.0
887.48,185.0
887.54,187.0
887.61,178.0
887.67,159.0
887.73,176.0
887.8,171.0
887.86,176.0
887.92,175.0
887.98,172.0
888.05,177.0
888.11,180.0
888.17,184.0
888.24,185.0
888.3,180.0
888.36,208.0
888.43,202.0
888.49,202.0
888.55,215.0
888.61,213.0
888.68,216.0
888.74,221.0
888.8,210.0
888.87,224.0
888.93,233.0
888.99,242.0
889.06,241.0
889.12,225.0
889.18,234.0
889.24,246.0
889.31,236.0
889.37,233.0
889.43,234.0
889.5,247.0
889.56,239.0
889.62,214.0
889.69,224.0
889.75,214.0
889.81,233.0
889.87,217.0
889.94,231.0
890.0,216.0
890.06,207.0
890.13,207.0
890.19,200.0
890.25,184.0
890.32,191.0
890.38,180.0
890.44,193.0
890.5,216.0
890.57,188.0
890.63,191.0
890.69,192.0
890.76,204.0
890.82,204.0
890.88,197.0
890.95,199.0
891.01,213.0
891.07,219.0
891.13,206.0
891.2,208.0
891.26,213.0
891.32,194.0
891.39,205.0
891.45,205.0
891.51,213.0
891.58,219.0
891.64,234.0
891.7,210.0
891.76,214.0
891.83,219.0
891.89,214.0
891.95,203.0
892.02,193.0
892.08,214.0
892.14,210.0
892.21,207.0
892.27,195.0
892.33,199.0
892.39,188.0
892.46,172.0
892.52,191.0
892.58,208.0
892.65,194.0
892.71,189.0
892.77,184.0
892.84,177.0
892.9,182.0
892.96,169.0
893.02,186.0
893.09,183.0
893.15,188.0
893.21,179.0
893.28,181.0
893.34,178.0
893.4,188.0
893.47,181.0
893.53,172.0
893.59,170.0
893.65,168.0
893.72,173.0
893.78,178.0
893.84,151.0
893.91,162.0
893.97,194.0
894.03,159.0
894.1,145.0
894.16,158.0
894.22,176.0
894.28,159.0
894.35,172.0
894.41,165.0
894.47,173.0
894.54,165.0
894.6,184.0
894.66,187.0
894.73,187.0
894.79,186.0
894.85,176.0
894.91,186.0
894.98,194.0
895.04,182.0
895.1,167.0
895.17,169.0
895.23,164.0
895.29,167.0
895.36,152.0
895.42,158.0
895.48,159.0
895.54,153.0
895.61,169.0
895.67,176.0
895.73,162.0
895.8,149.0
895.86,159.0
895.92,135.0
895.99,151.0
896.05,161.0
896.11,151.0
896.17,134.0
896.24,151.0
896.3,152.0
896.36,169.0
896.43,188.0
896.49,180.0
896.55,170.0
896.62,185.0
896.68,185.0
896.74,175.0
896.8,146.0
896.87,161.0
896.93,177.0
896.99,156.0
897.06,152.0
897.12,151.0
897.18,145.0
897.25,151.0
897.31,169.0
897.37,160.0
897.43,166.0
897.5,154.0
897.56,114.0
897.62,114.0
897.69,121.0
897.75,140.0
897.81,151.0
897.88,134.0
897.94,140.0
898.0,142.0
898.06,139.0
898.13,102.0
898.19,99.0
898.25,102.0
898.32,100.0
898.38,102.0
898.44,102.0
898.51,120.0
898.57,121.0
898.63,109.0
898.69,99.0
898.76,93.0
898.82,103.0
898.88,112.0
898.95,103.0
899.01,96.0
899.07,103.0
899.14,110.0
899.2,108.0
899.26,107.0
899.32,103.0
899.39,108.0
899.45,104.0
899.51,114.0
899.58,96.0
899.64,112.0
899.7,126.0
899.77,123.0
899.83,143.0
899.89,110.0
899.95,99.0
900.02,103.0
900.08,106.0
900.14,101.0
900.21,97.0
900.27,89.0
900.33,98.0
900.4,85.0
900.46,92.0
900.52,85.0
900.58,92.0
900.65,97.0
900.71,99.0
900.77,92.0
900.84,113.0
900.9,108.0
900.96,96.0
901.03,96.0
901.09,106.0
901.15,105.0
901.21,114.0
901.28,109.0
901.34,96.0
901.4,93.0
901.47,83.0
901.53,107.0
901.59,90.0
901.66,98.0
901.72,81.0
901.78,70.0
901.84,84.0
901.91,78.0
901.97,75.0
902.03,74.0
902.1,80.0
902.16,78.0
902.22,68.0
902.29,74.0
902.35,74.0
902.41,81.0
902.47,82.0
902.54,78.0
902.6,70.0
902.66,70.0
902.73,68.0
902.79,80.0
902.85,78.0
902.92,60.0
902.98,85.0
903.04,76.0
903.1,73.0
903.17,63.0
903.23,48.0
903.29,74.0
903.36,72.0
903.42,84.0
903.48,77.0
903.55,72.0
903.61,82.0
903.67,65.0
903.73,69.0
903.8,61.0
903.86,64.0
903.92,78.0
903.99,76.0
904.05,55.0
904.11,98.0
904.18,89.0
904.24,81.0
904.3,87.0
904.36,96.0
904.43,72.0
904.49,76.0
904.55,98.0
904.62,92.0
904.68,80.0
904.74,66.0
904.81,91.0
904.87,82.0
904.93,81.0
904.99,85.0
905.06,99.0
905.12,74.0
905.18,88.0
905.25,85.0
905.31,99.0
905.37,108.0
905.44,111.0
905.5,129.0
905.56,107.0
905.62,124.0
905.69,125.0
905.75,143.0
905.81,134.0
905.88,148.0
905.94,124.0
906.0,128.0
906.07,146.0
906.13,142.0
906.19,140.0
906.25,162.0
906.32,154.0
906.38,150.0
906.44,140.0
906.51,147.0
906.57,157.0
906.63,155.0
906.7,138.0
906.76,135.0
906.82,161.0
906.88,136.0
906.95,138.0
907.01,145.0
907.07,140.0
907.14,143.0
907.2,126.0
907.26,125.0
907.33,130.0
907.39,148.0
907.45,142.0
907.51,138.0
907.58,143.0
907.64,145.0
907.7,146.0
907.77,146.0
907.83,131.0
907.89,125.0
907.96,147.0
908.02,125.0
908.08,111.0
908.14,128.0
908.21,125.0
908.27,122.0
908.33,124.0
908.4,126.0
908.46,142.0
908.52,131.0
908.59,127.0
908.65,125.0
908.71,133.0
908.77,129.0
908.84,123.0
908.9,132.0
908.96,150.0
909.03,161.0
909.09,136.0
909.15,135.0
909.22,148.0
909.28,158.0
909.34,140.0
909.4,142.0
909.47,131.0
909.53,135.0
909.59,135.0
909.66,130.0
909.72,118.0
909.78,133.0
909.85,138.0
909.91,116.0
909.97,120.0
910.03,141.0
910.1,140.0
910.16,144.0
910.22,149.0
910.29,147.0
910.35,166.0
910.41,164.0
910.48,151.0
910.54,166.0
910.6,153.0
910.66,152.0
910.73,151.0
910.79,136.0
910.85,175.0
910.92,158.0
910.98,148.0
911.04,154.0
911.11,145.0
911.17,162.0
911.23,144.0
911.29,140.0
911.36,145.0
911.42,141.0
911.48,152.0
911.55,151.0
911.61,157.0
911.67,156.0
911.74,158.0
911.8,158.0
911.86,146.0
911.92,139.0
911.99,154.0
912.05,161.0
912.11,166.0
912.18,170.0
912.24,178.0
912.3,162.0
912.37,180.0
912.43,170.0
912.49,166.0
912.55,181.0
912.62,173.0
912.68,176.0
912.74,175.0
912.81,166.0
912.87,157.0
912.93,178.0
913.0,172.0
913.06,174.0
913.12,191.0
913.18,166.0
913.25,163.0
913.31,163.0
913.37,167.0
913.44,157.0
913.5,177.0
913.56,156.0
913.63,173.0
913.69,153.0
913.75,161.0
913.81,174.0
913.88,161.0
913.94,153.0
914.0,154.0
914.07,163.0
914.13,165.0
914.19,169.0
914.26,183.0
914.32,169.0
914.38,172.0
914.44,167.0
914.51,176.0
914.57,176.0
914.63,171.0
914.7,173.0
914.76,175.0
914.82,180.0
914.89,171.0
914.95,183.0
915.01,178.0
915.07,169.0
915.14,176.0
915.2,176.0
915.26,172.0
915.33,154.0
915.39,173.0
915.45,165.0
915.52,170.0
915.58,180.0
915.64,169.0
915.7,189.0
915.77,173.0
915.83,174.0
915.89,159.0
915.96,150.0
916.02,140.0
916.08,158.0
916.15,158.0
916.21,156.0
916.27,155.0
916.33,158.0
916.4,142.0
916.46,147.0
916.52,144.0
916.59,128.0
916.65,147.0
916.71,143.0
916.78,118.0
916.84,109.0
916.9,110.0
916.96,107.0
917.03,104.0
917.09,109.0
917.15,100.0
917.22,120.0
917.28,103.0
917.34,118.0
917.41,97.0
917.47,112.0
917.53,122.0
917.59,128.0
917.66,139.0
917.72,150.0
917.78,147.0
917.85,137.0
917.91,144.0
917.97,116.0
918.04,129.0
918.1,129.0
918.16,117.0
918.22,133.0
918.29,118.0
918.35,134.0
918.41,117.0
918.48,129.0
918.54,127.0
918.6,119.0
918.67,125.0
918.73,126.0
918.79,118.0
918.85,132.0
918.92,128.0
918.98,120.0
919.04,116.0
919.11,108.0
919.17,122.0
919.23,112.0
919.3,114.0
919.36,104.0
919.42,76.0
919.48,77.0
919.55,103.0
919.61,101.0
919.67,72.0
919.74,104.0
919.8,85.0
919.86,95.0
919.93,98.0
919.99,94.0
920.05,83.0
920.11,112.0
920.18,108.0
920.24,99.0
920.3,114.0
920.37,96.0
920.43,79.0
920.49,98.0
920.56,105.0
920.62,88.0
920.68,82.0
920.74,82.0
920.81,68.0
920.87,70.0
920.93,96.0
921.0,76.0
921.06,76.0
921.12,66.0
921.19,67.0
921.25,96.0
921.31,70.0
921.37,100.0
921.44,104.0
921.5,96.0
921.56,96.0
921.63,100.0
921.69,114.0
921.75,96.0
921.82,109.0
921.88,130.0
921.94,122.0
922.0,111.0
922.07,117.0
922.13,130.0
922.19,109.0
922.26,102.0
922.32,105.0
922.38,101.0
922.45,125.0
922.51,110.0
922.57,125.0
922.63,120.0
922.7,128.0
922.76,132.0
922.82,123.0
922.89,139.0
922.95,123.0
923.01,106.0
923.08,133.0
923.14,128.0
923.2,116.0
923.26,151.0
923.33,127.0
923.39,130.0
923.45,126.0
923.52,122.0
923.58,134.0
923.64,128.0
923.71,132.0
923.77,128.0
923.83,143.0
923.89,146.0
923.96,148.0
924.02,140.0
924.08,125.0
924.15,143.0
924.21,129.0
924.27,112.0
924.34,117.0
924.4,118.0
924.46,139.0
924.52,132.0
924.59,143.0
924.65,144.0
924.71,137.0
924.78,134.0
924.84,116.0
924.9,140.0
924.97,133.0
925.03,136.0
925.09,136.0
925.15,140.0
925.22,129.0
925.28,105.0
925.34,119.0
925.41,131.0
925.47,132.0
925.53,127.0
925.6,144.0
925.66,155.0
925.72,149.0
925.78,156.0
925.85,145.0
925.91,139.0
925.97,132.0
926.04,116.0
926.1,129.0
926.16,115.0
926.23,113.0
926.29,123.0
926.35,113.0
926.41,114.0
926.48,123.0
926.54,114.0
926.6,119.0
926.67,113.0
926.73,105.0
926.79,101.0
926.86,106.0
926.92,114.0
926.98,133.0
927.04,98.0
927.11,84.0
927.17,98.0
927.23,98.0
927.3,114.0
927.36,125.0
927.42,118.0
927.49,100.0
927.55,111.0
927.61,114.0
927.67,111.0
927.74,111.0
927.8,79.0
927.86,112.0
927.93,126.0
927.99,115.0
928.05,130.0
928.12,129.0
928.18,126.0
928.24,136.0
928.3,119.0
928.37,98.0
928.43,115.0
928.49,138.0
928.56,113.0
928.62,122.0
928.68,134.0
928.75,141.0
928.81,136.0
928.87,133.0
928.93,146.0
929.0,128.0
929.06,132.0
929.12,133.0
929.19,145.0
929.25,147.0
929.31,146.0
929.38,139.0
929.44,132.0
929.5,148.0
929.56,152.0
929.63,151.0
929.69,157.0
929.75,157.0
929.82,152.0
929.88,160.0
929.94,156.0
930.01,144.0
930.07,139.0
930.13,148.0
930.19,150.0
930.26,117.0
930.32,117.0
930.38,140.0
930.45,133.0
930.51,131.0
930.57,121.0
930.64,131.0
930.7,115.0
930.76,116.0
930.82,113.0
930.89,120.0
930.95,111.0
931.01,129.0
931.08,118.0
931.14,112.0
931.2,111.0
931.27,111.0
931.33,108.0
931.39,106.0
931.45,113.0
931.52,118.0
931.58,93.0
931.64,120.0
931.71,95.0
931.77,95.0
931.83,96.0
931.9,93.0
931.96,94.0
932.02,78.0
932.08,71.0
932.15,81.0
932.21,104.0
932.27,87.0
932.34,88.0
932.4,90.0
932.46,81.0
932.53,84.0
932.59,100.0
932.65,95.0
932.71,76.0
932.78,88.0
932.84,85.0
932.9,91.0
932.97,87.0
933.03,95.0
933.09,95.0
933.16,85.0
933.22,122.0
933.28,90.0
933.34,103.0
933.41,97.0
933.47,97.0
933.53,111.0
933.6,104.0
933.66,100.0
933.72,109.0
933.79,118.0
933.85,113.0
933.91,113.0
933.97,115.0
934.04,111.0
934.1,129.0
934.16,113.0
934.23,91.0
934.29,97.0
934.35,93.0
934.42,84.0
934.48,62.0
934.54,76.0
934.6,96.0
934.67,85.0
934.73,66.0
934.79,74.0
934.86,63.0
934.92,80.0
934.98,95.0
935.05,83.0
935.11,86.0
935.17,98.0
935.23,81.0
935.3,86.0
935.36,93.0
935.42,96.0
935.49,82.0
935.55,74.0
935.61,85.0
935.68,82.0
935.74,87.0
935.8,72.0
935.86,64.0
935.93,62.0
935.99,75.0
936.05,76.0
936.12,65.0
936.18,75.0
936.24,73.0
936.31,67.0
936.37,51.0
936.43,40.0
936.49,71.0
936.56,86.0
936.62,74.0
936.68,79.0
936.75,101.0
936.81,117.0
936.87,112.0
936.94,103.0
937.0,92.0
937.06,106.0
937.12,104.0
937.19,87.0
937.25,111.0
937.31,112.0
937.38,127.0
937.44,133.0
937.5,136.0
937.57,137.0
937.63,128.0
937.69,133.0
937.75,136.0
937.82,146.0
937.88,135.0
937.94,133.0
938.01,130.0
938.07,139.0
938.13,141.0
938.2,129.0
938.26,126.0
938.32,145.0
938.38,144.0
938.45,137.0
938.51,147.0
938.57,139.0
938.64,141.0
938.7,153.0
938.76,144.0
938.83,170.0
938.89,154.0
938.95,167.0
939.01,158.0
939.08,169.0
939.14,166.0
939.2,170.0
939.27,184.0
939.33,158.0
939.39,183.0
939.46,152.0
939.52,169.0
939.58,174.0
939.64,183.0
939.71,192.0
939.77,181.0
939.83,166.0
939.9,195.0
939.96,194.0
940.02,197.0
940.09,197.0
940.15,200.0
940.21,185.0
940.27,192.0
940.34,187.0
940.4,186.0
940.46,216.0
940.53,214.0
940.59,219.0
940.65,220.0
940.72,220.0
940.78,219.0
940.84,227.0
940.9,239.0
940.97,236.0
941.03,246.0
941.09,234.0
941.16,233.0
941.22,238.0
941.28,223.0
941.35,213.0
941.41,234.0
941.47,206.0
941.53,213.0
941.6,242.0
941.66,237.0
941.72,221.0
941.79,235.0
941.85,217.0
941.91,211.0
941.98,228.0
942.04,221.0
942.1,212.0
942.16,198.0
942.23,211.0
942.29,222.0
942.35,215.0
942.42,214.0
942.48,212.0
942.54,198.0
942.61,201.0
942.67,198.0
942.73,194.0
942.79,197.0
942.86,189.0
942.92,168.0
942.98,162.0
943.05,161.0
943.11,153.0
943.17,149.0
943.24,155.0
943.3,174.0
943.36,172.0
943.42,153.0
943.49,143.0
943.55,147.0
943.61,161.0
943.68,161.0
943.74,170.0
943.8,156.0
943.87,147.0
943.93,184.0
943.99,167.0
944.05,156.0
944.12,165.0
944.18,151.0
944.24,172.0
944.31,170.0
944.37,144.0
944.43,151.0
944.5,181.0
944.56,171.0
944.62,168.0
944.68,192.0
944.75,184.0
944.81,195.0
944.87,185.0
944.94,179.0
945.0,184.0
945.06,182.0
945.13,183.0
945.19,184.0
945.25,192.0
945.31,195.0
945.38,188.0
945.44,203.0
945.5,210.0
945.57,207.0
945.63,198.0
945.69,214.0
945.76,230.0
945.82,223.0
945.88,202.0
945.94,200.0
946.01,197.0
946.07,214.0
946.13,190.0
946.2,189.0
946.26,181.0
946.32,176.0
946.39,169.0
946.45,173.0
946.51,176.0
946.57,162.0
946.64,167.0
946.7,163.0
946.76,167.0
946.83,151.0
946.89,159.0
946.95,144.0
947.02,150.0
947.08,162.0
947.14,157.0
947.2,177.0
947.27,174.0
947.33,166.0
947.39,152.0
947.46,165.0
947.52,167.0
947.58,160.0
947.65,143.0
947.71,143.0
947.77,152.0
947.83,122.0
947.9,163.0
947.96,143.0
948.02,143.0
948.09,149.0
948.15,140.0
948.21,125.0
948.28,104.0
948.34,151.0
948.4,137.0
948.46,140.0
948.53,133.0
948.59,134.0
948.65,127.0
948.72,124.0
948.78,101.0
948.84,111.0
948.91,114.0
948.97,106.0
949.03,111.0
949.09,101.0
949.16,109.0
949.22,107.0
949.28,106.0
949.35,125.0
949.41,120.0
949.47,112.0
949.54,101.0
949.6,95.0
949.66,88.0
949.72,89.0
949.79,100.0
949.85,96.0
949.91,83.0
949.98,74.0
950.04,88.0
950.1,99.0
950.17,98.0
950.23,66.0
950.29,96.0
950.35,100.0
950.42,91.0
950.48,96.0
950.54,78.0
950.61,71.0
950.67,81.0
950.73,84.0
950.8,89.0
950.86,85.0
950.92,85.0
950.98,68.0
951.05,79.0
951.11,79.0
951.17,91.0
951.24,76.0
951.3,79.0
951.36,79.0
951.43,84.0
951.49,83.0
951.55,69.0
951.61,83.0
951.68,60.0
951.74,64.0
951.8,56.0
951.87,61.0
951.93,71.0
951.99,62.0
952.06,47.0
952.12,27.0
952.18,41.0
952.24,32.0
952.31,39.0
952.37,35.0
952.43,30.0
952.5,41.0
952.56,35.0
952.62,33.0
952.69,40.0
952.75,51.0
952.81,34.0
952.87,32.0
952.94,33.0
953.0,8.0
953.06,24.0
953.13,22.0
953.19,17.0
953.25,5.0
953.32,15.0
953.38,12.0
953.44,-5.0
953.5,22.0
953.57,27.0
953.63,43.0
953.69,29.0
953.76,24.0
953.82,46.0
953.88,23.0
953.95,24.0
954.01,36.0
954.07,22.0
954.13,44.0
954.2,32.0
954.26,25.0
954.32,51.0
954.39,40.0
954.45,32.0
954.51,22.0
954.58,52.0
954.64,62.0
954.7,54.0
954.76,58.0
954.83,44.0
954.89,71.0
954.95,48.0
955.02,41.0
955.08,67.0
955.14,70.0
955.21,55.0
955.27,76.0
955.33,68.0
955.39,77.0
955.46,97.0
955.52,95.0
955.58,91.0
955.65,106.0
955.71,94.0
955.77,94.0
955.84,88.0
955.9,74.0
955.96,95.0
956.02,94.0
956.09,104.0
956.15,105.0
956.21,102.0
956.28,96.0
956.34,90.0
956.4,98.0
956.47,96.0
956.53,93.0
956.59,95.0
956.65,93.0
956.72,118.0
956.78,104.0
956.84,92.0
956.91,75.0
956.97,71.0
957.03,68.0
957.1,70.0
957.16,69.0
957.22,67.0
957.28,63.0
957.35,66.0
957.41,88.0
957.47,83.0
957.54,71.0
957.6,68.0
957.66,81.0
957.73,60.0
957.79,76.0
957.85,86.0
957.91,87.0
957.98,102.0
958.04,77.0
958.1,92.0
958.17,82.0
958.23,77.0
958.29,77.0
958.36,98.0
958.42,85.0
958.48,81.0
958.54,81.0
958.61,101.0
958.67,95.0
958.73,74.0
958.8,101.0
958.86,85.0
958.92,92.0
958.99,103.0
959.05,109.0
959.11,99.0
959.17,98.0
959.24,103.0
959.3,81.0
959.36,61.0
959.43,85.0
959.49,81.0
959.55,88.0
959.62,110.0
959.68,99.0
959.74,112.0
959.8,128.0
959.87,130.0
959.93,140.0
959.99,142.0
960.06,134.0
960.12,124.0
960.18,123.0
960.25,147.0
960.31,146.0
960.37,139.0
960.43,155.0
960.5,131.0
960.56,136.0
960.62,149.0
960.69,148.0
960.75,156.0
960.81,150.0
960.88,164.0
960.94,165.0
961.0,159.0
961.06,180.0
961.13,186.0
961.19,153.0
961.25,149.0
961.32,164.0
961.38,150.0
961.44,142.0
961.51,132.0
961.57,152.0
961.63,161.0
961.69,153.0
961.76,144.0
961.82,158.0
961.88,175.0
961.95,143.0
962.01,176.0
962.07,179.0
962.14,165.0
962.2,169.0
962.26,158.0
962.32,170.0
962.39,167.0
962.45,162.0
962.51,145.0
962.58,162.0
962.64,157.0
962.7,190.0
962.77,173.0
962.83,189.0
962.89,195.0
962.95,183.0
963.02,191.0
963.08,205.0
963.14,203.0
963.21,205.0
963.27,211.0
963.33,193.0
963.4,187.0
963.46,201.0
963.52,223.0
963.58,205.0
963.65,195.0
963.71,220.0
963.77,215.0
963.84,220.0
963.9,220.0
963.96,223.0
964.03,217.0
964.09,218.0
964.15,224.0
964.21,218.0
964.28,206.0
964.34,193.0
964.4,183.0
964.47,198.0
964.53,176.0
964.59,165.0
964.66,168.0
964.72,180.0
964.78,181.0
964.84,178.0
964.91,200.0
964.97,197.0
965.03,195.0
965.1,192.0
965.16,197.0
965.22,191.0
965.29,177.0
965.35,192.0
965.41,183.0
965.47,187.0
965.54,181.0
965.6,162.0
965.66,159.0
965.73,167.0
965.79,186.0
965.85,161.0
965.92,163.0
965.98,168.0
966.04,161.0
966.1,176.0
966.17,158.0
966.23,151.0
966.29,158.0
966.36,158.0
966.42,158.0
966.48,154.0
966.55,169.0
966.61,165.0
966.67,157.0
966.73,146.0
966.8,159.0
966.86,151.0
966.92,155.0
966.99,147.0
967.05,150.0
967.11,157.0
967.18,161.0
967.24,150.0
967.3,148.0
967.36,154.0
967.43,155.0
967.49,139.0
967.55,137.0
967.62,172.0
967.68,167.0
967.74,161.0
967.81,123.0
967.87,121.0
967.93,126.0
967.99,147.0
968.06,140.0
968.12,144.0
968.18,139.0
968.25,128.0
968.31,129.0
968.37,134.0
968.44,151.0
968.5,145.0
968.56,146.0
968.62,147.0
968.69,144.0
968.75,146.0
968.81,140.0
968.88,148.0
968.94,146.0
969.0,136.0
969.07,116.0
969.13,132.0
969.19,133.0
969.25,159.0
969.32,143.0
969.38,135.0
969.44,154.0
969.51,116.0
969.57,124.0
969.63,133.0
969.7,133.0
969.76,132.0
969.82,145.0
969.88,160.0
969.95,134.0
970.01,128.0
970.07,146.0
970.14,131.0
970.2,135.0
970.26,158.0
970.33,154.0
970.39,150.0
970.45,148.0
970.51,126.0
970.58,127.0
970.64,143.0
970.7,153.0
970.77,173.0
970.83,154.0
970.89,154.0
970.96,165.0
971.02,153.0
971.08,148.0
971.14,136.0
971.21,124.0
971.27,154.0
971.33,146.0
971.4,150.0
971.46,155.0
971.52,159.0
971.59,160.0
971.65,153.0
971.71,150.0
971.77,154.0
971.84,153.0
971.9,150.0
971.96,158.0
972.03,165.0
972.09,164.0
972.15,186.0
972.22,170.0
972.28,158.0
972.34,166.0
972.4,185.0
972.47,186.0
972.53,165.0
972.59,164.0
972.66,179.0
972.72,181.0
972.78,183.0
972.85,187.0
972.91,170.0
972.97,167.0
973.03,170.0
973.1,173.0
973.16,173.0
973.22,194.0
973.29,182.0
973.35,188.0
973.41,189.0
973.48,191.0
973.54,199.0
973.6,183.0
973.66,178.0
973.73,175.0
973.79,168.0
973.85,181.0
973.92,176.0
973.98,158.0
974.04,163.0
974.11,172.0
974.17,169.0
974.23,179.0
974.29,178.0
974.36,193.0
974.42,186.0
974.48,173.0
974.55,178.0
974.61,160.0
974.67,189.0
974.74,184.0
974.8,176.0
974.86,183.0
974.92,159.0
974.99,159.0
975.05,156.0
975.11,129.0
975.18,153.0
975.24,166.0
975.3,141.0
975.37,142.0
975.43,169.0
975.49,161.0
975.55,152.0
975.62,162.0
975.68,176.0
975.74,175.0
975.81,177.0
975.87,154.0
975.93,158.0
976.0,149.0
976.06,143.0
976.12,160.0
976.18,162.0
976.25,155.0
976.31,172.0
976.37,134.0
976.44,146.0
976.5,157.0
976.56,137.0
976.63,147.0
976.69,154.0
976.75,171.0
976.81,169.0
976.88,133.0
976.94,126.0
977.0,125.0
977.07,136.0
977.13,125.0
977.19,132.0
977.26,161.0
977.32,138.0
977.38,136.0
977.44,136.0
977.51,131.0
977.57,147.0
977.63,134.0
977.7,140.0
977.76,142.0
977.82,137.0
977.89,135.0
977.95,129.0
978.01,113.0
978.07,109.0
978.14,121.0
978.2,113.0
978.26,112.0
978.33,139.0
978.39,120.0
978.45,112.0
978.52,125.0
978.58,119.0
978.64,113.0
978.7,117.0
978.77,141.0
978.83,143.0
978.89,124.0
978.96,137.0
979.02,154.0
979.08,135.0
979.15,141.0
979.21,121.0
979.27,136.0
979.33,144.0
979.4,144.0
979.46,123.0
979.52,130.0
979.59,129.0
979.65,107.0
979.71,100.0
979.78,124.0
979.84,117.0
979.9,117.0
979.96,126.0
980.03,129.0
980.09,130.0
980.15,129.0
980.22,126.0
980.28,136.0
980.34,140.0
980.41,122.0
980.47,143.0
980.53,140.0
980.59,142.0
980.66,150.0
980.72,168.0
980.78,151.0
980.85,136.0
980.91,156.0
980.97,159.0
981.04,142.0
981.1,156.0
981.16,168.0
981.22,151.0
981.29,143.0
981.35,145.0
981.41,144.0
981.48,163.0
981.54,145.0
981.6,146.0
981.67,146.0
981.73,141.0
981.79,128.0
981.85,139.0
981.92,135.0
981.98,122.0
982.04,146.0
982.11,158.0
982.17,129.0
982.23,126.0
982.3,121.0
982.36,132.0
982.42,127.0
982.48,128.0
982.55,123.0
982.61,112.0
982.67,124.0
982.74,114.0
982.8,106.0
982.86,113.0
982.93,95.0
982.99,93.0
983.05,98.0
983.11,117.0
983.18,113.0
983.24,100.0
983.3,110.0
983.37,103.0
983.43,98.0
983.49,103.0
983.56,84.0
983.62,92.0
983.68,85.0
983.74,98.0
983.81,106.0
983.87,98.0
983.93,82.0
984.0,106.0
984.06,83.0
984.12,69.0
984.19,85.0
984.25,106.0
984.31,88.0
984.37,101.0
984.44,87.0
984.5,88.0
984.56,91.0
984.63,108.0
984.69,96.0
984.75,93.0
984.82,109.0
984.88,97.0
984.94,92.0
985.0,78.0
985.07,73.0
985.13,82.0
985.19,85.0
985.26,94.0
985.32,99.0
985.38,74.0
985.45,69.0
985.51,80.0
985.57,75.0
985.63,81.0
985.7,77.0
985.76,77.0
985.82,85.0
985.89,71.0
985.95,57.0
986.01,76.0
986.08,67.0
986.14,73.0
986.2,61.0
986.26,71.0
986.33,93.0
986.39,88.0
986.45,93.0
986.52,69.0
986.58,94.0
986.64,86.0
986.71,87.0
986.77,98.0
986.83,68.0
986.89,62.0
986.96,74.0
987.02,88.0
987.08,86.0
987.15,87.0
987.21,83.0
987.27,69.0
987.34,69.0
987.4,75.0
987.46,64.0
987.52,66.0
987.59,90.0
987.65,111.0
987.71,90.0
987.78,101.0
987.84,96.0
987.9,97.0
987.97,111.0
988.03,114.0
988.09,95.0
988.15,103.0
988.22,122.0
988.28,104.0
988.34,117.0
988.41,110.0
988.47,115.0
988.53,117.0
988.6,122.0
988.66,116.0
988.72,132.0
988.78,149.0
988.85,140.0
988.91,161.0
988.97,151.0
989.04,142.0
989.1,150.0
989.16,165.0
989.23,164.0
989.29,143.0
989.35,176.0
989.41,164.0
989.48,195.0
989.54,203.0
989.6,170.0
989.67,195.0
989.73,194.0
989.79,193.0
989.86,217.0
989.92,215.0
989.98,201.0
990.04,202.0
990.11,201.0
990.17,205.0
990.23,208.0
990.3,216.0
990.36,224.0
990.42,200.0
990.49,204.0
990.55,199.0
990.61,194.0
990.67,195.0
990.74,178.0
990.8,203.0
990.86,189.0
990.93,192.0
990.99,198.0
991.05,197.0
991.12,212.0
991.18,207.0
991.24,196.0
991.3,178.0
991.37,208.0
991.43,200.0
991.49,208.0
991.56,205.0
991.62,192.0
991.68,187.0
991.75,181.0
991.81,184.0
991.87,173.0
991.93,179.0
992.0,179.0
992.06,184.0
992.12,198.0
992.19,172.0
992.25,174.0
992.31,175.0
992.38,166.0
992.44,160.0
992.5,161.0
992.56,158.0
992.63,154.0
992.69,180.0
992.75,170.0
992.82,184.0
992.88,173.0
992.94,145.0
993.01,158.0
993.07,166.0
993.13,167.0
993.19,176.0
993.26,170.0
993.32,169.0
993.38,164.0
993.45,179.0
993.51,182.0
993.57,151.0
993.64,152.0
993.7,156.0
993.76,164.0
993.82,165.0
993.89,162.0
993.95,153.0
994.01,170.0
994.08,161.0
994.14,164.0
994.2,156.0
994.27,158.0
994.33,154.0
994.39,148.0
994.45,151.0
994.52,145.0
994.58,143.0
994.64,144.0
994.71,150.0
994.77,175.0
994.83,147.0
994.9,144.0
994.96,153.0
995.02,152.0
995.08,150.0
995.15,140.0
995.21,159.0
995.27,176.0
995.34,178.0
995.4,191.0
995.46,170.0
995.53,178.0
995.59,157.0
995.65,158.0
995.71,165.0
995.78,171.0
995.84,173.0
995.9,171.0
995.97,168.0
996.03,203.0
996.09,191.0
996.16,192.0
996.22,207.0
996.28,203.0
996.34,200.0
996.41,198.0
996.47,191.0
996.53,198.0
996.6,216.0
996.66,195.0
996.72,213.0
996.79,179.0
996.85,180.0
996.91,191.0
996.97,183.0
997.04,195.0
997.1,206.0
997.16,206.0
997.23,203.0
997.29,231.0
997.35,228.0
997.42,230.0
997.48,207.0
997.54,205.0
997.6,218.0
997.67,209.0
997.73,223.0
997.79,216.0
997.86,206.0
997.92,202.0
997.98,203.0
998.05,191.0
998.11,204.0
998.17,211.0
998.23,184.0
998.3,205.0
998.36,196.0
998.42,202.0
998.49,186.0
998.55,188.0
998.61,196.0
998.68,201.0
998.74,189.0
998.8,187.0
998.86,184.0
998.93,172.0
998.99,183.0
999.05,172.0
999.12,155.0
999.18,149.0
999.24,153.0
999.31,147.0
999.37,156.0
999.43,145.0
999.49,146.0
999.56,152.0
999.62,153.0
999.68,150.0
999.75,147.0
999.81,157.0
999.87,171.0
