timestamp,intensity
0,-365.0
0.06,-339.0
0.13,-343.0
0.19,-329.0
0.25,-328.0
0.32,-345.0
0.38,-332.0
0.44,-342.0
0.5,-326.0
0.57,-323.0
0.63,-323.0
0.69,-321.0
0.76,-324.0
0.82,-312.0
0.88,-303.0
0.94,-311.0
1.01,-314.0
1.07,-305.0
1.13,-319.0
1.2,-322.0
1.26,-338.0
1.32,-352.0
1.39,-340.0
1.45,-340.0
1.51,-332.0
1.57,-318.0
1.64,-361.0
1.7,-347.0
1.76,-351.0
1.83,-344.0
1.89,-365.0
1.95,-316.0
2.02,-327.0
2.08,-345.0
2.14,-338.0
2.2,-313.0
2.27,-314.0
2.33,-315.0
2.39,-289.0
2.46,-281.0
2.52,-283.0
2.58,-274.0
2.65,-271.0
2.71,-257.0
2.77,-281.0
2.84,-282.0
2.9,-277.0
2.96,-290.0
3.02,-278.0
3.09,-290.0
3.15,-281.0
3.21,-280.0
3.28,-263.0
3.34,-285.0
3.4,-279.0
3.47,-280.0
3.53,-294.0
3.59,-282.0
3.65,-271.0
3.72,-276.0
3.78,-253.0
3.84,-253.0
3.91,-264.0
3.97,-257.0
4.03,-256.0
4.1,-263.0
4.16,-252.0
4.22,-260.0
4.28,-266.0
4.35,-264.0
4.41,-265.0
4.47,-256.0
4.54,-254.0
4.6,-243.0
4.66,-253.0
4.73,-254.0
4.79,-241.0
4.85,-266.0
4.91,-250.0
4.98,-279.0
5.04,-252.0
5.1,-246.0
5.17,-286.0
5.23,-287.0
5.29,-256.0
5.35,-276.0
5.42,-289.0
5.48,-286.0
5.54,-282.0
5.61,-266.0
5.67,-269.0
5.73,-273.0
5.8,-271.0
5.86,-250.0
5.92,-260.0
5.98,-264.0
6.05,-264.0
6.11,-261.0
6.17,-267.0
6.24,-264.0
6.3,-276.0
6.36,-273.0
6.43,-257.0
6.49,-253.0
6.55,-250.0
6.61,-235.0
6.68,-250.0
6.74,-259.0
6.8,-257.0
6.87,-248.0
6.93,-236.0
6.99,-260.0
7.06,-256.0
7.12,-248.0
7.18,-240.0
7.24,-260.0
7.31,-272.0
7.37,-234.0
7.43,-255.0
7.5,-255.0
7.56,-250.0
7.62,-262.0
7.69,-244.0
7.75,-233.0
7.81,-248.0
7.87,-234.0
7.94,-228.0
8.0,-228.0
8.06,-218.0
8.13,-218.0
8.19,-234.0
8.25,-250.0
8.32,-234.0
8.38,-238.0
8.44,-231.0
8.5,-222.0
8.57,-227.0
8.63,-224.0
8.69,-238.0
8.76,-236.0
8.82,-240.0
8.88,-227.0
8.95,-227.0
9.01,-239.0
9.07,-221.0
9.13,-218.0
9.2,-211.0
9.26,-212.0
9.32,-185.0
9.39,-193.0
9.45,-207.0
9.51,-207.0
9.58,-205.0
9.64,-202.0
9.7,-217.0
9.77,-210.0
9.83,-198.0
9.89,-186.0
9.95,-174.0
10.02,-184.0
10.08,-176.0
10.14,-193.0
10.21,-201.0
10.27,-200.0
10.33,-202.0
10.4,-196.0
10.46,-188.0
10.52,-192.0
10.58,-199.0
10.65,-180.0
10.71,-176.0
10.77,-176.0
10.84,-171.0
10.9,-157.0
10.96,-163.0
11.03,-175.0
11.09,-153.0
11.15,-143.0
11.21,-149.0
11.28,-140.0
11.34,-147.0
11.4,-171.0
11.47,-174.0
11.53,-164.0
11.59,-171.0
11.66,-166.0
11.72,-157.0
11.78,-197.0
11.84,-208.0
11.91,-196.0
11.97,-193.0
12.03,-186.0
12.1,-189.0
12.16,-206.0
12.22,-206.0
12.29,-198.0
12.35,-216.0
12.41,-217.0
12.47,-222.0
12.54,-214.0
12.6,-230.0
12.66,-235.0
12.73,-240.0
12.79,-254.0
12.85,-237.0
12.92,-245.0
12.98,-243.0
13.04,-249.0
13.1,-238.0
13.17,-241.0
13.23,-241.0
13.29,-243.0
13.36,-242.0
13.42,-263.0
13.48,-257.0
13.55,-250.0
13.61,-278.0
13.67,-266.0
13.73,-254.0
13.8,-256.0
13.86,-292.0
13.92,-298.0
13.99,-292.0
14.05,-290.0
14.11,-270.0
14.18,-271.0
14.24,-283.0
14.3,-282.0
14.36,-281.0
14.43,-262.0
14.49,-264.0
14.55,-283.0
14.62,-290.0
14.68,-277.0
14.74,-284.0
14.81,-276.0
14.87,-286.0
14.93,-281.0
14.99,-270.0
15.06,-278.0
15.12,-272.0
15.18,-288.0
15.25,-277.0
15.31,-272.0
15.37,-288.0
15.44,-277.0
15.5,-291.0
15.56,-301.0
15.62,-314.0
15.69,-319.0
15.75,-315.0
15.81,-319.0
15.88,-331.0
15.94,-323.0
16.0,-345.0
16.07,-331.0
16.13,-328.0
16.19,-345.0
16.25,-334.0
16.32,-314.0
16.38,-328.0
16.44,-344.0
16.51,-358.0
16.57,-337.0
16.63,-324.0
16.7,-341.0
16.76,-336.0
16.82,-334.0
16.88,-340.0
16.95,-323.0
17.01,-329.0
17.07,-347.0
17.14,-346.0
17.2,-332.0
17.26,-338.0
17.33,-323.0
17.39,-319.0
17.45,-304.0
17.51,-308.0
17.58,-295.0
17.64,-326.0
17.7,-320.0
17.77,-301.0
17.83,-301.0
17.89,-296.0
17.96,-298.0
18.02,-280.0
18.08,-288.0
18.14,-279.0
18.21,-271.0
18.27,-275.0
18.33,-290.0
18.4,-274.0
18.46,-264.0
18.52,-281.0
18.59,-274.0
18.65,-270.0
18.71,-260.0
18.77,-258.0
18.84,-263.0
18.9,-253.0
18.96,-264.0
19.03,-251.0
19.09,-250.0
19.15,-229.0
19.22,-229.0
19.28,-255.0
19.34,-245.0
19.4,-254.0
19.47,-230.0
19.53,-233.0
19.59,-245.0
19.66,-237.0
19.72,-224.0
19.78,-223.0
19.84,-224.0
19.91,-242.0
19.97,-215.0
20.03,-235.0
20.1,-230.0
20.16,-208.0
20.22,-221.0
20.29,-201.0
20.35,-213.0
20.41,-196.0
20.47,-221.0
20.54,-217.0
20.6,-215.0
20.66,-209.0
20.73,-200.0
20.79,-213.0
20.85,-214.0
20.92,-217.0
20.98,-194.0
21.04,-204.0
21.1,-196.0
21.17,-197.0
21.23,-183.0
21.29,-200.0
21.36,-198.0
21.42,-214.0
21.48,-189.0
21.55,-196.0
21.61,-205.0
21.67,-193.0
21.73,-194.0
21.8,-196.0
21.86,-197.0
21.92,-199.0
21.99,-206.0
22.05,-188.0
22.11,-189.0
22.18,-197.0
22.24,-192.0
22.3,-186.0
22.36,-194.0
22.43,-179.0
22.49,-191.0
22.55,-202.0
22.62,-181.0
22.68,-190.0
22.74,-187.0
22.81,-190.0
22.87,-187.0
22.93,-190.0
22.99,-170.0
23.06,-186.0
23.12,-166.0
23.18,-166.0
23.25,-171.0
23.31,-166.0
23.37,-172.0
23.44,-179.0
23.5,-172.0
23.56,-175.0
23.62,-156.0
23.69,-144.0
23.75,-139.0
23.81,-122.0
23.88,-118.0
23.94,-157.0
24.0,-151.0
24.07,-142.0
24.13,-148.0
24.19,-134.0
24.25,-152.0
24.32,-183.0
24.38,-150.0
24.44,-158.0
24.51,-171.0
24.57,-152.0
24.63,-157.0
24.7,-151.0
24.76,-137.0
24.82,-151.0
24.88,-151.0
24.95,-149.0
25.01,-137.0
25.07,-150.0
25.14,-129.0
25.2,-128.0
25.26,-122.0
25.33,-113.0
25.39,-124.0
25.45,-112.0
25.51,-111.0
25.58,-118.0
25.64,-115.0
25.7,-109.0
25.77,-117.0
25.83,-123.0
25.89,-117.0
25.96,-106.0
26.02,-88.0
26.08,-82.0
26.14,-71.0
26.21,-56.0
26.27,-55.0
26.33,-60.0
26.4,-60.0
26.46,-65.0
26.52,-64.0
26.59,-78.0
26.65,-65.0
26.71,-69.0
26.77,-74.0
26.84,-69.0
26.9,-64.0
26.96,-58.0
27.03,-70.0
27.09,-68.0
27.15,-75.0
27.22,-62.0
27.28,-77.0
27.34,-63.0
27.4,-66.0
27.47,-83.0
27.53,-73.0
27.59,-71.0
27.66,-88.0
27.72,-89.0
27.78,-86.0
27.85,-108.0
27.91,-106.0
27.97,-107.0
28.03,-100.0
28.1,-96.0
28.16,-101.0
28.22,-94.0
28.29,-94.0
28.35,-110.0
28.41,-92.0
28.48,-93.0
28.54,-103.0
28.6,-95.0
28.66,-96.0
28.73,-103.0
28.79,-104.0
28.85,-113.0
28.92,-113.0
28.98,-121.0
29.04,-119.0
29.11,-101.0
29.17,-119.0
29.23,-100.0
29.29,-127.0
29.36,-97.0
29.42,-120.0
29.48,-118.0
29.55,-117.0
29.61,-105.0
29.67,-99.0
29.74,-123.0
29.8,-89.0
29.86,-126.0
29.92,-134.0
29.99,-144.0
30.05,-142.0
30.11,-138.0
30.18,-155.0
30.24,-160.0
30.3,-157.0
30.37,-147.0
30.43,-146.0
30.49,-152.0
30.55,-128.0
30.62,-134.0
30.68,-153.0
30.74,-143.0
30.81,-132.0
30.87,-136.0
30.93,-139.0
31.0,-174.0
31.06,-166.0
31.12,-168.0
31.18,-181.0
31.25,-191.0
31.31,-186.0
31.37,-185.0
31.44,-196.0
31.5,-198.0
31.56,-192.0
31.63,-176.0
31.69,-206.0
31.75,-194.0
31.81,-180.0
31.88,-178.0
31.94,-169.0
32.0,-196.0
32.07,-198.0
32.13,-197.0
32.19,-174.0
32.26,-188.0
32.32,-204.0
32.38,-186.0
32.44,-197.0
32.51,-202.0
32.57,-196.0
32.63,-209.0
32.7,-193.0
32.76,-217.0
32.82,-212.0
32.89,-198.0
32.95,-189.0
33.01,-204.0
33.07,-196.0
33.14,-185.0
33.2,-200.0
33.26,-179.0
33.33,-178.0
33.39,-194.0
33.45,-190.0
33.52,-182.0
33.58,-204.0
33.64,-182.0
33.7,-197.0
33.77,-194.0
33.83,-173.0
33.89,-164.0
33.96,-186.0
34.02,-181.0
34.08,-185.0
34.15,-194.0
34.21,-182.0
34.27,-165.0
34.33,-176.0
34.4,-181.0
34.46,-192.0
34.52,-201.0
34.59,-198.0
34.65,-188.0
34.71,-203.0
34.78,-198.0
34.84,-190.0
34.9,-174.0
34.96,-173.0
35.03,-188.0
35.09,-181.0
35.15,-191.0
35.22,-184.0
35.28,-175.0
35.34,-176.0
35.41,-158.0
35.47,-169.0
35.53,-153.0
35.59,-162.0
35.66,-160.0
35.72,-149.0
35.78,-134.0
35.85,-137.0
35.91,-140.0
35.97,-135.0
36.04,-133.0
36.1,-122.0
36.16,-136.0
36.22,-138.0
36.29,-123.0
36.35,-113.0
36.41,-100.0
36.48,-112.0
36.54,-116.0
36.6,-101.0
36.67,-97.0
36.73,-111.0
36.79,-103.0
36.85,-94.0
36.92,-91.0
36.98,-103.0
37.04,-111.0
37.11,-113.0
37.17,-96.0
37.23,-100.0
37.3,-105.0
37.36,-103.0
37.42,-103.0
37.48,-77.0
37.55,-90.0
37.61,-75.0
37.67,-85.0
37.74,-98.0
37.8,-100.0
37.86,-118.0
37.93,-114.0
37.99,-95.0
38.05,-132.0
38.12,-144.0
38.18,-125.0
38.24,-131.0
38.3,-127.0
38.37,-115.0
38.43,-133.0
38.49,-120.0
38.56,-145.0
38.62,-120.0
38.68,-110.0
38.75,-136.0
38.81,-134.0
38.87,-113.0
38.93,-140.0
39.0,-145.0
39.06,-155.0
39.12,-153.0
39.19,-143.0
39.25,-141.0
39.31,-127.0
39.38,-144.0
39.44,-136.0
39.5,-132.0
39.56,-139.0
39.63,-133.0
39.69,-133.0
39.75,-132.0
39.82,-138.0
39.88,-132.0
39.94,-122.0
40.01,-148.0
40.07,-140.0
40.13,-134.0
40.19,-137.0
40.26,-134.0
40.32,-131.0
40.38,-126.0
40.45,-141.0
40.51,-118.0
40.57,-121.0
40.64,-119.0
40.7,-128.0
40.76,-115.0
40.82,-121.0
40.89,-103.0
40.95,-100.0
41.01,-101.0
41.08,-105.0
41.14,-85.0
41.2,-94.0
41.27,-93.0
41.33,-83.0
41.39,-101.0
41.45,-94.0
41.52,-96.0
41.58,-103.0
41.64,-109.0
41.71,-105.0
41.77,-96.0
41.83,-111.0
41.9,-97.0
41.96,-124.0
42.02,-127.0
42.08,-104.0
42.15,-133.0
42.21,-115.0
42.27,-118.0
42.34,-87.0
42.4,-114.0
42.46,-117.0
42.53,-98.0
42.59,-96.0
42.65,-89.0
42.71,-83.0
42.78,-84.0
42.84,-93.0
42.9,-79.0
42.97,-70.0
43.03,-68.0
43.09,-75.0
43.16,-70.0
43.22,-45.0
43.28,-64.0
43.34,-50.0
43.41,-64.0
43.47,-67.0
43.53,-59.0
43.6,-55.0
43.66,-37.0
43.72,-44.0
43.79,-51.0
43.85,-30.0
43.91,-56.0
43.97,-37.0
44.04,-45.0
44.1,-44.0
44.16,-47.0
44.23,-39.0
44.29,-33.0
44.35,-35.0
44.42,-39.0
44.48,-48.0
44.54,-40.0
44.6,-47.0
44.67,-35.0
44.73,-34.0
44.79,-32.0
44.86,-32.0
44.92,-45.0
44.98,-56.0
45.05,-42.0
45.11,-40.0
45.17,-36.0
45.23,-40.0
45.3,-47.0
45.36,-60.0
45.42,-58.0
45.49,-50.0
45.55,-40.0
45.61,-51.0
45.68,-33.0
45.74,-23.0
45.8,-43.0
45.86,-43.0
45.93,-39.0
45.99,-42.0
46.05,-36.0
46.12,-29.0
46.18,-42.0
46.24,-46.0
46.31,-42.0
46.37,-38.0
46.43,-48.0
46.49,-49.0
46.56,-34.0
46.62,-37.0
46.68,-38.0
46.75,-47.0
46.81,-50.0
46.87,-64.0
46.94,-49.0
47.0,-44.0
47.06,-71.0
47.12,-50.0
47.19,-46.0
47.25,-64.0
47.31,-79.0
47.38,-72.0
47.44,-81.0
47.5,-63.0
47.57,-68.0
47.63,-69.0
47.69,-71.0
47.75,-62.0
47.82,-70.0
47.88,-66.0
47.94,-64.0
48.01,-69.0
48.07,-84.0
48.13,-96.0
48.2,-92.0
48.26,-102.0
48.32,-99.0
48.38,-71.0
48.45,-101.0
48.51,-95.0
48.57,-92.0
48.64,-112.0
48.7,-101.0
48.76,-97.0
48.83,-106.0
48.89,-109.0
48.95,-100.0
49.01,-110.0
49.08,-119.0
49.14,-109.0
49.2,-125.0
49.27,-115.0
49.33,-103.0
49.39,-116.0
49.46,-113.0
49.52,-118.0
49.58,-119.0
49.64,-129.0
49.71,-138.0
49.77,-134.0
49.83,-123.0
49.9,-118.0
49.96,-135.0
50.02,-130.0
50.09,-100.0
50.15,-108.0
50.21,-120.0
50.27,-115.0
50.34,-108.0
50.4,-114.0
50.46,-110.0
50.53,-96.0
50.59,-88.0
50.65,-82.0
50.72,-103.0
50.78,-100.0
50.84,-103.0
50.9,-86.0
50.97,-88.0
51.03,-88.0
51.09,-121.0
51.16,-93.0
51.22,-75.0
51.28,-104.0
51.35,-92.0
51.41,-98.0
51.47,-79.0
51.53,-64.0
51.6,-64.0
51.66,-56.0
51.72,-37.0
51.79,-48.0
51.85,-42.0
51.91,-43.0
51.98,-62.0
52.04,-68.0
52.1,-64.0
52.16,-58.0
52.23,-41.0
52.29,-41.0
52.35,-12.0
52.42,-20.0
52.48,-33.0
52.54,-28.0
52.61,-8.0
52.67,-21.0
52.73,-51.0
52.79,-33.0
52.86,-35.0
52.92,-67.0
52.98,-43.0
53.05,-33.0
53.11,-50.0
53.17,-35.0
53.24,-51.0
53.3,-47.0
53.36,-39.0
53.42,-58.0
53.49,-57.0
53.55,-50.0
53.61,-40.0
53.68,-34.0
53.74,-26.0
53.8,-28.0
53.87,-41.0
53.93,-54.0
53.99,-35.0
54.05,-37.0
54.12,-39.0
54.18,-58.0
54.24,-32.0
54.31,-24.0
54.37,-47.0
54.43,-50.0
54.5,-71.0
54.56,-62.0
54.62,-63.0
54.68,-59.0
54.75,-48.0
54.81,-45.0
54.87,-28.0
54.94,-29.0
55.0,-45.0
55.06,-37.0
55.13,-48.0
55.19,-37.0
55.25,-38.0
55.31,-40.0
55.38,-54.0
55.44,-38.0
55.5,-25.0
55.57,-33.0
55.63,-64.0
55.69,-70.0
55.76,-52.0
55.82,-68.0
55.88,-49.0
55.94,-55.0
56.01,-76.0
56.07,-69.0
56.13,-76.0
56.2,-76.0
56.26,-85.0
56.32,-70.0
56.39,-86.0
56.45,-81.0
56.51,-96.0
56.57,-93.0
56.64,-77.0
56.7,-62.0
56.76,-63.0
56.83,-68.0
56.89,-88.0
56.95,-70.0
57.02,-75.0
57.08,-88.0
57.14,-95.0
57.2,-93.0
57.27,-86.0
57.33,-99.0
57.39,-85.0
57.46,-70.0
57.52,-60.0
57.58,-56.0
57.65,-83.0
57.71,-73.0
57.77,-70.0
57.83,-74.0
57.9,-72.0
57.96,-78.0
58.02,-66.0
58.09,-68.0
58.15,-53.0
58.21,-56.0
58.28,-62.0
58.34,-50.0
58.4,-59.0
58.46,-77.0
58.53,-54.0
58.59,-46.0
58.65,-31.0
58.72,-29.0
58.78,-41.0
58.84,-62.0
58.91,-49.0
58.97,-58.0
59.03,-57.0
59.09,-53.0
59.16,-39.0
59.22,-54.0
59.28,-73.0
59.35,-77.0
59.41,-74.0
59.47,-74.0
59.54,-74.0
59.6,-48.0
59.66,-73.0
59.72,-64.0
59.79,-47.0
59.85,-49.0
59.91,-44.0
59.98,-48.0
60.04,-19.0
60.1,-39.0
60.17,-37.0
60.23,-18.0
60.29,-19.0
60.35,-2.0
60.42,0.0
60.48,-30.0
60.54,-13.0
60.61,-10.0
60.67,-18.0
60.73,-29.0
60.8,-22.0
60.86,-19.0
60.92,-1.0
60.98,-10.0
61.05,-5.0
61.11,-23.0
61.17,-30.0
61.24,-1.0
61.3,-5.0
61.36,-16.0
61.43,-23.0
61.49,-13.0
61.55,-11.0
61.61,12.0
61.68,-2.0
61.74,-11.0
61.8,-8.0
61.87,15.0
61.93,9.0
61.99,1.0
62.06,-14.0
62.12,15.0
62.18,14.0
62.24,-14.0
62.31,19.0
62.37,-6.0
62.43,-15.0
62.5,0.0
62.56,10.0
62.62,8.0
62.69,10.0
62.75,7.0
62.81,7.0
62.87,-1.0
62.94,9.0
63.0,1.0
63.06,-2.0
63.13,-2.0
63.19,5.0
63.25,2.0
63.32,-7.0
63.38,-19.0
63.44,-12.0
63.5,-20.0
63.57,-19.0
63.63,-2.0
63.69,-29.0
63.76,-28.0
63.82,-11.0
63.88,-3.0
63.95,-1.0
64.01,-5.0
64.07,-11.0
64.13,-26.0
64.2,-33.0
64.26,-21.0
64.32,-31.0
64.39,-20.0
64.45,-23.0
64.51,-25.0
64.58,-15.0
64.64,-23.0
64.7,-28.0
64.76,-33.0
64.83,-22.0
64.89,-39.0
64.95,-29.0
65.02,-48.0
65.08,-44.0
65.14,-57.0
65.21,-48.0
65.27,-29.0
65.33,-46.0
65.39,-17.0
65.46,-28.0
65.52,-38.0
65.58,-51.0
65.65,-43.0
65.71,-43.0
65.77,-71.0
65.84,-64.0
65.9,-56.0
65.96,-70.0
66.02,-74.0
66.09,-68.0
66.15,-64.0
66.21,-63.0
66.28,-63.0
66.34,-64.0
66.4,-59.0
66.47,-63.0
66.53,-58.0
66.59,-81.0
66.65,-72.0
66.72,-74.0
66.78,-94.0
66.84,-106.0
66.91,-98.0
66.97,-96.0
67.03,-100.0
67.1,-111.0
67.16,-116.0
67.22,-124.0
67.28,-95.0
67.35,-101.0
67.41,-85.0
67.47,-93.0
67.54,-78.0
67.6,-74.0
67.66,-114.0
67.73,-88.0
67.79,-101.0
67.85,-79.0
67.91,-89.0
67.98,-83.0
68.04,-78.0
68.1,-92.0
68.17,-74.0
68.23,-73.0
68.29,-90.0
68.36,-60.0
68.42,-57.0
68.48,-50.0
68.54,-48.0
68.61,-69.0
68.67,-57.0
68.73,-61.0
68.8,-64.0
68.86,-60.0
68.92,-56.0
68.99,-44.0
69.05,-30.0
69.11,-45.0
69.17,-62.0
69.24,-61.0
69.3,-53.0
69.36,-59.0
69.43,-52.0
69.49,-22.0
69.55,-37.0
69.62,-43.0
69.68,-26.0
69.74,-7.0
69.8,-22.0
69.87,-31.0
69.93,-23.0
69.99,-20.0
70.06,-40.0
70.12,-50.0
70.18,-44.0
70.25,-41.0
70.31,-22.0
70.37,-21.0
70.43,-8.0
70.5,-19.0
70.56,-6.0
70.62,-2.0
70.69,15.0
70.75,-1.0
70.81,5.0
70.88,-28.0
70.94,-33.0
71.0,-16.0
71.06,-5.0
71.13,-5.0
71.19,-7.0
71.25,-11.0
71.32,-12.0
71.38,-8.0
71.44,-14.0
71.51,-6.0
71.57,-29.0
71.63,-4.0
71.69,-13.0
71.76,4.0
71.82,9.0
71.88,2.0
71.95,-7.0
72.01,-16.0
72.07,-3.0
72.14,-13.0
72.2,-11.0
72.26,-27.0
72.32,-21.0
72.39,-25.0
72.45,-9.0
72.51,-11.0
72.58,-11.0
72.64,-24.0
72.7,-22.0
72.77,-24.0
72.83,-22.0
72.89,-27.0
72.95,-32.0
73.02,-36.0
73.08,-45.0
73.14,-67.0
73.21,-32.0
73.27,-42.0
73.33,-60.0
73.4,-39.0
73.46,-33.0
73.52,-42.0
73.58,-47.0
73.65,-57.0
73.71,-56.0
73.77,-78.0
73.84,-73.0
73.9,-59.0
73.96,-93.0
74.03,-81.0
74.09,-72.0
74.15,-60.0
74.21,-79.0
74.28,-69.0
74.34,-71.0
74.4,-64.0
74.47,-62.0
74.53,-72.0
74.59,-91.0
74.66,-60.0
74.72,-55.0
74.78,-63.0
74.84,-65.0
74.91,-60.0
74.97,-47.0
75.03,-54.0
75.1,-51.0
75.16,-93.0
75.22,-56.0
75.29,-72.0
75.35,-56.0
75.41,-60.0
75.47,-77.0
75.54,-74.0
75.6,-83.0
75.66,-76.0
75.73,-80.0
75.79,-83.0
75.85,-70.0
75.92,-75.0
75.98,-56.0
76.04,-39.0
76.1,-49.0
76.17,-39.0
76.23,-35.0
76.29,-29.0
76.36,-24.0
76.42,-24.0
76.48,-34.0
76.55,-38.0
76.61,-34.0
76.67,-25.0
76.73,-30.0
76.8,-24.0
76.86,-14.0
76.92,-25.0
76.99,-5.0
77.05,-19.0
77.11,-28.0
77.18,9.0
77.24,11.0
77.3,16.0
77.36,12.0
77.43,2.0
77.49,9.0
77.55,-4.0
77.62,-3.0
77.68,-3.0
77.74,6.0
77.81,18.0
77.87,30.0
77.93,28.0
77.99,21.0
78.06,25.0
78.12,22.0
78.18,14.0
78.25,50.0
78.31,47.0
78.37,25.0
78.44,41.0
78.5,52.0
78.56,60.0
78.62,35.0
78.69,51.0
78.75,47.0
78.81,45.0
78.88,28.0
78.94,42.0
79.0,61.0
79.07,51.0
79.13,48.0
79.19,54.0
79.25,61.0
79.32,52.0
79.38,47.0
79.44,43.0
79.51,56.0
79.57,62.0
79.63,61.0
79.7,70.0
79.76,73.0
79.82,65.0
79.88,73.0
79.95,72.0
80.01,58.0
80.07,62.0
80.14,72.0
80.2,71.0
80.26,83.0
80.33,76.0
80.39,90.0
80.45,88.0
80.51,96.0
80.58,91.0
80.64,94.0
80.7,107.0
80.77,126.0
80.83,93.0
80.89,84.0
80.96,72.0
81.02,83.0
81.08,94.0
81.14,87.0
81.21,95.0
81.27,87.0
81.33,121.0
81.4,102.0
81.46,88.0
81.52,82.0
81.59,76.0
81.65,86.0
81.71,72.0
81.77,63.0
81.84,66.0
81.9,69.0
81.96,80.0
82.03,57.0
82.09,60.0
82.15,72.0
82.22,65.0
82.28,67.0
82.34,54.0
82.4,40.0
82.47,53.0
82.53,55.0
82.59,40.0
82.66,52.0
82.72,67.0
82.78,55.0
82.85,38.0
82.91,62.0
82.97,60.0
83.03,33.0
83.1,32.0
83.16,22.0
83.22,19.0
83.29,13.0
83.35,8.0
83.41,19.0
83.48,12.0
83.54,19.0
83.6,11.0
83.66,15.0
83.73,24.0
83.79,13.0
83.85,6.0
83.92,-5.0
83.98,17.0
84.04,20.0
84.11,4.0
84.17,2.0
84.23,10.0
84.29,17.0
84.36,20.0
84.42,13.0
84.48,7.0
84.55,12.0
84.61,-6.0
84.67,3.0
84.74,10.0
84.8,-1.0
84.86,8.0
84.92,35.0
84.99,22.0
85.05,23.0
85.11,30.0
85.18,38.0
85.24,13.0
85.3,17.0
85.37,22.0
85.43,21.0
85.49,14.0
85.55,29.0
85.62,41.0
85.68,41.0
85.74,45.0
85.81,48.0
85.87,46.0
85.93,38.0
86.0,41.0
86.06,52.0
86.12,51.0
86.18,51.0
86.25,45.0
86.31,45.0
86.37,44.0
86.44,39.0
86.5,57.0
86.56,50.0
86.63,44.0
86.69,35.0
86.75,34.0
86.81,50.0
86.88,50.0
86.94,39.0
87.0,43.0
87.07,34.0
87.13,20.0
87.19,35.0
87.26,48.0
87.32,47.0
87.38,61.0
87.44,49.0
87.51,52.0
87.57,56.0
87.63,77.0
87.7,78.0
87.76,85.0
87.82,64.0
87.89,56.0
87.95,89.0
88.01,66.0
88.07,88.0
88.14,77.0
88.2,64.0
88.26,59.0
88.33,57.0
88.39,83.0
88.45,56.0
88.52,41.0
88.58,48.0
88.64,33.0
88.7,44.0
88.77,40.0
88.83,23.0
88.89,29.0
88.96,38.0
89.02,49.0
89.08,43.0
89.15,32.0
89.21,27.0
89.27,12.0
89.33,9.0
89.4,34.0
89.46,-5.0
89.52,16.0
89.59,3.0
89.65,3.0
89.71,6.0
89.78,-2.0
89.84,10.0
89.9,7.0
89.96,5.0
90.03,-6.0
90.09,2.0
90.15,-4.0
90.22,-7.0
90.28,12.0
90.34,1.0
90.41,-6.0
90.47,7.0
90.53,-16.0
90.59,-15.0
90.66,-5.0
90.72,0.0
90.78,-13.0
90.85,-5.0
90.91,5.0
90.97,0.0
91.04,0.0
91.1,-14.0
91.16,-24.0
91.22,-18.0
91.29,-15.0
91.35,1.0
91.41,12.0
91.48,2.0
91.54,-7.0
91.6,-3.0
91.67,-9.0
91.73,11.0
91.79,26.0
91.85,-3.0
91.92,10.0
91.98,33.0
92.04,19.0
92.11,6.0
92.17,-2.0
92.23,17.0
92.3,30.0
92.36,31.0
92.42,20.0
92.48,20.0
92.55,24.0
92.61,28.0
92.67,35.0
92.74,52.0
92.8,53.0
92.86,64.0
92.93,63.0
92.99,40.0
93.05,52.0
93.11,61.0
93.18,61.0
93.24,50.0
93.3,78.0
93.37,66.0
93.43,60.0
93.49,92.0
93.56,68.0
93.62,50.0
93.68,67.0
93.74,65.0
93.81,83.0
93.87,68.0
93.93,73.0
94.0,68.0
94.06,75.0
94.12,63.0
94.19,68.0
94.25,75.0
94.31,98.0
94.37,91.0
94.44,79.0
94.5,102.0
94.56,76.0
94.63,102.0
94.69,112.0
94.75,106.0
94.82,103.0
94.88,118.0
94.94,128.0
95.0,123.0
95.07,129.0
95.13,123.0
95.19,124.0
95.26,114.0
95.32,105.0
95.38,124.0
95.45,116.0
95.51,122.0
95.57,122.0
95.63,125.0
95.7,118.0
95.76,125.0
95.82,136.0
95.89,123.0
95.95,137.0
96.01,137.0
96.08,132.0
96.14,152.0
96.2,135.0
96.26,150.0
96.33,145.0
96.39,144.0
96.45,143.0
96.52,141.0
96.58,121.0
96.64,118.0
96.71,140.0
96.77,134.0
96.83,155.0
96.89,137.0
96.96,140.0
97.02,163.0
97.08,149.0
97.15,143.0
97.21,141.0
97.27,141.0
97.34,131.0
97.4,147.0
97.46,137.0
97.52,129.0
97.59,127.0
97.65,135.0
97.71,116.0
97.78,130.0
97.84,116.0
97.9,123.0
97.97,140.0
98.03,119.0
98.09,121.0
98.15,117.0
98.22,130.0
98.28,141.0
98.34,143.0
98.41,136.0
98.47,132.0
98.53,133.0
98.6,132.0
98.66,116.0
98.72,120.0
98.78,105.0
98.85,94.0
98.91,110.0
98.97,108.0
99.04,92.0
99.1,82.0
99.16,73.0
99.23,90.0
99.29,72.0
99.35,74.0
99.41,54.0
99.48,61.0
99.54,52.0
99.6,36.0
99.67,34.0
99.73,41.0
99.79,52.0
99.86,36.0
99.92,2.0
99.98,28.0
100.04,25.0
100.11,12.0
100.17,18.0
100.23,18.0
100.3,13.0
100.36,7.0
100.42,7.0
100.49,0.0
100.55,16.0
100.61,-5.0
100.67,6.0
100.74,-20.0
100.8,-27.0
100.86,-25.0
100.93,-16.0
100.99,-42.0
101.05,-35.0
101.12,-47.0
101.18,-44.0
101.24,-59.0
101.3,-57.0
101.37,-39.0
101.43,-63.0
101.49,-57.0
101.56,-43.0
101.62,-56.0
101.68,-48.0
101.75,-33.0
101.81,-41.0
101.87,-40.0
101.93,-49.0
102.0,-41.0
102.06,-56.0
102.12,-53.0
102.19,-46.0
102.25,-45.0
102.31,-35.0
102.38,-21.0
102.44,-37.0
102.5,-35.0
102.56,-26.0
102.63,-42.0
102.69,-48.0
102.75,-65.0
102.82,-42.0
102.88,-38.0
102.94,-61.0
103.01,-43.0
103.07,-60.0
103.13,-25.0
103.19,-28.0
103.26,-46.0
103.32,-29.0
103.38,-44.0
103.45,-13.0
103.51,-22.0
103.57,-35.0
103.64,-30.0
103.7,-18.0
103.76,-16.0
103.82,-16.0
103.89,-21.0
103.95,-27.0
104.01,-16.0
104.08,-20.0
104.14,-36.0
104.2,-45.0
104.27,-48.0
104.33,-27.0
104.39,-39.0
104.45,-28.0
104.52,-21.0
104.58,-19.0
104.64,-3.0
104.71,-12.0
104.77,-25.0
104.83,-23.0
104.9,-26.0
104.96,-24.0
105.02,-36.0
105.08,-19.0
105.15,-30.0
105.21,-20.0
105.27,-18.0
105.34,-42.0
105.4,-32.0
105.46,-20.0
105.53,-24.0
105.59,-12.0
105.65,-15.0
105.71,-19.0
105.78,-10.0
105.84,-21.0
105.9,-5.0
105.97,-7.0
106.03,-14.0
106.09,-9.0
106.16,-7.0
106.22,-13.0
106.28,-2.0
106.34,-25.0
106.41,-29.0
106.47,-34.0
106.53,-28.0
106.6,-28.0
106.66,-22.0
106.72,-21.0
106.79,-43.0
106.85,-34.0
106.91,-35.0
106.97,-42.0
107.04,-30.0
107.1,-17.0
107.16,-21.0
107.23,-37.0
107.29,-37.0
107.35,-39.0
107.42,-44.0
107.48,-52.0
107.54,-49.0
107.6,-42.0
107.67,-53.0
107.73,-32.0
107.79,-12.0
107.86,-19.0
107.92,-30.0
107.98,-35.0
108.05,-27.0
108.11,-33.0
108.17,-45.0
108.23,-43.0
108.3,-25.0
108.36,-25.0
108.42,-19.0
108.49,4.0
108.55,-2.0
108.61,-4.0
108.68,-7.0
108.74,9.0
108.8,12.0
108.86,-3.0
108.93,16.0
108.99,1.0
109.05,25.0
109.12,18.0
109.18,8.0
109.24,16.0
109.31,-6.0
109.37,13.0
109.43,11.0
109.49,26.0
109.56,30.0
109.62,37.0
109.68,1.0
109.75,24.0
109.81,46.0
109.87,10.0
109.94,34.0
110.0,32.0
110.06,37.0
110.12,51.0
110.19,57.0
110.25,40.0
110.31,37.0
110.38,46.0
110.44,68.0
110.5,63.0
110.57,70.0
110.63,70.0
110.69,68.0
110.75,85.0
110.82,88.0
110.88,83.0
110.94,92.0
111.01,94.0
111.07,80.0
111.13,91.0
111.2,111.0
111.26,103.0
111.32,85.0
111.38,75.0
111.45,93.0
111.51,97.0
111.57,82.0
111.64,89.0
111.7,96.0
111.76,111.0
111.83,104.0
111.89,106.0
111.95,107.0
112.01,121.0
112.08,115.0
112.14,120.0
112.2,108.0
112.27,129.0
112.33,139.0
112.39,110.0
112.46,126.0
112.52,131.0
112.58,121.0
112.64,129.0
112.71,125.0
112.77,133.0
112.83,144.0
112.9,158.0
112.96,160.0
113.02,161.0
113.09,158.0
113.15,169.0
113.21,172.0
113.27,181.0
113.34,161.0
113.4,163.0
113.46,173.0
113.53,183.0
113.59,185.0
113.65,183.0
113.72,171.0
113.78,187.0
113.84,188.0
113.9,165.0
113.97,190.0
114.03,198.0
114.09,173.0
114.16,211.0
114.22,223.0
114.28,189.0
114.35,184.0
114.41,195.0
114.47,210.0
114.53,194.0
114.6,189.0
114.66,213.0
114.72,190.0
114.79,188.0
114.85,193.0
114.91,177.0
114.98,161.0
115.04,164.0
115.1,166.0
115.16,166.0
115.23,153.0
115.29,155.0
115.35,153.0
115.42,146.0
115.48,155.0
115.54,159.0
115.61,157.0
115.67,138.0
115.73,121.0
115.79,140.0
115.86,114.0
115.92,117.0
115.98,119.0
116.05,112.0
116.11,92.0
116.17,83.0
116.24,88.0
116.3,94.0
116.36,74.0
116.42,63.0
116.49,85.0
116.55,86.0
116.61,77.0
116.68,70.0
116.74,62.0
116.8,70.0
116.87,73.0
116.93,51.0
116.99,52.0
117.05,63.0
117.12,59.0
117.18,61.0
117.24,71.0
117.31,68.0
117.37,52.0
117.43,58.0
117.5,54.0
117.56,40.0
117.62,62.0
117.68,43.0
117.75,49.0
117.81,40.0
117.87,60.0
117.94,58.0
118.0,77.0
118.06,72.0
118.13,63.0
118.19,55.0
118.25,48.0
118.31,50.0
118.38,47.0
118.44,43.0
118.5,64.0
118.57,57.0
118.63,52.0
118.69,38.0
118.76,35.0
118.82,56.0
118.88,23.0
118.94,20.0
119.01,7.0
119.07,5.0
119.13,-5.0
119.2,14.0
119.26,14.0
119.32,-2.0
119.39,6.0
119.45,13.0
119.51,11.0
119.57,2.0
119.64,22.0
119.7,21.0
119.76,13.0
119.83,30.0
119.89,17.0
119.95,-2.0
120.02,21.0
120.08,2.0
120.14,18.0
120.2,5.0
120.27,12.0
120.33,13.0
120.39,27.0
120.46,34.0
120.52,25.0
120.58,28.0
120.65,35.0
120.71,27.0
120.77,20.0
120.83,28.0
120.9,22.0
120.96,27.0
121.02,24.0
121.09,41.0
121.15,34.0
121.21,36.0
121.28,50.0
121.34,41.0
121.4,46.0
121.46,54.0
121.53,55.0
121.59,58.0
121.65,41.0
121.72,39.0
121.78,50.0
121.84,35.0
121.91,40.0
121.97,31.0
122.03,25.0
122.09,32.0
122.16,27.0
122.22,24.0
122.28,28.0
122.35,31.0
122.41,27.0
122.47,28.0
122.54,33.0
122.6,29.0
122.66,33.0
122.72,31.0
122.79,37.0
122.85,33.0
122.91,37.0
122.98,21.0
123.04,7.0
123.1,16.0
123.17,13.0
123.23,17.0
123.29,-15.0
123.35,-11.0
123.42,-3.0
123.48,3.0
123.54,-4.0
123.61,4.0
123.67,-6.0
123.73,-5.0
123.8,-12.0
123.86,-26.0
123.92,-14.0
123.98,-23.0
124.05,-11.0
124.11,-6.0
124.17,-6.0
124.24,-16.0
124.3,-15.0
124.36,-10.0
124.43,-5.0
124.49,-21.0
124.55,-29.0
124.61,-32.0
124.68,-29.0
124.74,-32.0
124.8,-51.0
124.87,-42.0
124.93,-27.0
124.99,-30.0
125.06,-30.0
125.12,-9.0
125.18,-14.0
125.24,-20.0
125.31,-22.0
125.37,6.0
125.43,7.0
125.5,9.0
125.56,-10.0
125.62,-1.0
125.69,11.0
125.75,9.0
125.81,-4.0
125.87,10.0
125.94,-28.0
126.0,4.0
126.06,3.0
126.13,-14.0
126.19,0.0
126.25,13.0
126.32,4.0
126.38,7.0
126.44,7.0
126.5,14.0
126.57,8.0
126.63,19.0
126.69,11.0
126.76,9.0
126.82,33.0
126.88,23.0
126.95,7.0
127.01,4.0
127.07,28.0
127.13,29.0
127.2,23.0
127.26,23.0
127.32,20.0
127.39,29.0
127.45,26.0
127.51,27.0
127.58,29.0
127.64,30.0
127.7,11.0
127.76,4.0
127.83,5.0
127.89,16.0
127.95,17.0
128.02,37.0
128.08,35.0
128.14,44.0
128.21,32.0
128.27,43.0
128.33,56.0
128.39,58.0
128.46,69.0
128.52,45.0
128.58,56.0
128.65,55.0
128.71,60.0
128.77,39.0
128.84,48.0
128.9,60.0
128.96,84.0
129.02,96.0
129.09,72.0
129.15,76.0
129.21,94.0
129.28,105.0
129.34,106.0
129.4,79.0
129.47,95.0
129.53,106.0
129.59,107.0
129.65,89.0
129.72,81.0
129.78,103.0
129.84,82.0
129.91,92.0
129.97,85.0
130.03,98.0
130.1,110.0
130.16,119.0
130.22,110.0
130.28,117.0
130.35,121.0
130.41,92.0
130.47,110.0
130.54,92.0
130.6,89.0
130.66,95.0
130.73,106.0
130.79,92.0
130.85,79.0
130.91,98.0
130.98,97.0
131.04,75.0
131.1,97.0
131.17,97.0
131.23,103.0
131.29,102.0
131.36,109.0
131.42,130.0
131.48,105.0
131.54,117.0
131.61,127.0
131.67,120.0
131.73,108.0
131.8,112.0
131.86,124.0
131.92,110.0
131.99,114.0
132.05,132.0
132.11,117.0
132.17,121.0
132.24,139.0
132.3,140.0
132.36,125.0
132.43,129.0
132.49,116.0
132.55,128.0
132.62,125.0
132.68,112.0
132.74,96.0
132.8,102.0
132.87,119.0
132.93,114.0
132.99,112.0
133.06,97.0
133.12,105.0
133.18,116.0
133.25,109.0
133.31,99.0
133.37,95.0
133.43,94.0
133.5,97.0
133.56,93.0
133.62,76.0
133.69,59.0
133.75,64.0
133.81,76.0
133.88,76.0
133.94,83.0
134.0,79.0
134.06,66.0
134.13,67.0
134.19,67.0
134.25,49.0
134.32,61.0
134.38,55.0
134.44,51.0
134.51,52.0
134.57,31.0
134.63,38.0
134.69,39.0
134.76,53.0
134.82,49.0
134.88,51.0
134.95,39.0
135.01,28.0
135.07,37.0
135.14,45.0
135.2,33.0
135.26,59.0
135.32,28.0
135.39,43.0
135.45,51.0
135.51,60.0
135.58,72.0
135.64,39.0
135.7,50.0
135.77,63.0
135.83,58.0
135.89,62.0
135.95,60.0
136.02,60.0
136.08,52.0
136.14,43.0
136.21,65.0
136.27,61.0
136.33,61.0
136.4,62.0
136.46,78.0
136.52,67.0
136.58,41.0
136.65,43.0
136.71,55.0
136.77,44.0
136.84,55.0
136.9,60.0
136.96,81.0
137.03,63.0
137.09,41.0
137.15,59.0
137.21,77.0
137.28,78.0
137.34,77.0
137.4,68.0
137.47,73.0
137.53,56.0
137.59,65.0
137.66,86.0
137.72,77.0
137.78,81.0
137.84,79.0
137.91,61.0
137.97,67.0
138.03,66.0
138.1,67.0
138.16,64.0
138.22,61.0
138.29,61.0
138.35,67.0
138.41,77.0
138.47,89.0
138.54,91.0
138.6,92.0
138.66,84.0
138.73,107.0
138.79,113.0
138.85,99.0
138.92,94.0
138.98,93.0
139.04,96.0
139.1,94.0
139.17,77.0
139.23,100.0
139.29,100.0
139.36,121.0
139.42,114.0
139.48,103.0
139.55,105.0
139.61,103.0
139.67,100.0
139.73,111.0
139.8,96.0
139.86,78.0
139.92,95.0
139.99,98.0
140.05,89.0
140.11,95.0
140.18,101.0
140.24,96.0
140.3,86.0
140.36,85.0
140.43,103.0
140.49,108.0
140.55,111.0
140.62,89.0
140.68,77.0
140.74,97.0
140.81,106.0
140.87,86.0
140.93,99.0
140.99,95.0
141.06,98.0
141.12,114.0
141.18,84.0
141.25,88.0
141.31,81.0
141.37,82.0
141.44,74.0
141.5,78.0
141.56,88.0
141.62,79.0
141.69,72.0
141.75,62.0
141.81,64.0
141.88,78.0
141.94,72.0
142.0,70.0
142.07,64.0
142.13,81.0
142.19,85.0
142.25,86.0
142.32,70.0
142.38,71.0
142.44,78.0
142.51,74.0
142.57,77.0
142.63,45.0
142.7,59.0
142.76,61.0
142.82,50.0
142.88,74.0
142.95,73.0
143.01,78.0
143.07,84.0
143.14,93.0
143.2,99.0
143.26,80.0
143.33,88.0
143.39,92.0
143.45,98.0
143.51,96.0
143.58,108.0
143.64,113.0
143.7,113.0
143.77,105.0
143.83,90.0
143.89,104.0
143.96,124.0
144.02,124.0
144.08,104.0
144.14,106.0
144.21,102.0
144.27,105.0
144.33,117.0
144.4,98.0
144.46,98.0
144.52,69.0
144.59,101.0
144.65,103.0
144.71,107.0
144.77,92.0
144.84,110.0
144.9,116.0
144.96,125.0
145.03,132.0
145.09,135.0
145.15,138.0
145.22,122.0
145.28,131.0
145.34,122.0
145.4,130.0
145.47,127.0
145.53,121.0
145.59,127.0
145.66,147.0
145.72,135.0
145.78,132.0
145.85,105.0
145.91,113.0
145.97,127.0
146.03,105.0
146.1,126.0
146.16,136.0
146.22,132.0
146.29,154.0
146.35,153.0
146.41,148.0
146.47,153.0
146.54,170.0
146.6,178.0
146.66,158.0
146.73,172.0
146.79,165.0
146.85,156.0
146.92,167.0
146.98,178.0
147.04,184.0
147.1,187.0
147.17,179.0
147.23,160.0
147.29,184.0
147.36,179.0
147.42,182.0
147.48,192.0
147.55,187.0
147.61,199.0
147.67,197.0
147.73,187.0
147.8,189.0
147.86,186.0
147.92,169.0
147.99,173.0
148.05,180.0
148.11,181.0
148.18,173.0
148.24,172.0
148.3,185.0
148.36,197.0
148.43,189.0
148.49,173.0
148.55,173.0
148.62,149.0
148.68,163.0
148.74,157.0
148.81,159.0
148.87,153.0
148.93,157.0
148.99,156.0
149.06,169.0
149.12,152.0
149.18,154.0
149.25,173.0
149.31,167.0
149.37,162.0
149.44,152.0
149.5,157.0
149.56,139.0
149.62,132.0
149.69,133.0
149.75,118.0
149.81,109.0
149.88,129.0
149.94,130.0
150.0,127.0
150.07,112.0
150.13,132.0
150.19,132.0
150.25,121.0
150.32,120.0
150.38,117.0
150.44,106.0
150.51,99.0
150.57,99.0
150.63,96.0
150.7,94.0
150.76,83.0
150.82,105.0
150.88,85.0
150.95,79.0
151.01,97.0
151.07,88.0
151.14,81.0
151.2,86.0
151.26,80.0
151.33,56.0
151.39,58.0
151.45,83.0
151.51,72.0
151.58,73.0
151.64,92.0
151.7,69.0
151.77,59.0
151.83,55.0
151.89,80.0
151.96,51.0
152.02,51.0
152.08,51.0
152.14,61.0
152.21,72.0
152.27,55.0
152.33,45.0
152.4,62.0
152.46,51.0
152.52,58.0
152.59,66.0
152.65,48.0
152.71,48.0
152.77,48.0
152.84,57.0
152.9,33.0
152.96,80.0
153.03,62.0
153.09,59.0
153.15,63.0
153.22,39.0
153.28,44.0
153.34,51.0
153.4,55.0
153.47,48.0
153.53,46.0
153.59,62.0
153.66,71.0
153.72,53.0
153.78,58.0
153.85,81.0
153.91,86.0
153.97,75.0
154.03,80.0
154.1,74.0
154.16,94.0
154.22,83.0
154.29,87.0
154.35,97.0
154.41,85.0
154.48,94.0
154.54,85.0
154.6,93.0
154.66,85.0
154.73,84.0
154.79,84.0
154.85,91.0
154.92,75.0
154.98,84.0
155.04,70.0
155.11,78.0
155.17,89.0
155.23,80.0
155.29,63.0
155.36,64.0
155.42,91.0
155.48,88.0
155.55,76.0
155.61,70.0
155.67,85.0
155.74,92.0
155.8,95.0
155.86,84.0
155.92,82.0
155.99,77.0
156.05,72.0
156.11,73.0
156.18,67.0
156.24,89.0
156.3,89.0
156.37,88.0
156.43,82.0
156.49,78.0
156.55,62.0
156.62,79.0
156.68,64.0
156.74,80.0
156.81,91.0
156.87,73.0
156.93,69.0
157.0,62.0
157.06,59.0
157.12,70.0
157.18,66.0
157.25,35.0
157.31,67.0
157.37,70.0
157.44,67.0
157.5,66.0
157.56,77.0
157.63,54.0
157.69,60.0
157.75,64.0
157.81,62.0
157.88,66.0
157.94,51.0
158.0,72.0
158.07,55.0
158.13,48.0
158.19,51.0
158.26,42.0
158.32,65.0
158.38,67.0
158.44,56.0
158.51,72.0
158.57,77.0
158.63,74.0
158.7,55.0
158.76,55.0
158.82,61.0
158.89,52.0
158.95,33.0
159.01,22.0
159.07,43.0
159.14,55.0
159.2,62.0
159.26,46.0
159.33,51.0
159.39,64.0
159.45,47.0
159.52,64.0
159.58,59.0
159.64,68.0
159.7,86.0
159.77,85.0
159.83,90.0
159.89,95.0
159.96,81.0
160.02,80.0
160.08,75.0
160.15,85.0
160.21,91.0
160.27,81.0
160.33,107.0
160.4,89.0
160.46,79.0
160.52,99.0
160.59,96.0
160.65,75.0
160.71,81.0
160.78,98.0
160.84,89.0
160.9,71.0
160.96,59.0
161.03,88.0
161.09,99.0
161.15,81.0
161.22,77.0
161.28,76.0
161.34,65.0
161.41,79.0
161.47,81.0
161.53,92.0
161.59,79.0
161.66,79.0
161.72,111.0
161.78,102.0
161.85,108.0
161.91,100.0
161.97,106.0
162.04,102.0
162.1,93.0
162.16,109.0
162.22,112.0
162.29,117.0
162.35,119.0
162.41,112.0
162.48,118.0
162.54,130.0
162.6,123.0
162.67,145.0
162.73,168.0
162.79,155.0
162.85,169.0
162.92,163.0
162.98,145.0
163.04,156.0
163.11,157.0
163.17,158.0
163.23,157.0
163.3,156.0
163.36,160.0
163.42,149.0
163.48,154.0
163.55,165.0
163.61,158.0
163.67,158.0
163.74,164.0
163.8,161.0
163.86,158.0
163.93,154.0
163.99,162.0
164.05,146.0
164.11,137.0
164.18,142.0
164.24,150.0
164.3,160.0
164.37,162.0
164.43,146.0
164.49,160.0
164.56,156.0
164.62,150.0
164.68,144.0
164.74,140.0
164.81,153.0
164.87,140.0
164.93,146.0
165.0,152.0
165.06,143.0
165.12,157.0
165.19,143.0
165.25,130.0
165.31,123.0
165.37,120.0
165.44,138.0
165.5,143.0
165.56,121.0
165.63,116.0
165.69,123.0
165.75,107.0
165.82,121.0
165.88,135.0
165.94,124.0
166.0,122.0
166.07,122.0
166.13,139.0
166.19,141.0
166.26,132.0
166.32,120.0
166.38,114.0
166.45,121.0
166.51,114.0
166.57,105.0
166.63,117.0
166.7,133.0
166.76,120.0
166.82,127.0
166.89,123.0
166.95,115.0
167.01,121.0
167.08,99.0
167.14,116.0
167.2,116.0
167.26,103.0
167.33,88.0
167.39,95.0
167.45,95.0
167.52,77.0
167.58,75.0
167.64,56.0
167.71,69.0
167.77,66.0
167.83,73.0
167.89,72.0
167.96,63.0
168.02,63.0
168.08,74.0
168.15,42.0
168.21,42.0
168.27,63.0
168.34,33.0
168.4,46.0
168.46,35.0
168.52,26.0
168.59,40.0
168.65,33.0
168.71,39.0
168.78,53.0
168.84,45.0
168.9,62.0
168.97,41.0
169.03,39.0
169.09,22.0
169.15,37.0
169.22,20.0
169.28,36.0
169.34,41.0
169.41,33.0
169.47,42.0
169.53,43.0
169.6,70.0
169.66,50.0
169.72,68.0
169.78,48.0
169.85,29.0
169.91,36.0
169.97,35.0
170.04,36.0
170.1,39.0
170.16,33.0
170.23,28.0
170.29,33.0
170.35,29.0
170.41,36.0
170.48,26.0
170.54,41.0
170.6,31.0
170.67,35.0
170.73,56.0
170.79,31.0
170.86,29.0
170.92,46.0
170.98,48.0
171.04,55.0
171.11,53.0
171.17,54.0
171.23,64.0
171.3,69.0
171.36,46.0
171.42,39.0
171.49,42.0
171.55,51.0
171.61,45.0
171.67,47.0
171.74,50.0
171.8,47.0
171.86,36.0
171.93,34.0
171.99,37.0
172.05,59.0
172.12,58.0
172.18,31.0
172.24,33.0
172.3,40.0
172.37,33.0
172.43,49.0
172.49,32.0
172.56,40.0
172.62,50.0
172.68,29.0
172.75,29.0
172.81,49.0
172.87,57.0
172.93,38.0
173.0,53.0
173.06,52.0
173.12,62.0
173.19,53.0
173.25,41.0
173.31,49.0
173.38,22.0
173.44,51.0
173.5,47.0
173.56,37.0
173.63,41.0
173.69,30.0
173.75,40.0
173.82,44.0
173.88,66.0
173.94,62.0
174.01,53.0
174.07,48.0
174.13,33.0
174.19,39.0
174.26,47.0
174.32,17.0
174.38,22.0
174.45,37.0
174.51,30.0
174.57,13.0
174.64,11.0
174.7,0.0
174.76,1.0
174.82,-2.0
174.89,-12.0
174.95,0.0
175.01,14.0
175.08,7.0
175.14,-11.0
175.2,-4.0
175.27,-6.0
175.33,-2.0
175.39,-12.0
175.45,-19.0
175.52,-28.0
175.58,-1.0
175.64,-17.0
175.71,-13.0
175.77,-32.0
175.83,-22.0
175.9,-38.0
175.96,-32.0
176.02,-29.0
176.08,-20.0
176.15,-4.0
176.21,-12.0
176.27,-25.0
176.34,-2.0
176.4,-19.0
176.46,-29.0
176.53,-16.0
176.59,-17.0
176.65,2.0
176.71,-6.0
176.78,-32.0
176.84,-15.0
176.9,-30.0
176.97,-8.0
177.03,5.0
177.09,-12.0
177.16,1.0
177.22,-3.0
177.28,-14.0
177.34,-1.0
177.41,-10.0
177.47,5.0
177.53,7.0
177.6,-1.0
177.66,1.0
177.72,16.0
177.79,21.0
177.85,11.0
177.91,9.0
177.97,16.0
178.04,24.0
178.1,34.0
178.16,41.0
178.23,16.0
178.29,26.0
178.35,24.0
178.42,39.0
178.48,39.0
178.54,12.0
178.6,13.0
178.67,24.0
178.73,31.0
178.79,34.0
178.86,42.0
178.92,77.0
178.98,61.0
179.05,65.0
179.11,52.0
179.17,52.0
179.23,56.0
179.3,38.0
179.36,34.0
179.42,35.0
179.49,37.0
179.55,29.0
179.61,41.0
179.68,28.0
179.74,35.0
179.8,50.0
179.86,60.0
179.93,61.0
179.99,69.0
180.05,60.0
180.12,53.0
180.18,40.0
180.24,26.0
180.31,23.0
180.37,47.0
180.43,34.0
180.49,42.0
180.56,71.0
180.62,52.0
180.68,59.0
180.75,65.0
180.81,70.0
180.87,73.0
180.94,81.0
181.0,69.0
181.06,86.0
181.12,85.0
181.19,95.0
181.25,61.0
181.31,57.0
181.38,85.0
181.44,69.0
181.5,64.0
181.57,86.0
181.63,75.0
181.69,62.0
181.75,83.0
181.82,76.0
181.88,60.0
181.94,67.0
182.01,67.0
182.07,76.0
182.13,72.0
182.2,56.0
182.26,55.0
182.32,71.0
182.38,77.0
182.45,85.0
182.51,67.0
182.57,69.0
182.64,89.0
182.7,69.0
182.76,84.0
182.83,82.0
182.89,56.0
182.95,51.0
183.01,64.0
183.08,63.0
183.14,61.0
183.2,80.0
183.27,74.0
183.33,60.0
183.39,67.0
183.46,65.0
183.52,86.0
183.58,66.0
183.64,77.0
183.71,86.0
183.77,53.0
183.83,60.0
183.9,57.0
183.96,69.0
184.02,65.0
184.09,51.0
184.15,49.0
184.21,47.0
184.27,64.0
184.34,67.0
184.4,63.0
184.46,59.0
184.53,63.0
184.59,69.0
184.65,74.0
184.72,76.0
184.78,87.0
184.84,87.0
184.9,61.0
184.97,73.0
185.03,93.0
185.09,104.0
185.16,90.0
185.22,92.0
185.28,96.0
185.35,93.0
185.41,81.0
185.47,89.0
185.53,97.0
185.6,86.0
185.66,97.0
185.72,94.0
185.79,71.0
185.85,82.0
185.91,81.0
185.98,56.0
186.04,74.0
186.1,87.0
186.16,75.0
186.23,65.0
186.29,63.0
186.35,63.0
186.42,77.0
186.48,93.0
186.54,76.0
186.61,68.0
186.67,70.0
186.73,65.0
186.79,91.0
186.86,97.0
186.92,93.0
186.98,75.0
187.05,95.0
187.11,90.0
187.17,77.0
187.24,99.0
187.3,109.0
187.36,100.0
187.42,90.0
187.49,103.0
187.55,98.0
187.61,117.0
187.68,100.0
187.74,99.0
187.8,131.0
187.87,131.0
187.93,105.0
187.99,95.0
188.05,107.0
188.12,110.0
188.18,109.0
188.24,92.0
188.31,108.0
188.37,117.0
188.43,108.0
188.5,109.0
188.56,118.0
188.62,111.0
188.68,117.0
188.75,115.0
188.81,109.0
188.87,114.0
188.94,117.0
189.0,103.0
189.06,117.0
189.13,111.0
189.19,110.0
189.25,120.0
189.31,122.0
189.38,136.0
189.44,128.0
189.5,109.0
189.57,120.0
189.63,116.0
189.69,128.0
189.76,106.0
189.82,121.0
189.88,113.0
189.94,111.0
190.01,122.0
190.07,103.0
190.13,109.0
190.2,90.0
190.26,90.0
190.32,114.0
190.39,104.0
190.45,104.0
190.51,85.0
190.57,91.0
190.64,88.0
190.7,85.0
190.76,98.0
190.83,89.0
190.89,85.0
190.95,84.0
191.02,97.0
191.08,110.0
191.14,108.0
191.2,111.0
191.27,104.0
191.33,104.0
191.39,73.0
191.46,69.0
191.52,60.0
191.58,56.0
191.65,79.0
191.71,70.0
191.77,84.0
191.83,83.0
191.9,63.0
191.96,65.0
192.02,75.0
192.09,61.0
192.15,52.0
192.21,62.0
192.28,60.0
192.34,70.0
192.4,73.0
192.46,75.0
192.53,106.0
192.59,93.0
192.65,86.0
192.72,89.0
192.78,82.0
192.84,61.0
192.91,59.0
192.97,76.0
193.03,69.0
193.09,84.0
193.16,72.0
193.22,73.0
193.28,79.0
193.35,76.0
193.41,69.0
193.47,88.0
193.54,84.0
193.6,67.0
193.66,98.0
193.72,73.0
193.79,93.0
193.85,86.0
193.91,65.0
193.98,89.0
194.04,93.0
194.1,106.0
194.17,96.0
194.23,100.0
194.29,103.0
194.35,109.0
194.42,67.0
194.48,78.0
194.54,87.0
194.61,97.0
194.67,92.0
194.73,72.0
194.8,85.0
194.86,95.0
194.92,92.0
194.98,90.0
195.05,85.0
195.11,81.0
195.17,69.0
195.24,63.0
195.3,64.0
195.36,65.0
195.43,75.0
195.49,73.0
195.55,72.0
195.61,81.0
195.68,54.0
195.74,75.0
195.8,75.0
195.87,82.0
195.93,82.0
195.99,102.0
196.06,82.0
196.12,63.0
196.18,65.0
196.24,51.0
196.31,80.0
196.37,74.0
196.43,65.0
196.5,56.0
196.56,75.0
196.62,66.0
196.69,78.0
196.75,85.0
196.81,69.0
196.87,82.0
196.94,94.0
197.0,90.0
197.06,89.0
197.13,93.0
197.19,104.0
197.25,108.0
197.32,111.0
197.38,124.0
197.44,114.0
197.5,122.0
197.57,111.0
197.63,118.0
197.69,111.0
197.76,122.0
197.82,125.0
197.88,123.0
197.95,126.0
198.01,98.0
198.07,94.0
198.13,99.0
198.2,101.0
198.26,97.0
198.32,99.0
198.39,86.0
198.45,108.0
198.51,114.0
198.58,111.0
198.64,122.0
198.7,122.0
198.76,131.0
198.83,124.0
198.89,96.0
198.95,117.0
199.02,133.0
199.08,114.0
199.14,116.0
199.21,109.0
199.27,110.0
199.33,114.0
199.39,99.0
199.46,119.0
199.52,106.0
199.58,101.0
199.65,117.0
199.71,101.0
199.77,107.0
199.84,107.0
199.9,90.0
199.96,93.0
200.02,117.0
200.09,106.0
200.15,99.0
200.21,103.0
200.28,115.0
200.34,90.0
200.4,88.0
200.47,95.0
200.53,108.0
200.59,122.0
200.65,116.0
200.72,97.0
200.78,96.0
200.84,122.0
200.91,113.0
200.97,126.0
201.03,133.0
201.1,126.0
201.16,126.0
201.22,144.0
201.28,122.0
201.35,105.0
201.41,115.0
201.47,123.0
201.54,106.0
201.6,119.0
201.66,118.0
201.73,128.0
201.79,115.0
201.85,111.0
201.91,132.0
201.98,122.0
202.04,113.0
202.1,109.0
202.17,112.0
202.23,118.0
202.29,100.0
202.36,109.0
202.42,119.0
202.48,104.0
202.54,106.0
202.61,130.0
202.67,131.0
202.73,122.0
202.8,143.0
202.86,139.0
202.92,155.0
202.99,142.0
203.05,135.0
203.11,140.0
203.17,141.0
203.24,137.0
203.3,129.0
203.36,138.0
203.43,127.0
203.49,115.0
203.55,128.0
203.62,123.0
203.68,100.0
203.74,94.0
203.8,113.0
203.87,102.0
203.93,88.0
203.99,91.0
204.06,106.0
204.12,111.0
204.18,86.0
204.25,112.0
204.31,123.0
204.37,115.0
204.43,126.0
204.5,114.0
204.56,125.0
204.62,125.0
204.69,110.0
204.75,111.0
204.81,119.0
204.88,107.0
204.94,129.0
205.0,117.0
205.06,111.0
205.13,115.0
205.19,125.0
205.25,111.0
205.32,93.0
205.38,94.0
205.44,93.0
205.51,115.0
205.57,107.0
205.63,109.0
205.69,122.0
205.76,103.0
205.82,104.0
205.88,106.0
205.95,111.0
206.01,106.0
206.07,96.0
206.14,86.0
206.2,89.0
206.26,68.0
206.32,70.0
206.39,84.0
206.45,86.0
206.51,101.0
206.58,93.0
206.64,80.0
206.7,84.0
206.77,94.0
206.83,67.0
206.89,85.0
206.95,89.0
207.02,82.0
207.08,82.0
207.14,78.0
207.21,60.0
207.27,58.0
207.33,49.0
207.4,61.0
207.46,63.0
207.52,71.0
207.58,59.0
207.65,60.0
207.71,48.0
207.77,30.0
207.84,28.0
207.9,30.0
207.96,35.0
208.03,20.0
208.09,44.0
208.15,28.0
208.21,32.0
208.28,28.0
208.34,13.0
208.4,29.0
208.47,35.0
208.53,14.0
208.59,7.0
208.66,16.0
208.72,35.0
208.78,24.0
208.84,10.0
208.91,10.0
208.97,21.0
209.03,11.0
209.1,19.0
209.16,12.0
209.22,-2.0
209.29,-12.0
209.35,-12.0
209.41,-5.0
209.47,2.0
209.54,22.0
209.6,-2.0
209.66,10.0
209.73,5.0
209.79,-17.0
209.85,20.0
209.92,15.0
209.98,22.0
210.04,29.0
210.1,41.0
210.17,34.0
210.23,24.0
210.29,20.0
210.36,26.0
210.42,29.0
210.48,40.0
210.55,42.0
210.61,36.0
210.67,45.0
210.73,24.0
210.8,25.0
210.86,10.0
210.92,17.0
210.99,17.0
211.05,25.0
211.11,44.0
211.18,38.0
211.24,42.0
211.3,40.0
211.36,21.0
211.43,11.0
211.49,14.0
211.55,22.0
211.62,9.0
211.68,7.0
211.74,19.0
211.81,-4.0
211.87,-4.0
211.93,10.0
211.99,19.0
212.06,26.0
212.12,20.0
212.18,17.0
212.25,10.0
212.31,8.0
212.37,15.0
212.44,29.0
212.5,31.0
212.56,19.0
212.62,21.0
212.69,41.0
212.75,44.0
212.81,36.0
212.88,40.0
212.94,61.0
213.0,44.0
213.07,71.0
213.13,66.0
213.19,54.0
213.25,70.0
213.32,60.0
213.38,58.0
213.44,48.0
213.51,81.0
213.57,90.0
213.63,65.0
213.7,80.0
213.76,74.0
213.82,83.0
213.88,78.0
213.95,85.0
214.01,88.0
214.07,71.0
214.14,73.0
214.2,93.0
214.26,72.0
214.33,73.0
214.39,76.0
214.45,98.0
214.51,97.0
214.58,103.0
214.64,119.0
214.7,105.0
214.77,108.0
214.83,95.0
214.89,100.0
214.96,111.0
215.02,136.0
215.08,126.0
215.14,146.0
215.21,138.0
215.27,152.0
215.33,128.0
215.4,161.0
215.46,152.0
215.52,143.0
215.59,128.0
215.65,145.0
215.71,147.0
215.77,147.0
215.84,144.0
215.9,166.0
215.96,151.0
216.03,143.0
216.09,158.0
216.15,160.0
216.22,142.0
216.28,150.0
216.34,170.0
216.4,147.0
216.47,150.0
216.53,151.0
216.59,143.0
216.66,156.0
216.72,142.0
216.78,134.0
216.85,160.0
216.91,143.0
216.97,166.0
217.03,142.0
217.1,122.0
217.16,120.0
217.22,119.0
217.29,144.0
217.35,113.0
217.41,140.0
217.48,132.0
217.54,133.0
217.6,138.0
217.66,133.0
217.73,137.0
217.79,134.0
217.85,146.0
217.92,126.0
217.98,137.0
218.04,121.0
218.11,128.0
218.17,138.0
218.23,124.0
218.29,144.0
218.36,141.0
218.42,126.0
218.48,111.0
218.55,127.0
218.61,128.0
218.67,95.0
218.74,121.0
218.8,128.0
218.86,113.0
218.92,104.0
218.99,86.0
219.05,111.0
219.11,117.0
219.18,110.0
219.24,119.0
219.3,122.0
219.37,106.0
219.43,134.0
219.49,146.0
219.55,138.0
219.62,135.0
219.68,125.0
219.74,135.0
219.81,130.0
219.87,90.0
219.93,119.0
220.0,101.0
220.06,110.0
220.12,111.0
220.18,109.0
220.25,114.0
220.31,94.0
220.37,93.0
220.44,109.0
220.5,108.0
220.56,95.0
220.63,96.0
220.69,85.0
220.75,103.0
220.81,105.0
220.88,111.0
220.94,113.0
221.0,107.0
221.07,94.0
221.13,88.0
221.19,81.0
221.26,99.0
221.32,91.0
221.38,104.0
221.44,105.0
221.51,99.0
221.57,108.0
221.63,114.0
221.7,115.0
221.76,102.0
221.82,92.0
221.89,100.0
221.95,97.0
222.01,121.0
222.07,103.0
222.14,87.0
222.2,105.0
222.26,80.0
222.33,80.0
222.39,78.0
222.45,90.0
222.52,98.0
222.58,90.0
222.64,73.0
222.7,72.0
222.77,76.0
222.83,78.0
222.89,79.0
222.96,69.0
223.02,66.0
223.08,75.0
223.15,73.0
223.21,77.0
223.27,72.0
223.33,70.0
223.4,64.0
223.46,62.0
223.52,67.0
223.59,68.0
223.65,80.0
223.71,52.0
223.78,53.0
223.84,80.0
223.9,64.0
223.96,56.0
224.03,39.0
224.09,27.0
224.15,9.0
224.22,21.0
224.28,36.0
224.34,55.0
224.41,59.0
224.47,74.0
224.53,46.0
224.59,44.0
224.66,57.0
224.72,49.0
224.78,43.0
224.85,38.0
224.91,28.0
224.97,31.0
225.04,42.0
225.1,41.0
225.16,23.0
225.22,10.0
225.29,15.0
225.35,25.0
225.41,24.0
225.48,22.0
225.54,35.0
225.6,10.0
225.67,8.0
225.73,18.0
225.79,35.0
225.85,34.0
225.92,31.0
225.98,33.0
226.04,40.0
226.11,34.0
226.17,21.0
226.23,24.0
226.3,22.0
226.36,18.0
226.42,14.0
226.48,27.0
226.55,12.0
226.61,12.0
226.67,16.0
226.74,32.0
226.8,15.0
226.86,-5.0
226.93,6.0
226.99,19.0
227.05,13.0
227.11,-1.0
227.18,1.0
227.24,-8.0
227.3,5.0
227.37,-13.0
227.43,3.0
227.49,-18.0
227.56,-6.0
227.62,19.0
227.68,5.0
227.74,18.0
227.81,7.0
227.87,7.0
227.93,-12.0
228.0,-16.0
228.06,-18.0
228.12,-10.0
228.19,-6.0
228.25,-4.0
228.31,-20.0
228.37,-3.0
228.44,-7.0
228.5,-19.0
228.56,11.0
228.63,6.0
228.69,-6.0
228.75,1.0
228.82,9.0
228.88,13.0
228.94,13.0
229.0,14.0
229.07,22.0
229.13,33.0
229.19,29.0
229.26,43.0
229.32,33.0
229.38,6.0
229.45,28.0
229.51,38.0
229.57,28.0
229.63,52.0
229.7,55.0
229.76,38.0
229.82,39.0
229.89,51.0
229.95,51.0
230.01,50.0
230.08,36.0
230.14,61.0
230.2,63.0
230.26,40.0
230.33,52.0
230.39,44.0
230.45,65.0
230.52,50.0
230.58,53.0
230.64,62.0
230.71,56.0
230.77,41.0
230.83,50.0
230.89,51.0
230.96,66.0
231.02,71.0
231.08,65.0
231.15,65.0
231.21,82.0
231.27,91.0
231.34,94.0
231.4,88.0
231.46,96.0
231.52,101.0
231.59,103.0
231.65,104.0
231.71,123.0
231.78,99.0
231.84,95.0
231.9,113.0
231.97,101.0
232.03,101.0
232.09,115.0
232.15,115.0
232.22,138.0
232.28,126.0
232.34,132.0
232.41,151.0
232.47,145.0
232.53,126.0
232.6,129.0
232.66,116.0
232.72,134.0
232.78,149.0
232.85,136.0
232.91,151.0
232.97,140.0
233.04,131.0
233.1,135.0
233.16,141.0
233.23,131.0
233.29,134.0
233.35,140.0
233.41,148.0
233.48,154.0
233.54,129.0
233.6,158.0
233.67,149.0
233.73,130.0
233.79,136.0
233.86,159.0
233.92,139.0
233.98,129.0
234.04,153.0
234.11,157.0
234.17,140.0
234.23,143.0
234.3,159.0
234.36,141.0
234.42,128.0
234.49,129.0
234.55,129.0
234.61,138.0
234.67,127.0
234.74,135.0
234.8,129.0
234.86,127.0
234.93,111.0
234.99,94.0
235.05,116.0
235.12,124.0
235.18,120.0
235.24,129.0
235.3,105.0
235.37,108.0
235.43,113.0
235.49,137.0
235.56,138.0
235.62,134.0
235.68,138.0
235.75,126.0
235.81,132.0
235.87,110.0
235.93,121.0
236.0,113.0
236.06,110.0
236.12,107.0
236.19,108.0
236.25,101.0
236.31,90.0
236.38,100.0
236.44,102.0
236.5,101.0
236.56,89.0
236.63,108.0
236.69,110.0
236.75,84.0
236.82,71.0
236.88,63.0
236.94,77.0
237.01,87.0
237.07,71.0
237.13,85.0
237.19,87.0
237.26,86.0
237.32,95.0
237.38,97.0
237.45,108.0
237.51,100.0
237.57,96.0
237.64,79.0
237.7,99.0
237.76,116.0
237.82,113.0
237.89,96.0
237.95,86.0
238.01,82.0
238.08,74.0
238.14,76.0
238.2,93.0
238.27,80.0
238.33,80.0
238.39,86.0
238.45,74.0
238.52,74.0
238.58,51.0
238.64,58.0
238.71,75.0
238.77,77.0
238.83,79.0
238.9,90.0
238.96,54.0
239.02,57.0
239.08,46.0
239.15,38.0
239.21,56.0
239.27,56.0
239.34,68.0
239.4,68.0
239.46,65.0
239.53,59.0
239.59,62.0
239.65,76.0
239.71,62.0
239.78,66.0
239.84,58.0
239.9,64.0
239.97,72.0
240.03,42.0
240.09,31.0
240.16,46.0
240.22,37.0
240.28,47.0
240.34,48.0
240.41,46.0
240.47,63.0
240.53,51.0
240.6,28.0
240.66,32.0
240.72,42.0
240.79,36.0
240.85,32.0
240.91,24.0
240.97,19.0
241.04,19.0
241.1,8.0
241.16,38.0
241.23,32.0
241.29,36.0
241.35,38.0
241.42,24.0
241.48,22.0
241.54,8.0
241.6,-11.0
241.67,12.0
241.73,19.0
241.79,-1.0
241.86,10.0
241.92,8.0
241.98,-14.0
242.05,4.0
242.11,30.0
242.17,24.0
242.23,13.0
242.3,15.0
242.36,19.0
242.42,19.0
242.49,18.0
242.55,9.0
242.61,34.0
242.68,28.0
242.74,19.0
242.8,30.0
242.86,34.0
242.93,31.0
242.99,25.0
243.05,35.0
243.12,34.0
243.18,42.0
243.24,34.0
243.31,38.0
243.37,26.0
243.43,22.0
243.49,30.0
243.56,27.0
243.62,26.0
243.68,44.0
243.75,46.0
243.81,52.0
243.87,40.0
243.94,32.0
244.0,62.0
244.06,56.0
244.12,51.0
244.19,56.0
244.25,55.0
244.31,62.0
244.38,67.0
244.44,61.0
244.5,56.0
244.57,35.0
244.63,57.0
244.69,68.0
244.75,34.0
244.82,50.0
244.88,45.0
244.94,50.0
245.01,60.0
245.07,70.0
245.13,65.0
245.2,80.0
245.26,47.0
245.32,46.0
245.38,66.0
245.45,53.0
245.51,56.0
245.57,64.0
245.64,92.0
245.7,97.0
245.76,96.0
245.83,82.0
245.89,96.0
245.95,91.0
246.01,92.0
246.08,88.0
246.14,74.0
246.2,91.0
246.27,100.0
246.33,129.0
246.39,118.0
246.46,121.0
246.52,112.0
246.58,97.0
246.64,132.0
246.71,127.0
246.77,113.0
246.83,132.0
246.9,144.0
246.96,140.0
247.02,135.0
247.09,125.0
247.15,128.0
247.21,140.0
247.27,152.0
247.34,136.0
247.4,144.0
247.46,159.0
247.53,131.0
247.59,130.0
247.65,148.0
247.72,157.0
247.78,162.0
247.84,159.0
247.9,157.0
247.97,158.0
248.03,157.0
248.09,165.0
248.16,153.0
248.22,163.0
248.28,165.0
248.35,150.0
248.41,161.0
248.47,174.0
248.53,172.0
248.6,172.0
248.66,182.0
248.72,190.0
248.79,195.0
248.85,195.0
248.91,207.0
248.98,206.0
249.04,202.0
249.1,206.0
249.16,206.0
249.23,207.0
249.29,218.0
249.35,216.0
249.42,210.0
249.48,225.0
249.54,207.0
249.61,220.0
249.67,202.0
249.73,206.0
249.79,231.0
249.86,185.0
249.92,196.0
249.98,188.0
250.05,181.0
250.11,162.0
250.17,180.0
250.24,183.0
250.3,192.0
250.36,182.0
250.42,181.0
250.49,199.0
250.55,179.0
250.61,177.0
250.68,170.0
250.74,173.0
250.8,182.0
250.87,195.0
250.93,176.0
250.99,177.0
251.05,183.0
251.12,188.0
251.18,192.0
251.24,187.0
251.31,172.0
251.37,148.0
251.43,154.0
251.5,162.0
251.56,173.0
251.62,166.0
251.68,148.0
251.75,152.0
251.81,166.0
251.87,166.0
251.94,145.0
252.0,164.0
252.06,154.0
252.13,157.0
252.19,149.0
252.25,149.0
252.31,154.0
252.38,158.0
252.44,152.0
252.5,127.0
252.57,151.0
252.63,145.0
252.69,148.0
252.76,161.0
252.82,162.0
252.88,140.0
252.94,161.0
253.01,149.0
253.07,151.0
253.13,129.0
253.2,115.0
253.26,114.0
253.32,121.0
253.39,130.0
253.45,140.0
253.51,129.0
253.57,133.0
253.64,122.0
253.7,127.0
253.76,109.0
253.83,107.0
253.89,113.0
253.95,110.0
254.02,93.0
254.08,86.0
254.14,98.0
254.2,97.0
254.27,101.0
254.33,91.0
254.39,114.0
254.46,114.0
254.52,92.0
254.58,105.0
254.65,111.0
254.71,99.0
254.77,112.0
254.83,100.0
254.9,111.0
254.96,102.0
255.02,85.0
255.09,91.0
255.15,80.0
255.21,78.0
255.28,75.0
255.34,66.0
255.4,63.0
255.46,72.0
255.53,77.0
255.59,66.0
255.65,75.0
255.72,67.0
255.78,65.0
255.84,67.0
255.91,86.0
255.97,93.0
256.03,55.0
256.09,58.0
256.16,63.0
256.22,56.0
256.28,52.0
256.35,44.0
256.41,61.0
256.47,45.0
256.54,30.0
256.6,60.0
256.66,55.0
256.72,54.0
256.79,47.0
256.85,44.0
256.91,63.0
256.98,75.0
257.04,58.0
257.1,66.0
257.17,77.0
257.23,45.0
257.29,31.0
257.35,47.0
257.42,50.0
257.48,61.0
257.54,58.0
257.61,31.0
257.67,24.0
257.73,19.0
257.8,15.0
257.86,32.0
257.92,43.0
257.98,70.0
258.05,64.0
258.11,80.0
258.17,79.0
258.24,74.0
258.3,68.0
258.36,63.0
258.43,72.0
258.49,78.0
258.55,63.0
258.61,73.0
258.68,69.0
258.74,69.0
258.8,74.0
258.87,78.0
258.93,58.0
258.99,66.0
259.06,61.0
259.12,42.0
259.18,56.0
259.24,41.0
259.31,54.0
259.37,37.0
259.43,28.0
259.5,28.0
259.56,14.0
259.62,26.0
259.69,37.0
259.75,47.0
259.81,37.0
259.87,38.0
259.94,42.0
260.0,41.0
260.06,65.0
260.13,36.0
260.19,53.0
260.25,49.0
260.32,60.0
260.38,57.0
260.44,56.0
260.5,79.0
260.57,61.0
260.63,57.0
260.69,83.0
260.76,63.0
260.82,78.0
260.88,78.0
260.95,85.0
261.01,87.0
261.07,98.0
261.13,118.0
261.2,109.0
261.26,74.0
261.32,82.0
261.39,99.0
261.45,92.0
261.51,89.0
261.58,93.0
261.64,96.0
261.7,91.0
261.76,83.0
261.83,72.0
261.89,81.0
261.95,76.0
262.02,68.0
262.08,88.0
262.14,106.0
262.21,86.0
262.27,59.0
262.33,68.0
262.39,102.0
262.46,108.0
262.52,97.0
262.58,98.0
262.65,95.0
262.71,114.0
262.77,93.0
262.84,113.0
262.9,100.0
262.96,105.0
263.02,124.0
263.09,99.0
263.15,89.0
263.21,111.0
263.28,119.0
263.34,121.0
263.4,114.0
263.47,111.0
263.53,133.0
263.59,134.0
263.65,120.0
263.72,119.0
263.78,102.0
263.84,107.0
263.91,116.0
263.97,144.0
264.03,142.0
264.1,144.0
264.16,140.0
264.22,132.0
264.28,143.0
264.35,124.0
264.41,107.0
264.47,111.0
264.54,104.0
264.6,128.0
264.66,132.0
264.73,121.0
264.79,122.0
264.85,118.0
264.91,125.0
264.98,128.0
265.04,122.0
265.1,139.0
265.17,133.0
265.23,140.0
265.29,145.0
265.36,144.0
265.42,138.0
265.48,127.0
265.54,130.0
265.61,128.0
265.67,124.0
265.73,147.0
265.8,166.0
265.86,170.0
265.92,137.0
265.99,146.0
266.05,158.0
266.11,161.0
266.17,160.0
266.24,164.0
266.3,174.0
266.36,168.0
266.43,166.0
266.49,154.0
266.55,162.0
266.62,149.0
266.68,161.0
266.74,149.0
266.8,154.0
266.87,180.0
266.93,162.0
266.99,147.0
267.06,134.0
267.12,137.0
267.18,144.0
267.25,133.0
267.31,138.0
267.37,137.0
267.43,144.0
267.5,119.0
267.56,114.0
267.62,121.0
267.69,123.0
267.75,133.0
267.81,124.0
267.88,111.0
267.94,113.0
268.0,92.0
268.06,92.0
268.13,102.0
268.19,99.0
268.25,108.0
268.32,129.0
268.38,113.0
268.44,129.0
268.51,124.0
268.57,115.0
268.63,126.0
268.69,125.0
268.76,119.0
268.82,118.0
268.88,100.0
268.95,100.0
269.01,97.0
269.07,88.0
269.14,88.0
269.2,98.0
269.26,91.0
269.32,100.0
269.39,93.0
269.45,94.0
269.51,106.0
269.58,84.0
269.64,99.0
269.7,89.0
269.77,78.0
269.83,89.0
269.89,89.0
269.95,111.0
270.02,112.0
270.08,107.0
270.14,114.0
270.21,97.0
270.27,96.0
270.33,85.0
270.4,79.0
270.46,89.0
270.52,83.0
270.58,103.0
270.65,96.0
270.71,101.0
270.77,94.0
270.84,85.0
270.9,87.0
270.96,92.0
271.03,79.0
271.09,67.0
271.15,88.0
271.21,86.0
271.28,93.0
271.34,78.0
271.4,62.0
271.47,80.0
271.53,99.0
271.59,85.0
271.66,98.0
271.72,88.0
271.78,84.0
271.84,95.0
271.91,100.0
271.97,90.0
272.03,76.0
272.1,69.0
272.16,75.0
272.22,67.0
272.29,58.0
272.35,59.0
272.41,76.0
272.47,87.0
272.54,77.0
272.6,75.0
272.66,68.0
272.73,76.0
272.79,68.0
272.85,74.0
272.92,85.0
272.98,81.0
273.04,68.0
273.1,63.0
273.17,47.0
273.23,45.0
273.29,38.0
273.36,32.0
273.42,33.0
273.48,31.0
273.55,28.0
273.61,33.0
273.67,25.0
273.73,7.0
273.8,12.0
273.86,15.0
273.92,28.0
273.99,32.0
274.05,20.0
274.11,45.0
274.18,34.0
274.24,34.0
274.3,20.0
274.36,34.0
274.43,37.0
274.49,17.0
274.55,15.0
274.62,14.0
274.68,6.0
274.74,8.0
274.81,1.0
274.87,25.0
274.93,28.0
274.99,30.0
275.06,14.0
275.12,-3.0
275.18,2.0
275.25,-1.0
275.31,20.0
275.37,18.0
275.44,28.0
275.5,21.0
275.56,7.0
275.62,36.0
275.69,17.0
275.75,9.0
275.81,-4.0
275.88,3.0
275.94,-9.0
276.0,-14.0
276.07,-21.0
276.13,-9.0
276.19,-5.0
276.25,2.0
276.32,-1.0
276.38,-5.0
276.44,16.0
276.51,20.0
276.57,21.0
276.63,31.0
276.7,20.0
276.76,35.0
276.82,42.0
276.88,28.0
276.95,17.0
277.01,46.0
277.07,46.0
277.14,42.0
277.2,44.0
277.26,47.0
277.33,46.0
277.39,38.0
277.45,23.0
277.51,35.0
277.58,52.0
277.64,24.0
277.7,30.0
277.77,27.0
277.83,46.0
277.89,49.0
277.96,28.0
278.02,41.0
278.08,45.0
278.14,57.0
278.21,55.0
278.27,72.0
278.33,49.0
278.4,46.0
278.46,44.0
278.52,41.0
278.59,50.0
278.65,30.0
278.71,32.0
278.77,38.0
278.84,57.0
278.9,54.0
278.96,50.0
279.03,60.0
279.09,39.0
279.15,34.0
279.22,36.0
279.28,44.0
279.34,45.0
279.4,45.0
279.47,41.0
279.53,34.0
279.59,27.0
279.66,20.0
279.72,33.0
279.78,31.0
279.85,35.0
279.91,33.0
279.97,41.0
280.03,50.0
280.1,72.0
280.16,66.0
280.22,63.0
280.29,49.0
280.35,63.0
280.41,67.0
280.48,74.0
280.54,75.0
280.6,64.0
280.66,68.0
280.73,49.0
280.79,50.0
280.85,53.0
280.92,58.0
280.98,66.0
281.04,78.0
281.11,73.0
281.17,75.0
281.23,77.0
281.29,69.0
281.36,71.0
281.42,73.0
281.48,62.0
281.55,67.0
281.61,54.0
281.67,61.0
281.74,86.0
281.8,78.0
281.86,75.0
281.92,59.0
281.99,57.0
282.05,80.0
282.11,78.0
282.18,73.0
282.24,77.0
282.3,108.0
282.37,111.0
282.43,94.0
282.49,74.0
282.55,89.0
282.62,92.0
282.68,88.0
282.74,93.0
282.81,93.0
282.87,104.0
282.93,122.0
283.0,127.0
283.06,113.0
283.12,101.0
283.18,104.0
283.25,94.0
283.31,104.0
283.37,101.0
283.44,104.0
283.5,121.0
283.56,107.0
283.63,115.0
283.69,111.0
283.75,110.0
283.81,105.0
283.88,115.0
283.94,113.0
284.0,102.0
284.07,102.0
284.13,75.0
284.19,75.0
284.26,79.0
284.32,93.0
284.38,97.0
284.44,113.0
284.51,103.0
284.57,90.0
284.63,90.0
284.7,83.0
284.76,78.0
284.82,55.0
284.89,68.0
284.95,75.0
285.01,74.0
285.07,52.0
285.14,67.0
285.2,74.0
285.26,69.0
285.33,85.0
285.39,80.0
285.45,65.0
285.52,81.0
285.58,82.0
285.64,89.0
285.7,85.0
285.77,82.0
285.83,79.0
285.89,81.0
285.96,74.0
286.02,109.0
286.08,107.0
286.15,130.0
286.21,131.0
286.27,119.0
286.33,113.0
286.4,120.0
286.46,119.0
286.52,94.0
286.59,113.0
286.65,115.0
286.71,119.0
286.78,116.0
286.84,121.0
286.9,130.0
286.96,111.0
287.03,110.0
287.09,119.0
287.15,111.0
287.22,111.0
287.28,99.0
287.34,87.0
287.41,90.0
287.47,87.0
287.53,108.0
287.59,121.0
287.66,129.0
287.72,129.0
287.78,146.0
287.85,122.0
287.91,115.0
287.97,140.0
288.04,154.0
288.1,141.0
288.16,138.0
288.22,126.0
288.29,127.0
288.35,132.0
288.41,120.0
288.48,148.0
288.54,153.0
288.6,158.0
288.67,154.0
288.73,126.0
288.79,126.0
288.85,122.0
288.92,113.0
288.98,124.0
289.04,122.0
289.11,116.0
289.17,126.0
289.23,93.0
289.3,99.0
289.36,110.0
289.42,111.0
289.48,104.0
289.55,83.0
289.61,93.0
289.67,98.0
289.74,85.0
289.8,77.0
289.86,73.0
289.93,91.0
289.99,89.0
290.05,91.0
290.11,80.0
290.18,64.0
290.24,69.0
290.3,79.0
290.37,67.0
290.43,64.0
290.49,68.0
290.56,100.0
290.62,87.0
290.68,81.0
290.74,93.0
290.81,88.0
290.87,90.0
290.93,101.0
291.0,112.0
291.06,124.0
291.12,102.0
291.19,88.0
291.25,105.0
291.31,96.0
291.37,84.0
291.44,90.0
291.5,78.0
291.56,82.0
291.63,74.0
291.69,85.0
291.75,82.0
291.82,96.0
291.88,82.0
291.94,93.0
292.0,119.0
292.07,116.0
292.13,104.0
292.19,97.0
292.26,104.0
292.32,104.0
292.38,105.0
292.45,99.0
292.51,88.0
292.57,112.0
292.63,116.0
292.7,121.0
292.76,116.0
292.82,112.0
292.89,115.0
292.95,105.0
293.01,93.0
293.08,87.0
293.14,86.0
293.2,92.0
293.26,91.0
293.33,103.0
293.39,110.0
293.45,97.0
293.52,93.0
293.58,98.0
293.64,99.0
293.71,75.0
293.77,78.0
293.83,88.0
293.89,94.0
293.96,94.0
294.02,66.0
294.08,90.0
294.15,88.0
294.21,83.0
294.27,111.0
294.34,108.0
294.4,111.0
294.46,112.0
294.52,102.0
294.59,90.0
294.65,79.0
294.71,72.0
294.78,97.0
294.84,102.0
294.9,84.0
294.97,91.0
295.03,109.0
295.09,122.0
295.15,118.0
295.22,115.0
295.28,128.0
295.34,121.0
295.41,119.0
295.47,101.0
295.53,102.0
295.6,100.0
295.66,122.0
295.72,121.0
295.78,110.0
295.85,121.0
295.91,76.0
295.97,82.0
296.04,74.0
296.1,89.0
296.16,90.0
296.23,88.0
296.29,96.0
296.35,70.0
296.41,112.0
296.48,97.0
296.54,89.0
296.6,87.0
296.67,84.0
296.73,85.0
296.79,94.0
296.86,82.0
296.92,91.0
296.98,90.0
297.04,94.0
297.11,114.0
297.17,99.0
297.23,102.0
297.3,111.0
297.36,91.0
297.42,106.0
297.49,104.0
297.55,103.0
297.61,118.0
297.67,119.0
297.74,116.0
297.8,114.0
297.86,103.0
297.93,94.0
297.99,108.0
298.05,83.0
298.12,101.0
298.18,90.0
298.24,100.0
298.3,117.0
298.37,115.0
298.43,108.0
298.49,105.0
298.56,112.0
298.62,123.0
298.68,110.0
298.75,102.0
298.81,122.0
298.87,125.0
298.93,140.0
299.0,133.0
299.06,144.0
299.12,152.0
299.19,156.0
299.25,133.0
299.31,130.0
299.38,141.0
299.44,152.0
299.5,168.0
299.56,139.0
299.63,140.0
299.69,157.0
299.75,175.0
299.82,132.0
299.88,140.0
299.94,113.0
300.01,123.0
300.07,130.0
300.13,109.0
300.19,127.0
300.26,135.0
300.32,121.0
300.38,130.0
300.45,144.0
300.51,145.0
300.57,155.0
300.64,141.0
300.7,130.0
300.76,122.0
300.82,101.0
300.89,113.0
300.95,116.0
301.01,126.0
301.08,121.0
301.14,115.0
301.2,132.0
301.27,116.0
301.33,128.0
301.39,125.0
301.45,110.0
301.52,104.0
301.58,107.0
301.64,113.0
301.71,108.0
301.77,99.0
301.83,111.0
301.9,121.0
301.96,106.0
302.02,118.0
302.08,123.0
302.15,103.0
302.21,119.0
302.27,137.0
302.34,134.0
302.4,116.0
302.46,122.0
302.53,159.0
302.59,156.0
302.65,132.0
302.71,132.0
302.78,137.0
302.84,151.0
302.9,166.0
302.97,133.0
303.03,152.0
303.09,148.0
303.16,168.0
303.22,147.0
303.28,145.0
303.34,129.0
303.41,148.0
303.47,148.0
303.53,152.0
303.6,166.0
303.66,159.0
303.72,135.0
303.79,154.0
303.85,149.0
303.91,137.0
303.97,159.0
304.04,149.0
304.1,156.0
304.16,149.0
304.23,167.0
304.29,149.0
304.35,158.0
304.42,179.0
304.48,156.0
304.54,163.0
304.6,152.0
304.67,144.0
304.73,133.0
304.79,140.0
304.86,144.0
304.92,127.0
304.98,150.0
305.05,134.0
305.11,149.0
305.17,147.0
305.23,133.0
305.3,150.0
305.36,138.0
305.42,156.0
305.49,167.0
305.55,148.0
305.61,151.0
305.68,138.0
305.74,166.0
305.8,146.0
305.86,152.0
305.93,166.0
305.99,156.0
306.05,148.0
306.12,137.0
306.18,142.0
306.24,129.0
306.31,138.0
306.37,128.0
306.43,134.0
306.49,126.0
306.56,110.0
306.62,111.0
306.68,114.0
306.75,113.0
306.81,103.0
306.87,107.0
306.94,115.0
307.0,123.0
307.06,111.0
307.12,113.0
307.19,119.0
307.25,112.0
307.31,119.0
307.38,115.0
307.44,106.0
307.5,94.0
307.57,102.0
307.63,105.0
307.69,128.0
307.75,120.0
307.82,104.0
307.88,127.0
307.94,107.0
308.01,112.0
308.07,126.0
308.13,112.0
308.2,109.0
308.26,131.0
308.32,112.0
308.38,115.0
308.45,112.0
308.51,110.0
308.57,111.0
308.64,74.0
308.7,104.0
308.76,93.0
308.83,104.0
308.89,96.0
308.95,86.0
309.01,97.0
309.08,104.0
309.14,93.0
309.2,85.0
309.27,84.0
309.33,106.0
309.39,75.0
309.46,93.0
309.52,88.0
309.58,75.0
309.64,66.0
309.71,86.0
309.77,86.0
309.83,80.0
309.9,89.0
309.96,99.0
310.02,113.0
310.09,107.0
310.15,107.0
310.21,83.0
310.27,83.0
310.34,107.0
310.4,101.0
310.46,119.0
310.53,97.0
310.59,88.0
310.65,89.0
310.72,69.0
310.78,79.0
310.84,91.0
310.9,91.0
310.97,107.0
311.03,102.0
311.09,76.0
311.16,75.0
311.22,81.0
311.28,84.0
311.35,97.0
311.41,82.0
311.47,96.0
311.53,77.0
311.6,86.0
311.66,76.0
311.72,65.0
311.79,72.0
311.85,82.0
311.91,83.0
311.98,81.0
312.04,75.0
312.1,64.0
312.16,55.0
312.23,55.0
312.29,71.0
312.35,74.0
312.42,67.0
312.48,63.0
312.54,63.0
312.61,77.0
312.67,85.0
312.73,90.0
312.79,86.0
312.86,72.0
312.92,49.0
312.98,33.0
313.05,53.0
313.11,48.0
313.17,60.0
313.24,66.0
313.3,72.0
313.36,69.0
313.42,71.0
313.49,78.0
313.55,76.0
313.61,82.0
313.68,89.0
313.74,82.0
313.8,67.0
313.87,71.0
313.93,61.0
313.99,73.0
314.05,58.0
314.12,37.0
314.18,53.0
314.24,66.0
314.31,64.0
314.37,71.0
314.43,68.0
314.5,53.0
314.56,38.0
314.62,61.0
314.68,81.0
314.75,64.0
314.81,62.0
314.87,52.0
314.94,46.0
315.0,49.0
315.06,53.0
315.13,50.0
315.19,48.0
315.25,57.0
315.31,64.0
315.38,76.0
315.44,77.0
315.5,63.0
315.57,60.0
315.63,71.0
315.69,98.0
315.76,76.0
315.82,80.0
315.88,88.0
315.94,71.0
316.01,88.0
316.07,66.0
316.13,64.0
316.2,71.0
316.26,69.0
316.32,72.0
316.39,78.0
316.45,70.0
316.51,49.0
316.57,60.0
316.64,41.0
316.7,45.0
316.76,50.0
316.83,41.0
316.89,38.0
316.95,34.0
317.02,19.0
317.08,30.0
317.14,25.0
317.2,20.0
317.27,23.0
317.33,4.0
317.39,3.0
317.46,14.0
317.52,20.0
317.58,17.0
317.65,19.0
317.71,25.0
317.77,16.0
317.83,16.0
317.9,15.0
317.96,31.0
318.02,31.0
318.09,9.0
318.15,31.0
318.21,12.0
318.28,22.0
318.34,34.0
318.4,40.0
318.46,43.0
318.53,62.0
318.59,66.0
318.65,47.0
318.72,57.0
318.78,48.0
318.84,59.0
318.91,56.0
318.97,53.0
319.03,50.0
319.09,63.0
319.16,46.0
319.22,25.0
319.28,33.0
319.35,44.0
319.41,49.0
319.47,47.0
319.54,66.0
319.6,76.0
319.66,60.0
319.72,65.0
319.79,42.0
319.85,55.0
319.91,56.0
319.98,45.0
320.04,67.0
320.1,60.0
320.17,55.0
320.23,49.0
320.29,67.0
320.35,72.0
320.42,50.0
320.48,57.0
320.54,75.0
320.61,76.0
320.67,55.0
320.73,69.0
320.8,64.0
320.86,71.0
320.92,85.0
320.98,95.0
321.05,71.0
321.11,75.0
321.17,89.0
321.24,79.0
321.3,75.0
321.36,100.0
321.43,102.0
321.49,100.0
321.55,109.0
321.61,100.0
321.68,94.0
321.74,106.0
321.8,93.0
321.87,88.0
321.93,112.0
321.99,111.0
322.06,114.0
322.12,128.0
322.18,111.0
322.24,117.0
322.31,110.0
322.37,123.0
322.43,129.0
322.5,110.0
322.56,132.0
322.62,139.0
322.69,137.0
322.75,130.0
322.81,126.0
322.87,119.0
322.94,102.0
323.0,118.0
323.06,111.0
323.13,100.0
323.19,111.0
323.25,107.0
323.32,98.0
323.38,88.0
323.44,96.0
323.5,99.0
323.57,92.0
323.63,83.0
323.69,98.0
323.76,88.0
323.82,82.0
323.88,69.0
323.95,66.0
324.01,74.0
324.07,74.0
324.13,83.0
324.2,93.0
324.26,113.0
324.32,88.0
324.39,82.0
324.45,75.0
324.51,83.0
324.58,67.0
324.64,52.0
324.7,42.0
324.76,59.0
324.83,53.0
324.89,48.0
324.95,68.0
325.02,39.0
325.08,40.0
325.14,51.0
325.21,58.0
325.27,62.0
325.33,58.0
325.39,61.0
325.46,69.0
325.52,58.0
325.58,49.0
325.65,85.0
325.71,58.0
325.77,44.0
325.84,53.0
325.9,42.0
325.96,50.0
326.02,56.0
326.09,51.0
326.15,39.0
326.21,47.0
326.28,49.0
326.34,46.0
326.4,43.0
326.47,44.0
326.53,50.0
326.59,32.0
326.65,38.0
326.72,33.0
326.78,35.0
326.84,45.0
326.91,33.0
326.97,29.0
327.03,27.0
327.1,60.0
327.16,46.0
327.22,29.0
327.28,2.0
327.35,19.0
327.41,7.0
327.47,22.0
327.54,24.0
327.6,30.0
327.66,0.0
327.73,14.0
327.79,34.0
327.85,20.0
327.91,5.0
327.98,1.0
328.04,6.0
328.1,15.0
328.17,30.0
328.23,46.0
328.29,33.0
328.36,25.0
328.42,22.0
328.48,2.0
328.54,-14.0
328.61,1.0
328.67,0.0
328.73,-3.0
328.8,20.0
328.86,18.0
328.92,4.0
328.99,-13.0
329.05,-26.0
329.11,-7.0
329.17,6.0
329.24,28.0
329.3,24.0
329.36,4.0
329.43,8.0
329.49,5.0
329.55,-8.0
329.62,-17.0
329.68,9.0
329.74,13.0
329.8,19.0
329.87,31.0
329.93,27.0
329.99,21.0
330.06,-7.0
330.12,13.0
330.18,21.0
330.25,25.0
330.31,14.0
330.37,29.0
330.43,16.0
330.5,24.0
330.56,6.0
330.62,24.0
330.69,20.0
330.75,14.0
330.81,5.0
330.88,4.0
330.94,7.0
331.0,14.0
331.06,15.0
331.13,15.0
331.19,16.0
331.25,25.0
331.32,11.0
331.38,21.0
331.44,13.0
331.51,7.0
331.57,15.0
331.63,1.0
331.69,-4.0
331.76,5.0
331.82,19.0
331.88,26.0
331.95,30.0
332.01,29.0
332.07,34.0
332.14,15.0
332.2,18.0
332.26,44.0
332.32,47.0
332.39,46.0
332.45,31.0
332.51,49.0
332.58,57.0
332.64,30.0
332.7,42.0
332.77,62.0
332.83,80.0
332.89,62.0
332.95,61.0
333.02,65.0
333.08,60.0
333.14,63.0
333.21,61.0
333.27,42.0
333.33,54.0
333.4,70.0
333.46,58.0
333.52,50.0
333.58,65.0
333.65,52.0
333.71,53.0
333.77,84.0
333.84,89.0
333.9,76.0
333.96,72.0
334.03,72.0
334.09,72.0
334.15,71.0
334.21,61.0
334.28,76.0
334.34,52.0
334.4,62.0
334.47,57.0
334.53,52.0
334.59,75.0
334.66,82.0
334.72,82.0
334.78,74.0
334.84,67.0
334.91,55.0
334.97,55.0
335.03,59.0
335.1,69.0
335.16,67.0
335.22,62.0
335.29,63.0
335.35,65.0
335.41,72.0
335.47,83.0
335.54,80.0
335.6,71.0
335.66,69.0
335.73,66.0
335.79,77.0
335.85,90.0
335.92,84.0
335.98,104.0
336.04,112.0
336.1,99.0
336.17,98.0
336.23,97.0
336.29,91.0
336.36,87.0
336.42,116.0
336.48,115.0
336.55,119.0
336.61,120.0
336.67,115.0
336.73,112.0
336.8,135.0
336.86,138.0
336.92,148.0
336.99,148.0
337.05,157.0
337.11,162.0
337.18,167.0
337.24,136.0
337.3,171.0
337.36,160.0
337.43,145.0
337.49,150.0
337.55,142.0
337.62,143.0
337.68,160.0
337.74,140.0
337.81,157.0
337.87,135.0
337.93,143.0
337.99,156.0
338.06,133.0
338.12,142.0
338.18,150.0
338.25,156.0
338.31,151.0
338.37,151.0
338.44,154.0
338.5,156.0
338.56,159.0
338.62,135.0
338.69,139.0
338.75,153.0
338.81,142.0
338.88,127.0
338.94,136.0
339.0,128.0
339.07,137.0
339.13,135.0
339.19,116.0
339.25,128.0
339.32,134.0
339.38,128.0
339.44,145.0
339.51,143.0
339.57,140.0
339.63,139.0
339.7,134.0
339.76,116.0
339.82,127.0
339.88,140.0
339.95,142.0
340.01,120.0
340.07,126.0
340.14,122.0
340.2,114.0
340.26,112.0
340.33,102.0
340.39,98.0
340.45,87.0
340.51,71.0
340.58,91.0
340.64,99.0
340.7,87.0
340.77,90.0
340.83,97.0
340.89,94.0
340.96,99.0
341.02,83.0
341.08,66.0
341.14,64.0
341.21,59.0
341.27,71.0
341.33,85.0
341.4,79.0
341.46,78.0
341.52,76.0
341.59,67.0
341.65,85.0
341.71,71.0
341.77,65.0
341.84,59.0
341.9,47.0
341.96,45.0
342.03,37.0
342.09,53.0
342.15,48.0
342.22,62.0
342.28,61.0
342.34,47.0
342.4,53.0
342.47,51.0
342.53,53.0
342.59,30.0
342.66,25.0
342.72,40.0
342.78,25.0
342.85,17.0
342.91,14.0
342.97,23.0
343.03,14.0
343.1,19.0
343.16,10.0
343.22,4.0
343.29,28.0
343.35,17.0
343.41,15.0
343.48,23.0
343.54,4.0
343.6,30.0
343.66,27.0
343.73,43.0
343.79,41.0
343.85,29.0
343.92,47.0
343.98,55.0
344.04,39.0
344.11,61.0
344.17,56.0
344.23,49.0
344.29,43.0
344.36,43.0
344.42,59.0
344.48,64.0
344.55,66.0
344.61,46.0
344.67,44.0
344.74,43.0
344.8,33.0
344.86,49.0
344.92,52.0
344.99,62.0
345.05,58.0
345.11,61.0
345.18,57.0
345.24,58.0
345.3,73.0
345.37,43.0
345.43,72.0
345.49,85.0
345.55,73.0
345.62,81.0
345.68,72.0
345.74,51.0
345.81,55.0
345.87,32.0
345.93,69.0
346.0,52.0
346.06,47.0
346.12,36.0
346.18,60.0
346.25,73.0
346.31,72.0
346.37,68.0
346.44,65.0
346.5,79.0
346.56,86.0
346.63,76.0
346.69,80.0
346.75,79.0
346.81,67.0
346.88,59.0
346.94,65.0
347.0,64.0
347.07,63.0
347.13,74.0
347.19,76.0
347.26,91.0
347.32,102.0
347.38,104.0
347.44,95.0
347.51,103.0
347.57,91.0
347.63,90.0
347.7,112.0
347.76,109.0
347.82,97.0
347.89,105.0
347.95,112.0
348.01,99.0
348.07,104.0
348.14,98.0
348.2,109.0
348.26,107.0
348.33,120.0
348.39,127.0
348.45,109.0
348.52,124.0
348.58,122.0
348.64,128.0
348.7,122.0
348.77,114.0
348.83,148.0
348.89,153.0
348.96,131.0
349.02,139.0
349.08,137.0
349.15,124.0
349.21,150.0
349.27,133.0
349.33,118.0
349.4,113.0
349.46,114.0
349.52,127.0
349.59,117.0
349.65,124.0
349.71,124.0
349.78,138.0
349.84,145.0
349.9,151.0
349.96,153.0
350.03,139.0
350.09,142.0
350.15,161.0
350.22,164.0
350.28,159.0
350.34,170.0
350.41,160.0
350.47,148.0
350.53,162.0
350.59,162.0
350.66,159.0
350.72,151.0
350.78,164.0
350.85,150.0
350.91,157.0
350.97,167.0
351.04,166.0
351.1,171.0
351.16,176.0
351.22,164.0
351.29,165.0
351.35,160.0
351.41,165.0
351.48,161.0
351.54,175.0
351.6,179.0
351.67,182.0
351.73,193.0
351.79,194.0
351.85,219.0
351.92,222.0
351.98,202.0
352.04,212.0
352.11,190.0
352.17,177.0
352.23,187.0
352.3,189.0
352.36,188.0
352.42,173.0
352.48,180.0
352.55,207.0
352.61,204.0
352.67,206.0
352.74,194.0
352.8,210.0
352.86,223.0
352.93,224.0
352.99,211.0
353.05,209.0
353.11,233.0
353.18,230.0
353.24,223.0
353.3,225.0
353.37,237.0
353.43,221.0
353.49,206.0
353.56,217.0
353.62,205.0
353.68,223.0
353.74,208.0
353.81,214.0
353.87,222.0
353.93,234.0
354.0,230.0
354.06,250.0
354.12,240.0
354.19,231.0
354.25,232.0
354.31,213.0
354.37,231.0
354.44,239.0
354.5,251.0
354.56,250.0
354.63,244.0
354.69,230.0
354.75,243.0
354.82,237.0
354.88,241.0
354.94,247.0
355.0,254.0
355.07,262.0
355.13,264.0
355.19,252.0
355.26,253.0
355.32,276.0
355.38,247.0
355.45,251.0
355.51,243.0
355.57,251.0
355.63,264.0
355.7,259.0
355.76,250.0
355.82,251.0
355.89,252.0
355.95,251.0
356.01,270.0
356.08,269.0
356.14,255.0
356.2,234.0
356.26,258.0
356.33,246.0
356.39,237.0
356.45,241.0
356.52,219.0
356.58,236.0
356.64,234.0
356.71,231.0
356.77,230.0
356.83,218.0
356.89,208.0
356.96,190.0
357.02,202.0
357.08,208.0
357.15,192.0
357.21,188.0
357.27,167.0
357.34,177.0
357.4,168.0
357.46,173.0
357.52,171.0
357.59,161.0
357.65,177.0
357.71,196.0
357.78,198.0
357.84,182.0
357.9,182.0
357.97,175.0
358.03,148.0
358.09,144.0
358.15,156.0
358.22,152.0
358.28,142.0
358.34,151.0
358.41,165.0
358.47,148.0
358.53,152.0
358.6,145.0
358.66,159.0
358.72,157.0
358.78,138.0
358.85,135.0
358.91,123.0
358.97,113.0
359.04,125.0
359.1,118.0
359.16,113.0
359.23,128.0
359.29,113.0
359.35,103.0
359.41,119.0
359.48,109.0
359.54,120.0
359.6,121.0
359.67,105.0
359.73,137.0
359.79,134.0
359.86,146.0
359.92,121.0
359.98,98.0
360.04,118.0
360.11,104.0
360.17,98.0
360.23,98.0
360.3,115.0
360.36,109.0
360.42,107.0
360.49,121.0
360.55,109.0
360.61,121.0
360.67,123.0
360.74,109.0
360.8,121.0
360.86,102.0
360.93,100.0
360.99,101.0
361.05,85.0
361.12,96.0
361.18,91.0
361.24,91.0
361.3,101.0
361.37,94.0
361.43,71.0
361.49,69.0
361.56,74.0
361.62,77.0
361.68,62.0
361.75,49.0
361.81,74.0
361.87,59.0
361.93,52.0
362.0,58.0
362.06,44.0
362.12,38.0
362.19,62.0
362.25,57.0
362.31,61.0
362.38,54.0
362.44,59.0
362.5,80.0
362.56,76.0
362.63,83.0
362.69,82.0
362.75,91.0
362.82,109.0
362.88,50.0
362.94,80.0
363.01,98.0
363.07,77.0
363.13,93.0
363.19,68.0
363.26,71.0
363.32,69.0
363.38,67.0
363.45,86.0
363.51,91.0
363.57,102.0
363.64,101.0
363.7,77.0
363.76,65.0
363.82,58.0
363.89,77.0
363.95,77.0
364.01,80.0
364.08,64.0
364.14,75.0
364.2,57.0
364.27,96.0
364.33,96.0
364.39,84.0
364.45,86.0
364.52,85.0
364.58,86.0
364.64,77.0
364.71,60.0
364.77,62.0
364.83,66.0
364.9,53.0
364.96,66.0
365.02,70.0
365.08,62.0
365.15,61.0
365.21,87.0
365.27,69.0
365.34,62.0
365.4,69.0
365.46,77.0
365.53,84.0
365.59,76.0
365.65,62.0
365.71,58.0
365.78,58.0
365.84,41.0
365.9,68.0
365.97,54.0
366.03,80.0
366.09,86.0
366.16,77.0
366.22,102.0
366.28,90.0
366.34,98.0
366.41,108.0
366.47,91.0
366.53,102.0
366.6,90.0
366.66,95.0
366.72,99.0
366.79,91.0
366.85,114.0
366.91,117.0
366.97,91.0
367.04,88.0
367.1,88.0
367.16,80.0
367.23,89.0
367.29,79.0
367.35,81.0
367.42,69.0
367.48,49.0
367.54,79.0
367.6,68.0
367.67,72.0
367.73,53.0
367.79,53.0
367.86,61.0
367.92,53.0
367.98,58.0
368.05,78.0
368.11,60.0
368.17,43.0
368.23,69.0
368.3,43.0
368.36,65.0
368.42,67.0
368.49,59.0
368.55,60.0
368.61,40.0
368.68,77.0
368.74,65.0
368.8,96.0
368.86,95.0
368.93,104.0
368.99,79.0
369.05,73.0
369.12,84.0
369.18,88.0
369.24,86.0
369.31,75.0
369.37,77.0
369.43,98.0
369.49,121.0
369.56,100.0
369.62,102.0
369.68,118.0
369.75,110.0
369.81,131.0
369.87,126.0
369.94,113.0
370.0,131.0
370.06,120.0
370.12,127.0
370.19,115.0
370.25,132.0
370.31,135.0
370.38,128.0
370.44,136.0
370.5,161.0
370.57,146.0
370.63,156.0
370.69,163.0
370.75,181.0
370.82,174.0
370.88,157.0
370.94,159.0
371.01,168.0
371.07,173.0
371.13,164.0
371.2,172.0
371.26,167.0
371.32,157.0
371.38,171.0
371.45,168.0
371.51,179.0
371.57,175.0
371.64,183.0
371.7,198.0
371.76,174.0
371.83,170.0
371.89,168.0
371.95,181.0
372.01,175.0
372.08,171.0
372.14,171.0
372.2,165.0
372.27,153.0
372.33,145.0
372.39,172.0
372.46,146.0
372.52,151.0
372.58,168.0
372.64,165.0
372.71,161.0
372.77,158.0
372.83,147.0
372.9,138.0
372.96,154.0
373.02,167.0
373.09,142.0
373.15,148.0
373.21,139.0
373.27,116.0
373.34,130.0
373.4,132.0
373.46,114.0
373.53,122.0
373.59,121.0
373.65,125.0
373.72,131.0
373.78,133.0
373.84,127.0
373.9,109.0
373.97,113.0
374.03,91.0
374.09,107.0
374.16,99.0
374.22,109.0
374.28,99.0
374.35,84.0
374.41,84.0
374.47,91.0
374.53,76.0
374.6,47.0
374.66,63.0
374.72,64.0
374.79,59.0
374.85,50.0
374.91,57.0
374.98,65.0
375.04,55.0
375.1,55.0
375.16,47.0
375.23,47.0
375.29,54.0
375.35,38.0
375.42,48.0
375.48,58.0
375.54,40.0
375.61,41.0
375.67,74.0
375.73,55.0
375.79,40.0
375.86,40.0
375.92,36.0
375.98,44.0
376.05,35.0
376.11,40.0
376.17,28.0
376.24,32.0
376.3,28.0
376.36,1.0
376.42,1.0
376.49,-1.0
376.55,2.0
376.61,-15.0
376.68,-3.0
376.74,39.0
376.8,27.0
376.87,9.0
376.93,2.0
376.99,14.0
377.05,31.0
377.12,17.0
377.18,16.0
377.24,23.0
377.31,41.0
377.37,22.0
377.43,11.0
377.5,17.0
377.56,7.0
377.62,19.0
377.68,-4.0
377.75,-2.0
377.81,-2.0
377.87,4.0
377.94,4.0
378.0,-6.0
378.06,-28.0
378.13,-6.0
378.19,-14.0
378.25,-3.0
378.31,-22.0
378.38,-35.0
378.44,-22.0
378.5,-24.0
378.57,-31.0
378.63,-39.0
378.69,-35.0
378.76,-25.0
378.82,-13.0
378.88,10.0
378.94,-9.0
379.01,-15.0
379.07,-24.0
379.13,-25.0
379.2,-4.0
379.26,-30.0
379.32,-15.0
379.39,-23.0
379.45,-23.0
379.51,-3.0
379.57,9.0
379.64,0.0
379.7,3.0
379.76,23.0
379.83,8.0
379.89,5.0
379.95,13.0
380.02,16.0
380.08,12.0
380.14,12.0
380.2,7.0
380.27,29.0
380.33,25.0
380.39,27.0
380.46,20.0
380.52,27.0
380.58,24.0
380.65,13.0
380.71,5.0
380.77,23.0
380.83,32.0
380.9,42.0
380.96,46.0
381.02,47.0
381.09,51.0
381.15,68.0
381.21,76.0
381.28,59.0
381.34,50.0
381.4,70.0
381.46,63.0
381.53,46.0
381.59,26.0
381.65,35.0
381.72,50.0
381.78,30.0
381.84,41.0
381.91,59.0
381.97,47.0
382.03,38.0
382.09,56.0
382.16,62.0
382.22,64.0
382.28,67.0
382.35,66.0
382.41,72.0
382.47,74.0
382.54,68.0
382.6,82.0
382.66,85.0
382.72,77.0
382.79,96.0
382.85,100.0
382.91,79.0
382.98,88.0
383.04,85.0
383.1,86.0
383.17,87.0
383.23,85.0
383.29,82.0
383.35,63.0
383.42,68.0
383.48,61.0
383.54,68.0
383.61,89.0
383.67,64.0
383.73,79.0
383.8,69.0
383.86,68.0
383.92,56.0
383.98,54.0
384.05,61.0
384.11,63.0
384.17,62.0
384.24,56.0
384.3,51.0
384.36,48.0
384.43,53.0
384.49,60.0
384.55,67.0
384.61,62.0
384.68,49.0
384.74,40.0
384.8,57.0
384.87,62.0
384.93,80.0
384.99,68.0
385.06,73.0
385.12,61.0
385.18,81.0
385.24,76.0
385.31,64.0
385.37,71.0
385.43,72.0
385.5,59.0
385.56,81.0
385.62,60.0
385.69,85.0
385.75,82.0
385.81,65.0
385.87,79.0
385.94,87.0
386.0,86.0
386.06,76.0
386.13,97.0
386.19,83.0
386.25,86.0
386.32,82.0
386.38,83.0
386.44,86.0
386.5,115.0
386.57,92.0
386.63,87.0
386.69,90.0
386.76,104.0
386.82,101.0
386.88,103.0
386.95,93.0
387.01,90.0
387.07,95.0
387.13,95.0
387.2,109.0
387.26,100.0
387.32,109.0
387.39,124.0
387.45,100.0
387.51,108.0
387.58,98.0
387.64,112.0
387.7,133.0
387.76,139.0
387.83,117.0
387.89,113.0
387.95,115.0
388.02,113.0
388.08,114.0
388.14,126.0
388.21,133.0
388.27,137.0
388.33,144.0
388.39,130.0
388.46,117.0
388.52,123.0
388.58,117.0
388.65,123.0
388.71,137.0
388.77,109.0
388.84,117.0
388.9,131.0
388.96,134.0
389.02,116.0
389.09,124.0
389.15,112.0
389.21,122.0
389.28,116.0
389.34,121.0
389.4,113.0
389.47,106.0
389.53,119.0
389.59,109.0
389.65,125.0
389.72,111.0
389.78,97.0
389.84,90.0
389.91,85.0
389.97,89.0
390.03,80.0
390.1,78.0
390.16,84.0
390.22,103.0
390.28,93.0
390.35,87.0
390.41,92.0
390.47,111.0
390.54,100.0
390.6,105.0
390.66,106.0
390.73,92.0
390.79,100.0
390.85,94.0
390.91,86.0
390.98,75.0
391.04,67.0
391.1,75.0
391.17,70.0
391.23,74.0
391.29,82.0
391.36,70.0
391.42,68.0
391.48,56.0
391.54,49.0
391.61,56.0
391.67,49.0
391.73,43.0
391.8,54.0
391.86,38.0
391.92,35.0
391.99,53.0
392.05,40.0
392.11,32.0
392.17,51.0
392.24,30.0
392.3,23.0
392.36,41.0
392.43,15.0
392.49,12.0
392.55,18.0
392.62,21.0
392.68,15.0
392.74,13.0
392.8,13.0
392.87,6.0
392.93,18.0
392.99,33.0
393.06,35.0
393.12,11.0
393.18,13.0
393.25,12.0
393.31,1.0
393.37,13.0
393.43,20.0
393.5,18.0
393.56,13.0
393.62,24.0
393.69,15.0
393.75,25.0
393.81,27.0
393.88,38.0
393.94,41.0
394.0,28.0
394.06,27.0
394.13,17.0
394.19,27.0
394.25,26.0
394.32,24.0
394.38,31.0
394.44,28.0
394.51,49.0
394.57,40.0
394.63,34.0
394.69,46.0
394.76,42.0
394.82,19.0
394.88,38.0
394.95,32.0
395.01,47.0
395.07,56.0
395.14,39.0
395.2,49.0
395.26,38.0
395.32,61.0
395.39,46.0
395.45,50.0
395.51,59.0
395.58,58.0
395.64,53.0
395.7,49.0
395.77,49.0
395.83,34.0
395.89,40.0
395.95,60.0
396.02,66.0
396.08,50.0
396.14,54.0
396.21,72.0
396.27,90.0
396.33,95.0
396.4,75.0
396.46,93.0
396.52,71.0
396.58,88.0
396.65,100.0
396.71,110.0
396.77,90.0
396.84,92.0
396.9,112.0
396.96,110.0
397.03,115.0
397.09,103.0
397.15,110.0
397.21,112.0
397.28,134.0
397.34,123.0
397.4,126.0
397.47,147.0
397.53,135.0
397.59,109.0
397.66,119.0
397.72,123.0
397.78,112.0
397.84,96.0
397.91,104.0
397.97,111.0
398.03,96.0
398.1,128.0
398.16,108.0
398.22,99.0
398.29,97.0
398.35,97.0
398.41,102.0
398.47,78.0
398.54,86.0
398.6,111.0
398.66,90.0
398.73,115.0
398.79,106.0
398.85,118.0
398.92,122.0
398.98,89.0
399.04,100.0
399.1,101.0
399.17,101.0
399.23,113.0
399.29,122.0
399.36,95.0
399.42,97.0
399.48,112.0
399.55,92.0
399.61,120.0
399.67,120.0
399.73,108.0
399.8,123.0
399.86,97.0
399.92,129.0
399.99,145.0
400.05,123.0
400.11,127.0
400.18,108.0
400.24,102.0
400.3,104.0
400.36,111.0
400.43,122.0
400.49,97.0
400.55,91.0
400.62,97.0
400.68,73.0
400.74,82.0
400.81,93.0
400.87,86.0
400.93,83.0
400.99,89.0
401.06,76.0
401.12,70.0
401.18,86.0
401.25,68.0
401.31,73.0
401.37,97.0
401.44,81.0
401.5,88.0
401.56,101.0
401.62,75.0
401.69,91.0
401.75,73.0
401.81,90.0
401.88,88.0
401.94,83.0
402.0,97.0
402.07,74.0
402.13,76.0
402.19,81.0
402.25,86.0
402.32,86.0
402.38,93.0
402.44,94.0
402.51,108.0
402.57,126.0
402.63,109.0
402.7,135.0
402.76,113.0
402.82,97.0
402.88,111.0
402.95,109.0
403.01,112.0
403.07,108.0
403.14,96.0
403.2,100.0
403.26,108.0
403.33,126.0
403.39,122.0
403.45,115.0
403.51,129.0
403.58,132.0
403.64,132.0
403.7,119.0
403.77,139.0
403.83,139.0
403.89,147.0
403.96,154.0
404.02,150.0
404.08,152.0
404.14,142.0
404.21,140.0
404.27,153.0
404.33,161.0
404.4,161.0
404.46,166.0
404.52,154.0
404.59,151.0
404.65,167.0
404.71,172.0
404.77,180.0
404.84,181.0
404.9,182.0
404.96,183.0
405.03,183.0
405.09,167.0
405.15,170.0
405.22,194.0
405.28,173.0
405.34,188.0
405.4,186.0
405.47,177.0
405.53,180.0
405.59,192.0
405.66,179.0
405.72,189.0
405.78,178.0
405.85,179.0
405.91,196.0
405.97,183.0
406.03,174.0
406.1,207.0
406.16,188.0
406.22,188.0
406.29,191.0
406.35,166.0
406.41,190.0
406.48,175.0
406.54,184.0
406.6,177.0
406.66,154.0
406.73,172.0
406.79,158.0
406.85,165.0
406.92,172.0
406.98,172.0
407.04,172.0
407.11,181.0
407.17,174.0
407.23,159.0
407.29,168.0
407.36,169.0
407.42,168.0
407.48,152.0
407.55,167.0
407.61,172.0
407.67,160.0
407.74,161.0
407.8,177.0
407.86,165.0
407.92,154.0
407.99,159.0
408.05,180.0
408.11,180.0
408.18,163.0
408.24,162.0
408.3,169.0
408.37,170.0
408.43,176.0
408.49,175.0
408.55,155.0
408.62,165.0
408.68,163.0
408.74,148.0
408.81,182.0
408.87,150.0
408.93,162.0
409.0,147.0
409.06,152.0
409.12,150.0
409.18,129.0
409.25,133.0
409.31,130.0
409.37,130.0
409.44,119.0
409.5,120.0
409.56,129.0
409.63,118.0
409.69,111.0
409.75,111.0
409.81,98.0
409.88,88.0
409.94,97.0
410.0,95.0
410.07,93.0
410.13,116.0
410.19,108.0
410.26,122.0
410.32,119.0
410.38,106.0
410.44,114.0
410.51,116.0
410.57,122.0
410.63,107.0
410.7,98.0
410.76,89.0
410.82,109.0
410.89,110.0
410.95,91.0
411.01,104.0
411.07,104.0
411.14,112.0
411.2,113.0
411.26,108.0
411.33,103.0
411.39,92.0
411.45,100.0
411.52,110.0
411.58,122.0
411.64,128.0
411.7,113.0
411.77,108.0
411.83,101.0
411.89,111.0
411.96,104.0
412.02,104.0
412.08,107.0
412.15,121.0
412.21,117.0
412.27,120.0
412.33,136.0
412.4,129.0
412.46,128.0
412.52,118.0
412.59,122.0
412.65,109.0
412.71,104.0
412.78,95.0
412.84,97.0
412.9,98.0
412.96,111.0
413.03,126.0
413.09,107.0
413.15,99.0
413.22,83.0
413.28,71.0
413.34,93.0
413.41,90.0
413.47,78.0
413.53,90.0
413.59,101.0
413.66,86.0
413.72,102.0
413.78,96.0
413.85,96.0
413.91,107.0
413.97,101.0
414.04,91.0
414.1,97.0
414.16,82.0
414.22,70.0
414.29,81.0
414.35,82.0
414.41,79.0
414.48,77.0
414.54,78.0
414.6,102.0
414.67,93.0
414.73,72.0
414.79,86.0
414.85,84.0
414.92,76.0
414.98,72.0
415.04,81.0
415.11,78.0
415.17,75.0
415.23,87.0
415.3,87.0
415.36,79.0
415.42,97.0
415.48,98.0
415.55,99.0
415.61,81.0
415.67,80.0
415.74,103.0
415.8,90.0
415.86,96.0
415.93,107.0
415.99,87.0
416.05,76.0
416.11,55.0
416.18,95.0
416.24,95.0
416.3,88.0
416.37,100.0
416.43,80.0
416.49,86.0
416.56,82.0
416.62,78.0
416.68,85.0
416.74,78.0
416.81,90.0
416.87,82.0
416.93,82.0
417.0,76.0
417.06,56.0
417.12,79.0
417.19,78.0
417.25,77.0
417.31,94.0
417.37,89.0
417.44,71.0
417.5,74.0
417.56,74.0
417.63,75.0
417.69,89.0
417.75,79.0
417.82,74.0
417.88,82.0
417.94,74.0
418.0,82.0
418.07,84.0
418.13,63.0
418.19,80.0
418.26,97.0
418.32,102.0
418.38,85.0
418.45,71.0
418.51,65.0
418.57,74.0
418.63,75.0
418.7,40.0
418.76,51.0
418.82,73.0
418.89,69.0
418.95,62.0
419.01,57.0
419.08,83.0
419.14,59.0
419.2,74.0
419.26,61.0
419.33,71.0
419.39,67.0
419.45,60.0
419.52,63.0
419.58,62.0
419.64,68.0
419.71,38.0
419.77,44.0
419.83,74.0
419.89,80.0
419.96,71.0
420.02,79.0
420.08,105.0
420.15,104.0
420.21,99.0
420.27,104.0
420.34,105.0
420.4,87.0
420.46,104.0
420.52,106.0
420.59,102.0
420.65,106.0
420.71,109.0
420.78,106.0
420.84,130.0
420.9,144.0
420.97,144.0
421.03,155.0
421.09,132.0
421.15,130.0
421.22,136.0
421.28,147.0
421.34,165.0
421.41,175.0
421.47,163.0
421.53,162.0
421.6,166.0
421.66,181.0
421.72,172.0
421.78,181.0
421.85,184.0
421.91,191.0
421.97,186.0
422.04,158.0
422.1,173.0
422.16,169.0
422.23,179.0
422.29,180.0
422.35,170.0
422.41,190.0
422.48,176.0
422.54,178.0
422.6,176.0
422.67,176.0
422.73,180.0
422.79,199.0
422.86,201.0
422.92,198.0
422.98,194.0
423.04,196.0
423.11,206.0
423.17,193.0
423.23,199.0
423.3,199.0
423.36,190.0
423.42,185.0
423.49,171.0
423.55,183.0
423.61,199.0
423.67,183.0
423.74,184.0
423.8,161.0
423.86,159.0
423.93,158.0
423.99,162.0
424.05,162.0
424.12,162.0
424.18,155.0
424.24,134.0
424.3,143.0
424.37,155.0
424.43,130.0
424.49,137.0
424.56,142.0
424.62,139.0
424.68,135.0
424.75,105.0
424.81,119.0
424.87,127.0
424.93,136.0
425.0,128.0
425.06,118.0
425.12,98.0
425.19,114.0
425.25,104.0
425.31,108.0
425.38,119.0
425.44,117.0
425.5,133.0
425.56,123.0
425.63,110.0
425.69,115.0
425.75,106.0
425.82,126.0
425.88,114.0
425.94,130.0
426.01,128.0
426.07,121.0
426.13,105.0
426.19,111.0
426.26,103.0
426.32,107.0
426.38,100.0
426.45,119.0
426.51,97.0
426.57,112.0
426.64,96.0
426.7,86.0
426.76,114.0
426.82,93.0
426.89,95.0
426.95,87.0
427.01,76.0
427.08,72.0
427.14,81.0
427.2,85.0
427.27,64.0
427.33,82.0
427.39,94.0
427.45,72.0
427.52,52.0
427.58,51.0
427.64,33.0
427.71,36.0
427.77,30.0
427.83,45.0
427.9,37.0
427.96,35.0
428.02,57.0
428.08,37.0
428.15,22.0
428.21,39.0
428.27,44.0
428.34,34.0
428.4,68.0
428.46,43.0
428.53,52.0
428.59,47.0
428.65,35.0
428.71,39.0
428.78,32.0
428.84,40.0
428.9,53.0
428.97,37.0
429.03,53.0
429.09,52.0
429.16,67.0
429.22,52.0
429.28,69.0
429.34,65.0
429.41,49.0
429.47,43.0
429.53,30.0
429.6,37.0
429.66,50.0
429.72,59.0
429.79,76.0
429.85,56.0
429.91,59.0
429.97,62.0
430.04,57.0
430.1,50.0
430.16,38.0
430.23,66.0
430.29,84.0
430.35,55.0
430.42,52.0
430.48,56.0
430.54,48.0
430.6,51.0
430.67,52.0
430.73,49.0
430.79,51.0
430.86,46.0
430.92,71.0
430.98,58.0
431.05,73.0
431.11,89.0
431.17,80.0
431.23,77.0
431.3,77.0
431.36,72.0
431.42,67.0
431.49,75.0
431.55,64.0
431.61,68.0
431.68,69.0
431.74,71.0
431.8,97.0
431.86,84.0
431.93,86.0
431.99,76.0
432.05,93.0
432.12,93.0
432.18,107.0
432.24,85.0
432.31,75.0
432.37,73.0
432.43,79.0
432.49,86.0
432.56,100.0
432.62,98.0
432.68,97.0
432.75,103.0
432.81,107.0
432.87,111.0
432.94,96.0
433.0,83.0
433.06,106.0
433.12,105.0
433.19,103.0
433.25,92.0
433.31,98.0
433.38,101.0
433.44,111.0
433.5,108.0
433.57,98.0
433.63,104.0
433.69,95.0
433.75,82.0
433.82,101.0
433.88,70.0
433.94,73.0
434.01,78.0
434.07,76.0
434.13,74.0
434.2,54.0
434.26,60.0
434.32,52.0
434.38,52.0
434.45,46.0
434.51,62.0
434.57,72.0
434.64,71.0
434.7,52.0
434.76,54.0
434.83,46.0
434.89,46.0
434.95,46.0
435.01,54.0
435.08,38.0
435.14,21.0
435.2,49.0
435.27,49.0
435.33,48.0
435.39,45.0
435.46,44.0
435.52,42.0
435.58,49.0
435.64,53.0
435.71,68.0
435.77,64.0
435.83,63.0
435.9,59.0
435.96,68.0
436.02,59.0
436.09,64.0
436.15,75.0
436.21,86.0
436.27,76.0
436.34,71.0
436.4,81.0
436.46,62.0
436.53,65.0
436.59,70.0
436.65,67.0
436.72,79.0
436.78,85.0
436.84,112.0
436.9,98.0
436.97,105.0
437.03,107.0
437.09,106.0
437.16,104.0
437.22,108.0
437.28,104.0
437.35,107.0
437.41,126.0
437.47,144.0
437.53,111.0
437.6,100.0
437.66,143.0
437.72,138.0
437.79,134.0
437.85,138.0
437.91,138.0
437.98,132.0
438.04,139.0
438.1,145.0
438.16,143.0
438.23,144.0
438.29,154.0
438.35,148.0
438.42,150.0
438.48,147.0
438.54,130.0
438.61,145.0
438.67,167.0
438.73,139.0
438.79,160.0
438.86,163.0
438.92,152.0
438.98,150.0
439.05,156.0
439.11,161.0
439.17,153.0
439.24,167.0
439.3,162.0
439.36,161.0
439.42,161.0
439.49,137.0
439.55,156.0
439.61,154.0
439.68,151.0
439.74,150.0
439.8,161.0
439.87,163.0
439.93,161.0
439.99,146.0
440.05,152.0
440.12,142.0
440.18,139.0
440.24,134.0
440.31,142.0
440.37,138.0
440.43,176.0
440.5,182.0
440.56,179.0
440.62,167.0
440.68,182.0
440.75,191.0
440.81,174.0
440.87,168.0
440.94,174.0
441.0,174.0
441.06,167.0
441.13,153.0
441.19,165.0
441.25,168.0
441.31,150.0
441.38,161.0
441.44,136.0
441.5,159.0
441.57,136.0
441.63,133.0
441.69,147.0
441.76,137.0
441.82,134.0
441.88,128.0
441.94,139.0
442.01,153.0
442.07,133.0
442.13,125.0
442.2,123.0
442.26,134.0
442.32,138.0
442.39,138.0
442.45,137.0
442.51,148.0
442.57,133.0
442.64,131.0
442.7,117.0
442.76,120.0
442.83,107.0
442.89,116.0
442.95,102.0
443.02,90.0
443.08,103.0
443.14,99.0
443.2,87.0
443.27,92.0
443.33,95.0
443.39,78.0
443.46,82.0
443.52,84.0
443.58,102.0
443.65,97.0
443.71,87.0
443.77,78.0
443.83,88.0
443.9,99.0
443.96,97.0
444.02,110.0
444.09,98.0
444.15,75.0
444.21,101.0
444.28,95.0
444.34,100.0
444.4,91.0
444.46,87.0
444.53,87.0
444.59,75.0
444.65,89.0
444.72,109.0
444.78,95.0
444.84,87.0
444.91,84.0
444.97,89.0
445.03,81.0
445.09,93.0
445.16,78.0
445.22,75.0
445.28,89.0
445.35,90.0
445.41,104.0
445.47,98.0
445.54,98.0
445.6,102.0
445.66,76.0
445.72,72.0
445.79,89.0
445.85,81.0
445.91,82.0
445.98,72.0
446.04,83.0
446.1,71.0
446.17,63.0
446.23,51.0
446.29,49.0
446.35,48.0
446.42,61.0
446.48,61.0
446.54,51.0
446.61,60.0
446.67,61.0
446.73,46.0
446.8,81.0
446.86,65.0
446.92,55.0
446.98,70.0
447.05,71.0
447.11,53.0
447.17,50.0
447.24,82.0
447.3,51.0
447.36,56.0
447.43,70.0
447.49,60.0
447.55,63.0
447.61,52.0
447.68,67.0
447.74,56.0
447.8,73.0
447.87,60.0
447.93,74.0
447.99,66.0
448.06,63.0
448.12,63.0
448.18,67.0
448.24,68.0
448.31,57.0
448.37,90.0
448.43,94.0
448.5,57.0
448.56,62.0
448.62,74.0
448.69,73.0
448.75,89.0
448.81,93.0
448.87,85.0
448.94,88.0
449.0,82.0
449.06,76.0
449.13,96.0
449.19,100.0
449.25,93.0
449.32,65.0
449.38,70.0
449.44,68.0
449.5,57.0
449.57,63.0
449.63,48.0
449.69,61.0
449.76,51.0
449.82,71.0
449.88,72.0
449.95,71.0
450.01,81.0
450.07,45.0
450.13,48.0
450.2,27.0
450.26,19.0
450.32,40.0
450.39,23.0
450.45,37.0
450.51,51.0
450.58,28.0
450.64,30.0
450.7,16.0
450.76,33.0
450.83,13.0
450.89,31.0
450.95,16.0
451.02,15.0
451.08,29.0
451.14,8.0
451.21,13.0
451.27,26.0
451.33,11.0
451.39,10.0
451.46,32.0
451.52,37.0
451.58,38.0
451.65,35.0
451.71,31.0
451.77,32.0
451.84,39.0
451.9,29.0
451.96,25.0
452.02,24.0
452.09,20.0
452.15,46.0
452.21,50.0
452.28,42.0
452.34,45.0
452.4,29.0
452.47,39.0
452.53,42.0
452.59,51.0
452.65,60.0
452.72,53.0
452.78,59.0
452.84,62.0
452.91,73.0
452.97,71.0
453.03,73.0
453.1,71.0
453.16,54.0
453.22,76.0
453.28,73.0
453.35,70.0
453.41,86.0
453.47,82.0
453.54,90.0
453.6,87.0
453.66,94.0
453.73,87.0
453.79,84.0
453.85,88.0
453.91,93.0
453.98,97.0
454.04,99.0
454.1,109.0
454.17,126.0
454.23,115.0
454.29,119.0
454.36,129.0
454.42,107.0
454.48,117.0
454.54,121.0
454.61,105.0
454.67,122.0
454.73,131.0
454.8,107.0
454.86,98.0
454.92,114.0
454.99,114.0
455.05,125.0
455.11,125.0
455.17,136.0
455.24,129.0
455.3,147.0
455.36,152.0
455.43,158.0
455.49,171.0
455.55,163.0
455.62,181.0
455.68,176.0
455.74,181.0
455.8,179.0
455.87,197.0
455.93,194.0
455.99,202.0
456.06,208.0
456.12,203.0
456.18,193.0
456.25,199.0
456.31,194.0
456.37,191.0
456.43,193.0
456.5,203.0
456.56,224.0
456.62,199.0
456.69,208.0
456.75,230.0
456.81,225.0
456.88,205.0
456.94,201.0
457.0,211.0
457.06,210.0
457.13,213.0
457.19,218.0
457.25,223.0
457.32,223.0
457.38,226.0
457.44,227.0
457.51,242.0
457.57,218.0
457.63,214.0
457.69,228.0
457.76,229.0
457.82,228.0
457.88,227.0
457.95,232.0
458.01,250.0
458.07,230.0
458.14,241.0
458.2,251.0
458.26,244.0
458.32,248.0
458.39,232.0
458.45,221.0
458.51,226.0
458.58,246.0
458.64,240.0
458.7,213.0
458.77,243.0
458.83,210.0
458.89,192.0
458.95,189.0
459.02,185.0
459.08,199.0
459.14,206.0
459.21,202.0
459.27,187.0
459.33,184.0
459.4,188.0
459.46,183.0
459.52,180.0
459.58,189.0
459.65,185.0
459.71,176.0
459.77,181.0
459.84,175.0
459.9,197.0
459.96,190.0
460.03,183.0
460.09,188.0
460.15,186.0
460.21,169.0
460.28,171.0
460.34,175.0
460.4,175.0
460.47,181.0
460.53,172.0
460.59,173.0
460.66,193.0
460.72,175.0
460.78,166.0
460.84,171.0
460.91,170.0
460.97,166.0
461.03,159.0
461.1,156.0
461.16,155.0
461.22,125.0
461.29,135.0
461.35,136.0
461.41,127.0
461.47,117.0
461.54,95.0
461.6,113.0
461.66,107.0
461.73,134.0
461.79,143.0
461.85,130.0
461.92,118.0
461.98,112.0
462.04,87.0
462.1,103.0
462.17,115.0
462.23,93.0
462.29,87.0
462.36,87.0
462.42,103.0
462.48,100.0
462.55,106.0
462.61,98.0
462.67,109.0
462.73,111.0
462.8,105.0
462.86,106.0
462.92,86.0
462.99,103.0
463.05,103.0
463.11,69.0
463.18,84.0
463.24,100.0
463.3,87.0
463.36,90.0
463.43,79.0
463.49,115.0
463.55,92.0
463.62,98.0
463.68,91.0
463.74,96.0
463.81,90.0
463.87,108.0
463.93,103.0
463.99,96.0
464.06,112.0
464.12,95.0
464.18,100.0
464.25,86.0
464.31,93.0
464.37,72.0
464.44,72.0
464.5,100.0
464.56,85.0
464.62,67.0
464.69,65.0
464.75,70.0
464.81,72.0
464.88,83.0
464.94,78.0
465.0,66.0
465.07,93.0
465.13,87.0
465.19,64.0
465.25,93.0
465.32,93.0
465.38,82.0
465.44,68.0
465.51,72.0
465.57,79.0
465.63,78.0
465.7,88.0
465.76,56.0
465.82,93.0
465.88,93.0
465.95,81.0
466.01,94.0
466.07,74.0
466.14,85.0
466.2,72.0
466.26,62.0
466.33,78.0
466.39,76.0
466.45,101.0
466.51,71.0
466.58,95.0
466.64,89.0
466.7,82.0
466.77,103.0
466.83,90.0
466.89,109.0
466.96,89.0
467.02,96.0
467.08,93.0
467.14,98.0
467.21,84.0
467.27,79.0
467.33,80.0
467.4,78.0
467.46,100.0
467.52,82.0
467.59,100.0
467.65,99.0
467.71,85.0
467.77,80.0
467.84,74.0
467.9,88.0
467.96,95.0
468.03,74.0
468.09,61.0
468.15,75.0
468.22,76.0
468.28,62.0
468.34,56.0
468.4,68.0
468.47,75.0
468.53,61.0
468.59,60.0
468.66,59.0
468.72,68.0
468.78,76.0
468.85,86.0
468.91,82.0
468.97,75.0
469.03,87.0
469.1,82.0
469.16,61.0
469.22,78.0
469.29,71.0
469.35,75.0
469.41,63.0
469.48,54.0
469.54,61.0
469.6,47.0
469.66,73.0
469.73,80.0
469.79,68.0
469.85,68.0
469.92,67.0
469.98,78.0
470.04,62.0
470.11,65.0
470.17,52.0
470.23,73.0
470.29,74.0
470.36,86.0
470.42,98.0
470.48,90.0
470.55,93.0
470.61,111.0
470.67,103.0
470.74,90.0
470.8,116.0
470.86,87.0
470.92,100.0
470.99,93.0
471.05,99.0
471.11,134.0
471.18,113.0
471.24,125.0
471.3,126.0
471.37,140.0
471.43,120.0
471.49,128.0
471.55,142.0
471.62,144.0
471.68,158.0
471.74,147.0
471.81,141.0
471.87,154.0
471.93,156.0
472.0,153.0
472.06,158.0
472.12,148.0
472.18,142.0
472.25,144.0
472.31,126.0
472.37,148.0
472.44,161.0
472.5,160.0
472.56,157.0
472.63,153.0
472.69,158.0
472.75,152.0
472.81,157.0
472.88,164.0
472.94,164.0
473.0,192.0
473.07,175.0
473.13,172.0
473.19,176.0
473.26,203.0
473.32,174.0
473.38,192.0
473.44,214.0
473.51,221.0
473.57,219.0
473.63,216.0
473.7,202.0
473.76,216.0
473.82,221.0
473.89,195.0
473.95,210.0
474.01,195.0
474.07,192.0
474.14,196.0
474.2,186.0
474.26,196.0
474.33,192.0
474.39,189.0
474.45,194.0
474.52,185.0
474.58,188.0
474.64,185.0
474.7,163.0
474.77,156.0
474.83,170.0
474.89,159.0
474.96,151.0
475.02,158.0
475.08,156.0
475.15,167.0
475.21,153.0
475.27,147.0
475.33,148.0
475.4,166.0
475.46,134.0
475.52,127.0
475.59,130.0
475.65,116.0
475.71,124.0
475.78,106.0
475.84,111.0
475.9,136.0
475.96,122.0
476.03,98.0
476.09,98.0
476.15,101.0
476.22,93.0
476.28,95.0
476.34,109.0
476.41,109.0
476.47,118.0
476.53,131.0
476.59,114.0
476.66,128.0
476.72,130.0
476.78,100.0
476.85,89.0
476.91,87.0
476.97,77.0
477.04,77.0
477.1,84.0
477.16,70.0
477.22,72.0
477.29,56.0
477.35,52.0
477.41,65.0
477.48,75.0
477.54,79.0
477.6,74.0
477.67,62.0
477.73,75.0
477.79,64.0
477.85,62.0
477.92,38.0
477.98,61.0
478.04,65.0
478.11,48.0
478.17,57.0
478.23,48.0
478.3,56.0
478.36,72.0
478.42,71.0
478.48,74.0
478.55,74.0
478.61,83.0
478.67,54.0
478.74,40.0
478.8,71.0
478.86,59.0
478.93,45.0
478.99,47.0
479.05,44.0
479.11,54.0
479.18,29.0
479.24,18.0
479.3,27.0
479.37,16.0
479.43,10.0
479.49,6.0
479.56,12.0
479.62,20.0
479.68,8.0
479.74,5.0
479.81,-10.0
479.87,-8.0
479.93,-8.0
480.0,-17.0
480.06,-6.0
480.12,-14.0
480.19,-7.0
480.25,-1.0
480.31,10.0
480.37,-8.0
480.44,-3.0
480.5,4.0
480.56,-1.0
480.63,8.0
480.69,15.0
480.75,15.0
480.82,16.0
480.88,-15.0
480.94,5.0
481.0,4.0
481.07,12.0
481.13,1.0
481.19,2.0
481.26,10.0
481.32,2.0
481.38,7.0
481.45,15.0
481.51,13.0
481.57,6.0
481.63,3.0
481.7,10.0
481.76,36.0
481.82,28.0
481.89,37.0
481.95,27.0
482.01,29.0
482.08,51.0
482.14,44.0
482.2,51.0
482.26,58.0
482.33,40.0
482.39,45.0
482.45,57.0
482.52,60.0
482.58,57.0
482.64,52.0
482.71,61.0
482.77,68.0
482.83,70.0
482.89,64.0
482.96,52.0
483.02,59.0
483.08,67.0
483.15,62.0
483.21,37.0
483.27,48.0
483.34,60.0
483.4,55.0
483.46,23.0
483.52,43.0
483.59,42.0
483.65,35.0
483.71,38.0
483.78,54.0
483.84,51.0
483.9,63.0
483.97,46.0
484.03,48.0
484.09,76.0
484.15,56.0
484.22,45.0
484.28,55.0
484.34,68.0
484.41,37.0
484.47,40.0
484.53,44.0
484.6,42.0
484.66,52.0
484.72,45.0
484.78,51.0
484.85,43.0
484.91,26.0
484.97,50.0
485.04,56.0
485.1,49.0
485.16,48.0
485.23,28.0
485.29,51.0
485.35,55.0
485.41,42.0
485.48,41.0
485.54,36.0
485.6,47.0
485.67,59.0
485.73,46.0
485.79,54.0
485.86,51.0
485.92,67.0
485.98,54.0
486.04,64.0
486.11,65.0
486.17,68.0
486.23,55.0
486.3,56.0
486.36,63.0
486.42,57.0
486.49,43.0
486.55,39.0
486.61,38.0
486.67,48.0
486.74,51.0
486.8,49.0
486.86,52.0
486.93,59.0
486.99,63.0
487.05,76.0
487.12,60.0
487.18,84.0
487.24,86.0
487.3,63.0
487.37,74.0
487.43,74.0
487.49,80.0
487.56,82.0
487.62,73.0
487.68,101.0
487.75,111.0
487.81,92.0
487.87,96.0
487.93,104.0
488.0,109.0
488.06,113.0
488.12,115.0
488.19,119.0
488.25,126.0
488.31,122.0
488.38,98.0
488.44,102.0
488.5,133.0
488.56,149.0
488.63,136.0
488.69,152.0
488.75,161.0
488.82,161.0
488.88,164.0
488.94,184.0
489.01,151.0
489.07,167.0
489.13,157.0
489.19,161.0
489.26,180.0
489.32,174.0
489.38,195.0
489.45,195.0
489.51,217.0
489.57,232.0
489.64,224.0
489.7,220.0
489.76,224.0
489.82,234.0
489.89,215.0
489.95,217.0
490.01,217.0
490.08,216.0
490.14,208.0
490.2,205.0
490.27,195.0
490.33,218.0
490.39,207.0
490.45,180.0
490.52,191.0
490.58,215.0
490.64,216.0
490.71,205.0
490.77,191.0
490.83,213.0
490.9,202.0
490.96,211.0
491.02,206.0
491.08,214.0
491.15,210.0
491.21,207.0
491.27,224.0
491.34,226.0
491.4,212.0
491.46,215.0
491.53,215.0
491.59,222.0
491.65,239.0
491.71,218.0
491.78,203.0
491.84,200.0
491.9,200.0
491.97,196.0
492.03,203.0
492.09,203.0
492.16,198.0
492.22,179.0
492.28,184.0
492.34,183.0
492.41,157.0
492.47,158.0
492.53,153.0
492.6,163.0
492.66,148.0
492.72,178.0
492.79,169.0
492.85,166.0
492.91,170.0
492.97,131.0
493.04,111.0
493.1,126.0
493.16,118.0
493.23,136.0
493.29,136.0
493.35,132.0
493.42,140.0
493.48,141.0
493.54,142.0
493.6,121.0
493.67,134.0
493.73,125.0
493.79,120.0
493.86,118.0
493.92,113.0
493.98,122.0
494.05,118.0
494.11,108.0
494.17,93.0
494.23,90.0
494.3,78.0
494.36,67.0
494.42,67.0
494.49,48.0
494.55,57.0
494.61,63.0
494.68,52.0
494.74,56.0
494.8,65.0
494.86,51.0
494.93,39.0
494.99,46.0
495.05,59.0
495.12,52.0
495.18,49.0
495.24,42.0
495.31,39.0
495.37,29.0
495.43,12.0
495.49,8.0
495.56,29.0
495.62,27.0
495.68,24.0
495.75,22.0
495.81,23.0
495.87,20.0
495.94,23.0
496.0,30.0
496.06,26.0
496.12,34.0
496.19,14.0
496.25,28.0
496.31,39.0
496.38,37.0
496.44,11.0
496.5,16.0
496.57,31.0
496.63,34.0
496.69,27.0
496.75,43.0
496.82,37.0
496.88,38.0
496.94,16.0
497.01,33.0
497.07,24.0
497.13,34.0
497.2,50.0
497.26,18.0
497.32,55.0
497.38,52.0
497.45,35.0
497.51,60.0
497.57,54.0
497.64,41.0
497.7,56.0
497.76,66.0
497.83,79.0
497.89,54.0
497.95,54.0
498.01,65.0
498.08,60.0
498.14,56.0
498.2,43.0
498.27,43.0
498.33,62.0
498.39,63.0
498.46,71.0
498.52,85.0
498.58,68.0
498.64,85.0
498.71,73.0
498.77,64.0
498.83,71.0
498.9,66.0
498.96,67.0
499.02,64.0
499.09,46.0
499.15,58.0
499.21,59.0
499.27,55.0
499.34,73.0
499.4,73.0
499.46,61.0
499.53,51.0
499.59,50.0
499.65,81.0
499.72,92.0
499.78,68.0
499.84,76.0
499.9,84.0
499.97,113.0
500.03,99.0
500.09,117.0
500.16,111.0
500.22,122.0
500.28,122.0
500.35,113.0
500.41,114.0
500.47,99.0
500.53,105.0
500.6,95.0
500.66,97.0
500.72,107.0
500.79,111.0
500.85,90.0
500.91,92.0
500.98,71.0
501.04,82.0
501.1,75.0
501.16,62.0
501.23,85.0
501.29,71.0
501.35,68.0
501.42,78.0
501.48,63.0
501.54,81.0
501.61,52.0
501.67,66.0
501.73,63.0
501.79,72.0
501.86,58.0
501.92,50.0
501.98,57.0
502.05,62.0
502.11,67.0
502.17,44.0
502.24,47.0
502.3,57.0
502.36,44.0
502.42,44.0
502.49,73.0
502.55,95.0
502.61,77.0
502.68,59.0
502.74,57.0
502.8,63.0
502.87,64.0
502.93,67.0
502.99,52.0
503.05,66.0
503.12,61.0
503.18,46.0
503.24,42.0
503.31,45.0
503.37,41.0
503.43,55.0
503.5,56.0
503.56,42.0
503.62,69.0
503.68,72.0
503.75,79.0
503.81,77.0
503.87,79.0
503.94,86.0
504.0,74.0
504.06,87.0
504.13,74.0
504.19,103.0
504.25,95.0
504.31,97.0
504.38,114.0
504.44,115.0
504.5,106.0
504.57,111.0
504.63,114.0
504.69,107.0
504.76,128.0
504.82,134.0
504.88,156.0
504.94,143.0
505.01,167.0
505.07,161.0
505.13,155.0
505.2,146.0
505.26,136.0
505.32,162.0
505.39,177.0
505.45,165.0
505.51,164.0
505.57,155.0
505.64,164.0
505.7,165.0
505.76,158.0
505.83,177.0
505.89,170.0
505.95,159.0
506.02,158.0
506.08,169.0
506.14,155.0
506.2,148.0
506.27,158.0
506.33,185.0
506.39,193.0
506.46,198.0
506.52,205.0
506.58,189.0
506.65,186.0
506.71,173.0
506.77,204.0
506.83,187.0
506.9,176.0
506.96,180.0
507.02,192.0
507.09,181.0
507.15,175.0
507.21,161.0
507.28,166.0
507.34,163.0
507.4,163.0
507.46,174.0
507.53,172.0
507.59,173.0
507.65,185.0
507.72,169.0
507.78,161.0
507.84,177.0
507.91,174.0
507.97,196.0
508.03,186.0
508.09,186.0
508.16,178.0
508.22,169.0
508.28,161.0
508.35,169.0
508.41,188.0
508.47,185.0
508.54,196.0
508.6,186.0
508.66,192.0
508.72,201.0
508.79,184.0
508.85,207.0
508.91,219.0
508.98,216.0
509.04,206.0
509.1,185.0
509.17,190.0
509.23,209.0
509.29,201.0
509.35,185.0
509.42,177.0
509.48,159.0
509.54,166.0
509.61,155.0
509.67,165.0
509.73,156.0
509.8,161.0
509.86,166.0
509.92,155.0
509.98,149.0
510.05,146.0
510.11,132.0
510.17,130.0
510.24,148.0
510.3,125.0
510.36,115.0
510.43,109.0
510.49,106.0
510.55,115.0
510.61,113.0
510.68,115.0
510.74,101.0
510.8,94.0
510.87,116.0
510.93,110.0
510.99,99.0
511.06,117.0
511.12,113.0
511.18,96.0
511.24,92.0
511.31,70.0
511.37,85.0
511.43,95.0
511.5,89.0
511.56,100.0
511.62,95.0
511.69,85.0
511.75,62.0
511.81,69.0
511.87,70.0
511.94,49.0
512.0,55.0
512.06,67.0
512.13,68.0
512.19,63.0
512.25,63.0
512.32,85.0
512.38,85.0
512.44,87.0
512.5,81.0
512.57,74.0
512.63,72.0
512.69,94.0
512.76,95.0
512.82,73.0
512.88,68.0
512.95,96.0
513.01,80.0
513.07,86.0
513.13,117.0
513.2,90.0
513.26,105.0
513.32,104.0
513.39,103.0
513.45,106.0
513.51,114.0
513.58,104.0
513.64,124.0
513.7,127.0
513.76,104.0
513.83,123.0
513.89,128.0
513.95,129.0
514.02,121.0
514.08,121.0
514.14,140.0
514.21,112.0
514.27,100.0
514.33,95.0
514.39,98.0
514.46,105.0
514.52,99.0
514.58,111.0
514.65,107.0
514.71,102.0
514.77,119.0
514.84,116.0
514.9,96.0
514.96,102.0
515.02,101.0
515.09,94.0
515.15,96.0
515.21,99.0
515.28,114.0
515.34,108.0
515.4,122.0
515.47,114.0
515.53,133.0
515.59,139.0
515.65,108.0
515.72,136.0
515.78,133.0
515.84,120.0
515.91,128.0
515.97,118.0
516.03,112.0
516.1,122.0
516.16,129.0
516.22,107.0
516.28,137.0
516.35,140.0
516.41,147.0
516.47,143.0
516.54,139.0
516.6,132.0
516.66,118.0
516.73,127.0
516.79,124.0
516.85,129.0
516.91,130.0
516.98,125.0
517.04,116.0
517.1,103.0
517.17,120.0
517.23,115.0
517.29,100.0
517.36,133.0
517.42,106.0
517.48,118.0
517.54,140.0
517.61,126.0
517.67,120.0
517.73,121.0
517.8,112.0
517.86,126.0
517.92,111.0
517.99,119.0
518.05,114.0
518.11,107.0
518.17,96.0
518.24,93.0
518.3,104.0
518.36,99.0
518.43,78.0
518.49,82.0
518.55,100.0
518.62,86.0
518.68,99.0
518.74,98.0
518.8,93.0
518.87,103.0
518.93,84.0
518.99,68.0
519.06,72.0
519.12,52.0
519.18,44.0
519.25,47.0
519.31,33.0
519.37,53.0
519.43,50.0
519.5,37.0
519.56,52.0
519.62,32.0
519.69,34.0
519.75,29.0
519.81,32.0
519.88,59.0
519.94,21.0
520.0,33.0
520.06,48.0
520.13,40.0
520.19,26.0
520.25,33.0
520.32,42.0
520.38,19.0
520.44,17.0
520.51,29.0
520.57,42.0
520.63,17.0
520.69,18.0
520.76,51.0
520.82,48.0
520.88,56.0
520.95,51.0
521.01,23.0
521.07,33.0
521.14,52.0
521.2,34.0
521.26,19.0
521.32,21.0
521.39,25.0
521.45,26.0
521.51,34.0
521.58,13.0
521.64,39.0
521.7,34.0
521.77,41.0
521.83,46.0
521.89,36.0
521.95,59.0
522.02,76.0
522.08,75.0
522.14,59.0
522.21,68.0
522.27,63.0
522.33,76.0
522.4,95.0
522.46,97.0
522.52,114.0
522.58,111.0
522.65,104.0
522.71,103.0
522.77,98.0
522.84,117.0
522.9,124.0
522.96,106.0
523.03,104.0
523.09,121.0
523.15,150.0
523.21,136.0
523.28,124.0
523.34,129.0
523.4,127.0
523.47,125.0
523.53,139.0
523.59,154.0
523.66,142.0
523.72,133.0
523.78,122.0
523.84,126.0
523.91,133.0
523.97,162.0
524.03,164.0
524.1,162.0
524.16,148.0
524.22,140.0
524.29,144.0
524.35,147.0
524.41,142.0
524.47,148.0
524.54,150.0
524.6,154.0
524.66,139.0
524.73,147.0
524.79,148.0
524.85,161.0
524.92,166.0
524.98,158.0
525.04,149.0
525.1,145.0
525.17,156.0
525.23,160.0
525.29,170.0
525.36,158.0
525.42,154.0
525.48,185.0
525.55,173.0
525.61,184.0
525.67,158.0
525.73,163.0
525.8,182.0
525.86,169.0
525.92,165.0
525.99,144.0
526.05,151.0
526.11,153.0
526.18,169.0
526.24,184.0
526.3,156.0
526.36,165.0
526.43,148.0
526.49,139.0
526.55,132.0
526.62,126.0
526.68,146.0
526.74,146.0
526.81,149.0
526.87,148.0
526.93,152.0
526.99,146.0
527.06,129.0
527.12,151.0
527.18,132.0
527.25,144.0
527.31,147.0
527.37,129.0
527.44,140.0
527.5,142.0
527.56,158.0
527.62,162.0
527.69,140.0
527.75,155.0
527.81,167.0
527.88,158.0
527.94,128.0
528.0,137.0
528.07,164.0
528.13,159.0
528.19,162.0
528.25,150.0
528.32,148.0
528.38,138.0
528.44,143.0
528.51,109.0
528.57,120.0
528.63,119.0
528.7,119.0
528.76,104.0
528.82,88.0
528.88,93.0
528.95,97.0
529.01,94.0
529.07,96.0
529.14,113.0
529.2,109.0
529.26,99.0
529.33,89.0
529.39,92.0
529.45,87.0
529.51,101.0
529.58,80.0
529.64,102.0
529.7,95.0
529.77,107.0
529.83,96.0
529.89,109.0
529.96,125.0
530.02,103.0
530.08,134.0
530.14,119.0
530.21,118.0
530.27,106.0
530.33,98.0
530.4,96.0
530.46,107.0
530.52,104.0
530.59,115.0
530.65,105.0
530.71,118.0
530.77,137.0
530.84,107.0
530.9,88.0
530.96,100.0
531.03,100.0
531.09,106.0
531.15,92.0
531.22,107.0
531.28,104.0
531.34,104.0
531.4,109.0
531.47,92.0
531.53,97.0
531.59,113.0
531.66,124.0
531.72,114.0
531.78,109.0
531.85,122.0
531.91,118.0
531.97,100.0
532.03,103.0
532.1,111.0
532.16,113.0
532.22,109.0
532.29,98.0
532.35,104.0
532.41,99.0
532.48,96.0
532.54,99.0
532.6,82.0
532.66,50.0
532.73,64.0
532.79,70.0
532.85,69.0
532.92,93.0
532.98,87.0
533.04,100.0
533.11,77.0
533.17,84.0
533.23,76.0
533.29,76.0
533.36,85.0
533.42,109.0
533.48,84.0
533.55,65.0
533.61,71.0
533.67,82.0
533.74,75.0
533.8,69.0
533.86,87.0
533.92,80.0
533.99,92.0
534.05,85.0
534.11,79.0
534.18,92.0
534.24,82.0
534.3,82.0
534.37,84.0
534.43,96.0
534.49,91.0
534.55,77.0
534.62,62.0
534.68,45.0
534.74,57.0
534.81,64.0
534.87,35.0
534.93,43.0
535.0,49.0
535.06,23.0
535.12,34.0
535.18,31.0
535.25,30.0
535.31,23.0
535.37,28.0
535.44,35.0
535.5,32.0
535.56,29.0
535.63,50.0
535.69,48.0
535.75,26.0
535.81,37.0
535.88,37.0
535.94,14.0
536.0,8.0
536.07,-1.0
536.13,14.0
536.19,-4.0
536.26,-5.0
536.32,12.0
536.38,14.0
536.44,3.0
536.51,-5.0
536.57,18.0
536.63,12.0
536.7,11.0
536.76,14.0
536.82,0.0
536.89,0.0
536.95,25.0
537.01,10.0
537.07,16.0
537.14,20.0
537.2,5.0
537.26,5.0
537.33,-13.0
537.39,-7.0
537.45,-2.0
537.52,15.0
537.58,14.0
537.64,18.0
537.7,28.0
537.77,14.0
537.83,5.0
537.89,16.0
537.96,14.0
538.02,9.0
538.08,25.0
538.15,38.0
538.21,13.0
538.27,9.0
538.33,20.0
538.4,7.0
538.46,16.0
538.52,42.0
538.59,61.0
538.65,44.0
538.71,36.0
538.78,44.0
538.84,50.0
538.9,51.0
538.96,48.0
539.03,55.0
539.09,64.0
539.15,45.0
539.22,40.0
539.28,51.0
539.34,51.0
539.41,49.0
539.47,67.0
539.53,62.0
539.59,44.0
539.66,55.0
539.72,61.0
539.78,68.0
539.85,87.0
539.91,82.0
539.97,78.0
540.04,87.0
540.1,91.0
540.16,99.0
540.22,80.0
540.29,91.0
540.35,95.0
540.41,100.0
540.48,119.0
540.54,106.0
540.6,119.0
540.67,114.0
540.73,99.0
540.79,119.0
540.85,137.0
540.92,139.0
540.98,133.0
541.04,135.0
541.11,135.0
541.17,145.0
541.23,143.0
541.3,120.0
541.36,136.0
541.42,150.0
541.48,157.0
541.55,176.0
541.61,172.0
541.67,149.0
541.74,163.0
541.8,160.0
541.86,164.0
541.93,149.0
541.99,167.0
542.05,165.0
542.11,176.0
542.18,193.0
542.24,178.0
542.3,172.0
542.37,163.0
542.43,144.0
542.49,158.0
542.56,149.0
542.62,155.0
542.68,161.0
542.74,177.0
542.81,170.0
542.87,171.0
542.93,165.0
543.0,156.0
543.06,169.0
543.12,159.0
543.19,159.0
543.25,154.0
543.31,177.0
543.37,170.0
543.44,164.0
543.5,163.0
543.56,163.0
543.63,153.0
543.69,144.0
543.75,152.0
543.82,145.0
543.88,151.0
543.94,166.0
544.0,141.0
544.07,152.0
544.13,135.0
544.19,157.0
544.26,155.0
544.32,149.0
544.38,164.0
544.45,152.0
544.51,144.0
544.57,171.0
544.63,157.0
544.7,152.0
544.76,136.0
544.82,137.0
544.89,125.0
544.95,139.0
545.01,125.0
545.08,121.0
545.14,105.0
545.2,120.0
545.26,116.0
545.33,115.0
545.39,113.0
545.45,116.0
545.52,94.0
545.58,103.0
545.64,132.0
545.71,116.0
545.77,81.0
545.83,95.0
545.89,123.0
545.96,90.0
546.02,106.0
546.08,103.0
546.15,80.0
546.21,66.0
546.27,87.0
546.34,84.0
546.4,88.0
546.46,111.0
546.52,97.0
546.59,104.0
546.65,75.0
546.71,87.0
546.78,105.0
546.84,105.0
546.9,89.0
546.97,88.0
547.03,83.0
547.09,100.0
547.15,97.0
547.22,68.0
547.28,88.0
547.34,97.0
547.41,104.0
547.47,89.0
547.53,97.0
547.6,93.0
547.66,88.0
547.72,93.0
547.78,72.0
547.85,91.0
547.91,98.0
547.97,106.0
548.04,120.0
548.1,101.0
548.16,119.0
548.23,125.0
548.29,118.0
548.35,88.0
548.41,98.0
548.48,95.0
548.54,119.0
548.6,108.0
548.67,107.0
548.73,106.0
548.79,73.0
548.86,111.0
548.92,119.0
548.98,101.0
549.04,114.0
549.11,95.0
549.17,97.0
549.23,121.0
549.3,108.0
549.36,119.0
549.42,111.0
549.49,107.0
549.55,116.0
549.61,106.0
549.67,101.0
549.74,98.0
549.8,89.0
549.86,106.0
549.93,103.0
549.99,96.0
550.05,112.0
550.12,114.0
550.18,119.0
550.24,128.0
550.3,134.0
550.37,112.0
550.43,116.0
550.49,128.0
550.56,122.0
550.62,138.0
550.68,135.0
550.75,129.0
550.81,120.0
550.87,114.0
550.93,102.0
551.0,136.0
551.06,126.0
551.12,119.0
551.19,135.0
551.25,125.0
551.31,132.0
551.38,111.0
551.44,115.0
551.5,113.0
551.56,103.0
551.63,105.0
551.69,116.0
551.75,133.0
551.82,101.0
551.88,98.0
551.94,112.0
552.01,100.0
552.07,105.0
552.13,121.0
552.19,100.0
552.26,94.0
552.32,94.0
552.38,103.0
552.45,106.0
552.51,87.0
552.57,83.0
552.64,101.0
552.7,90.0
552.76,78.0
552.82,76.0
552.89,84.0
552.95,81.0
553.01,79.0
553.08,74.0
553.14,89.0
553.2,74.0
553.27,100.0
553.33,89.0
553.39,74.0
553.45,76.0
553.52,69.0
553.58,81.0
553.64,81.0
553.71,72.0
553.77,48.0
553.83,49.0
553.9,33.0
553.96,47.0
554.02,62.0
554.08,33.0
554.15,37.0
554.21,55.0
554.27,50.0
554.34,47.0
554.4,80.0
554.46,64.0
554.53,69.0
554.59,57.0
554.65,78.0
554.71,84.0
554.78,77.0
554.84,56.0
554.9,69.0
554.97,56.0
555.03,50.0
555.09,81.0
555.16,72.0
555.22,78.0
555.28,82.0
555.34,83.0
555.41,91.0
555.47,94.0
555.53,77.0
555.6,100.0
555.66,115.0
555.72,111.0
555.79,121.0
555.85,128.0
555.91,122.0
555.97,112.0
556.04,136.0
556.1,146.0
556.16,152.0
556.23,156.0
556.29,165.0
556.35,169.0
556.42,180.0
556.48,163.0
556.54,166.0
556.6,171.0
556.67,168.0
556.73,150.0
556.79,142.0
556.86,146.0
556.92,143.0
556.98,139.0
557.05,142.0
557.11,153.0
557.17,163.0
557.23,168.0
557.3,155.0
557.36,146.0
557.42,168.0
557.49,147.0
557.55,156.0
557.61,161.0
557.68,150.0
557.74,154.0
557.8,165.0
557.86,150.0
557.93,150.0
557.99,168.0
558.05,174.0
558.12,169.0
558.18,171.0
558.24,162.0
558.31,172.0
558.37,172.0
558.43,170.0
558.49,152.0
558.56,147.0
558.62,157.0
558.68,163.0
558.75,163.0
558.81,136.0
558.87,153.0
558.94,150.0
559.0,132.0
559.06,131.0
559.12,139.0
559.19,138.0
559.25,132.0
559.31,135.0
559.38,120.0
559.44,131.0
559.5,142.0
559.57,150.0
559.63,139.0
559.69,142.0
559.75,143.0
559.82,160.0
559.88,159.0
559.94,185.0
560.01,165.0
560.07,166.0
560.13,160.0
560.2,151.0
560.26,162.0
560.32,157.0
560.38,157.0
560.45,190.0
560.51,158.0
560.57,159.0
560.64,146.0
560.7,150.0
560.76,162.0
560.83,161.0
560.89,146.0
560.95,157.0
561.01,155.0
561.08,142.0
561.14,144.0
561.2,169.0
561.27,178.0
561.33,145.0
561.39,135.0
561.46,141.0
561.52,159.0
561.58,131.0
561.64,138.0
561.71,137.0
561.77,137.0
561.83,154.0
561.9,149.0
561.96,142.0
562.02,127.0
562.09,120.0
562.15,122.0
562.21,135.0
562.27,139.0
562.34,142.0
562.4,136.0
562.46,150.0
562.53,134.0
562.59,118.0
562.65,97.0
562.72,87.0
562.78,88.0
562.84,91.0
562.9,86.0
562.97,99.0
563.03,89.0
563.09,83.0
563.16,84.0
563.22,99.0
563.28,95.0
563.35,85.0
563.41,98.0
563.47,106.0
563.53,104.0
563.6,99.0
563.66,89.0
563.72,80.0
563.79,75.0
563.85,82.0
563.91,87.0
563.98,92.0
564.04,82.0
564.1,86.0
564.16,91.0
564.23,85.0
564.29,62.0
564.35,80.0
564.42,89.0
564.48,99.0
564.54,84.0
564.61,87.0
564.67,75.0
564.73,65.0
564.79,78.0
564.86,90.0
564.92,98.0
564.98,84.0
565.05,103.0
565.11,98.0
565.17,83.0
565.24,81.0
565.3,86.0
565.36,84.0
565.42,86.0
565.49,63.0
565.55,77.0
565.61,88.0
565.68,88.0
565.74,77.0
565.8,74.0
565.87,91.0
565.93,84.0
565.99,77.0
566.05,69.0
566.12,80.0
566.18,93.0
566.24,86.0
566.31,90.0
566.37,102.0
566.43,102.0
566.5,85.0
566.56,101.0
566.62,104.0
566.68,107.0
566.75,91.0
566.81,95.0
566.87,90.0
566.94,113.0
567.0,106.0
567.06,84.0
567.13,113.0
567.19,85.0
567.25,103.0
567.31,107.0
567.38,97.0
567.44,102.0
567.5,85.0
567.57,95.0
567.63,90.0
567.69,99.0
567.76,97.0
567.82,131.0
567.88,116.0
567.94,105.0
568.01,92.0
568.07,93.0
568.13,95.0
568.2,79.0
568.26,87.0
568.32,98.0
568.39,88.0
568.45,88.0
568.51,91.0
568.57,67.0
568.64,67.0
568.7,67.0
568.76,64.0
568.83,80.0
568.89,63.0
568.95,60.0
569.02,55.0
569.08,47.0
569.14,40.0
569.2,31.0
569.27,34.0
569.33,30.0
569.39,56.0
569.46,44.0
569.52,40.0
569.58,52.0
569.65,40.0
569.71,32.0
569.77,23.0
569.83,35.0
569.9,38.0
569.96,21.0
570.02,43.0
570.09,45.0
570.15,45.0
570.21,80.0
570.28,62.0
570.34,58.0
570.4,69.0
570.46,76.0
570.53,77.0
570.59,89.0
570.65,77.0
570.72,87.0
570.78,84.0
570.84,87.0
570.91,78.0
570.97,73.0
571.03,90.0
571.09,94.0
571.16,100.0
571.22,100.0
571.28,102.0
571.35,104.0
571.41,98.0
571.47,100.0
571.54,92.0
571.6,97.0
571.66,116.0
571.72,116.0
571.79,141.0
571.85,147.0
571.91,136.0
571.98,152.0
572.04,146.0
572.1,135.0
572.17,146.0
572.23,154.0
572.29,147.0
572.35,154.0
572.42,157.0
572.48,175.0
572.54,174.0
572.61,159.0
572.67,159.0
572.73,174.0
572.8,171.0
572.86,183.0
572.92,158.0
572.98,179.0
573.05,193.0
573.11,170.0
573.17,172.0
573.24,170.0
573.3,190.0
573.36,180.0
573.43,163.0
573.49,175.0
573.55,164.0
573.61,175.0
573.68,188.0
573.74,205.0
573.8,182.0
573.87,187.0
573.93,190.0
573.99,175.0
574.06,206.0
574.12,184.0
574.18,196.0
574.24,212.0
574.31,232.0
574.37,222.0
574.43,215.0
574.5,230.0
574.56,237.0
574.62,231.0
574.69,234.0
574.75,223.0
574.81,199.0
574.87,210.0
574.94,237.0
575.0,231.0
575.06,234.0
575.13,239.0
575.19,237.0
575.25,213.0
575.32,202.0
575.38,224.0
575.44,220.0
575.5,220.0
575.57,207.0
575.63,222.0
575.69,217.0
575.76,225.0
575.82,204.0
575.88,212.0
575.95,229.0
576.01,231.0
576.07,226.0
576.13,224.0
576.2,221.0
576.26,220.0
576.32,209.0
576.39,201.0
576.45,216.0
576.51,225.0
576.58,177.0
576.64,177.0
576.7,168.0
576.76,172.0
576.83,175.0
576.89,175.0
576.95,188.0
577.02,194.0
577.08,185.0
577.14,190.0
577.21,173.0
577.27,150.0
577.33,155.0
577.39,168.0
577.46,149.0
577.52,171.0
577.58,178.0
577.65,161.0
577.71,171.0
577.77,187.0
577.84,179.0
577.9,197.0
577.96,173.0
578.02,172.0
578.09,193.0
578.15,178.0
578.21,183.0
578.28,177.0
578.34,177.0
578.4,188.0
578.47,194.0
578.53,178.0
578.59,168.0
578.65,149.0
578.72,138.0
578.78,138.0
578.84,137.0
578.91,142.0
578.97,132.0
579.03,136.0
579.1,142.0
579.16,141.0
579.22,133.0
579.28,108.0
579.35,122.0
579.41,113.0
579.47,112.0
579.54,125.0
579.6,125.0
579.66,125.0
579.73,106.0
579.79,114.0
579.85,128.0
579.91,116.0
579.98,116.0
580.04,134.0
580.1,126.0
580.17,125.0
580.23,128.0
580.29,96.0
580.36,100.0
580.42,100.0
580.48,110.0
580.54,102.0
580.61,102.0
580.67,117.0
580.73,122.0
580.8,104.0
580.86,87.0
580.92,86.0
580.99,103.0
581.05,104.0
581.11,87.0
581.17,95.0
581.24,95.0
581.3,94.0
581.36,92.0
581.43,84.0
581.49,71.0
581.55,83.0
581.62,81.0
581.68,86.0
581.74,83.0
581.8,62.0
581.87,73.0
581.93,65.0
581.99,70.0
582.06,81.0
582.12,73.0
582.18,74.0
582.25,58.0
582.31,73.0
582.37,76.0
582.43,73.0
582.5,73.0
582.56,77.0
582.62,78.0
582.69,47.0
582.75,51.0
582.81,65.0
582.88,67.0
582.94,67.0
583.0,67.0
583.06,63.0
583.13,80.0
583.19,78.0
583.25,91.0
583.32,91.0
583.38,84.0
583.44,75.0
583.51,70.0
583.57,80.0
583.63,57.0
583.69,61.0
583.76,73.0
583.82,68.0
583.88,77.0
583.95,58.0
584.01,59.0
584.07,48.0
584.14,32.0
584.2,39.0
584.26,42.0
584.32,25.0
584.39,38.0
584.45,42.0
584.51,53.0
584.58,39.0
584.64,42.0
584.7,65.0
584.77,58.0
584.83,45.0
584.89,42.0
584.95,45.0
585.02,35.0
585.08,16.0
585.14,21.0
585.21,18.0
585.27,14.0
585.33,8.0
585.4,12.0
585.46,14.0
585.52,-5.0
585.58,15.0
585.65,8.0
585.71,-4.0
585.77,7.0
585.84,-14.0
585.9,-20.0
585.96,-19.0
586.03,-7.0
586.09,-28.0
586.15,-12.0
586.21,4.0
586.28,-12.0
586.34,-30.0
586.4,-18.0
586.47,-6.0
586.53,12.0
586.59,4.0
586.66,-19.0
586.72,-20.0
586.78,-18.0
586.84,-35.0
586.91,-28.0
586.97,-1.0
587.03,2.0
587.1,-2.0
587.16,11.0
587.22,-11.0
587.29,2.0
587.35,0.0
587.41,-15.0
587.47,-11.0
587.54,-21.0
587.6,-31.0
587.66,-9.0
587.73,-26.0
587.79,-12.0
587.85,-15.0
587.92,-2.0
587.98,27.0
588.04,9.0
588.1,9.0
588.17,2.0
588.23,-6.0
588.29,-6.0
588.36,23.0
588.42,12.0
588.48,9.0
588.55,27.0
588.61,18.0
588.67,4.0
588.73,19.0
588.8,27.0
588.86,34.0
588.92,38.0
588.99,58.0
589.05,65.0
589.11,39.0
589.18,66.0
589.24,61.0
589.3,45.0
589.36,63.0
589.43,71.0
589.49,75.0
589.55,71.0
589.62,63.0
589.68,94.0
589.74,71.0
589.81,64.0
589.87,72.0
589.93,62.0
589.99,76.0
590.06,75.0
590.12,83.0
590.18,85.0
590.25,90.0
590.31,83.0
590.37,97.0
590.44,92.0
590.5,103.0
590.56,92.0
590.62,106.0
590.69,89.0
590.75,105.0
590.81,93.0
590.88,109.0
590.94,109.0
591.0,99.0
591.07,103.0
591.13,118.0
591.19,129.0
591.25,130.0
591.32,137.0
591.38,135.0
591.44,144.0
591.51,126.0
591.57,116.0
591.63,134.0
591.7,125.0
591.76,132.0
591.82,132.0
591.88,127.0
591.95,143.0
592.01,151.0
592.07,143.0
592.14,139.0
592.2,146.0
592.26,151.0
592.33,137.0
592.39,142.0
592.45,143.0
592.51,147.0
592.58,150.0
592.64,135.0
592.7,148.0
592.77,151.0
592.83,127.0
592.89,122.0
592.96,108.0
593.02,115.0
593.08,133.0
593.14,124.0
593.21,118.0
593.27,108.0
593.33,104.0
593.4,114.0
593.46,130.0
593.52,150.0
593.59,136.0
593.65,134.0
593.71,133.0
593.77,135.0
593.84,126.0
593.9,123.0
593.96,132.0
594.03,132.0
594.09,126.0
594.15,139.0
594.22,133.0
594.28,146.0
594.34,129.0
594.4,119.0
594.47,125.0
594.53,125.0
594.59,124.0
594.66,112.0
594.72,110.0
594.78,114.0
594.85,113.0
594.91,130.0
594.97,119.0
595.03,99.0
595.1,103.0
595.16,111.0
595.22,102.0
595.29,91.0
595.35,111.0
595.41,111.0
595.48,105.0
595.54,99.0
595.6,92.0
595.66,96.0
595.73,108.0
595.79,100.0
595.85,104.0
595.92,115.0
595.98,103.0
596.04,105.0
596.11,93.0
596.17,83.0
596.23,96.0
596.29,102.0
596.36,86.0
596.42,86.0
596.48,85.0
596.55,95.0
596.61,76.0
596.67,83.0
596.74,93.0
596.8,80.0
596.86,103.0
596.92,104.0
596.99,110.0
597.05,107.0
597.11,116.0
597.18,113.0
597.24,115.0
597.3,96.0
597.37,105.0
597.43,103.0
597.49,114.0
597.55,115.0
597.62,113.0
597.68,114.0
597.74,97.0
597.81,125.0
597.87,119.0
597.93,102.0
598.0,107.0
598.06,132.0
598.12,127.0
598.18,137.0
598.25,153.0
598.31,154.0
598.37,145.0
598.44,141.0
598.5,170.0
598.56,151.0
598.63,173.0
598.69,165.0
598.75,165.0
598.81,191.0
598.88,166.0
598.94,185.0
599.0,154.0
599.07,159.0
599.13,178.0
599.19,174.0
599.26,159.0
599.32,151.0
599.38,167.0
599.44,179.0
599.51,182.0
599.57,159.0
599.63,166.0
599.7,147.0
599.76,148.0
599.82,168.0
599.89,155.0
599.95,161.0
600.01,144.0
600.07,170.0
600.14,155.0
600.2,173.0
600.26,161.0
600.33,147.0
600.39,163.0
600.45,141.0
600.52,148.0
600.58,184.0
600.64,183.0
600.7,159.0
600.77,178.0
600.83,187.0
600.89,192.0
600.96,166.0
601.02,163.0
601.08,169.0
601.15,179.0
601.21,176.0
601.27,162.0
601.33,178.0
601.4,182.0
601.46,174.0
601.52,153.0
601.59,155.0
601.65,145.0
601.71,140.0
601.78,148.0
601.84,141.0
601.9,136.0
601.96,152.0
602.03,165.0
602.09,143.0
602.15,140.0
602.22,118.0
602.28,122.0
602.34,124.0
602.41,121.0
602.47,141.0
602.53,126.0
602.59,131.0
602.66,124.0
602.72,120.0
602.78,122.0
602.85,122.0
602.91,125.0
602.97,124.0
603.04,103.0
603.1,107.0
603.16,89.0
603.22,97.0
603.29,99.0
603.35,131.0
603.41,105.0
603.48,110.0
603.54,99.0
603.6,111.0
603.67,100.0
603.73,84.0
603.79,106.0
603.85,86.0
603.92,85.0
603.98,93.0
604.04,82.0
604.11,89.0
604.17,91.0
604.23,85.0
604.3,89.0
604.36,69.0
604.42,96.0
604.48,81.0
604.55,91.0
604.61,70.0
604.67,63.0
604.74,86.0
604.8,98.0
604.86,93.0
604.93,89.0
604.99,73.0
605.05,97.0
605.11,98.0
605.18,103.0
605.24,88.0
605.3,88.0
605.37,89.0
605.43,82.0
605.49,72.0
605.56,89.0
605.62,100.0
605.68,93.0
605.74,79.0
605.81,96.0
605.87,99.0
605.93,108.0
606.0,104.0
606.06,102.0
606.12,93.0
606.19,93.0
606.25,85.0
606.31,93.0
606.37,102.0
606.44,96.0
606.5,113.0
606.56,118.0
606.63,88.0
606.69,110.0
606.75,132.0
606.82,138.0
606.88,161.0
606.94,125.0
607.0,139.0
607.07,148.0
607.13,146.0
607.19,142.0
607.26,152.0
607.32,142.0
607.38,149.0
607.45,155.0
607.51,155.0
607.57,152.0
607.63,157.0
607.7,179.0
607.76,162.0
607.82,165.0
607.89,150.0
607.95,170.0
608.01,164.0
608.08,185.0
608.14,178.0
608.2,163.0
608.26,157.0
608.33,150.0
608.39,158.0
608.45,166.0
608.52,143.0
608.58,140.0
608.64,149.0
608.71,133.0
608.77,126.0
608.83,133.0
608.89,122.0
608.96,129.0
609.02,148.0
609.08,144.0
609.15,141.0
609.21,150.0
609.27,138.0
609.34,122.0
609.4,133.0
609.46,138.0
609.52,137.0
609.59,139.0
609.65,127.0
609.71,105.0
609.78,125.0
609.84,145.0
609.9,137.0
609.97,162.0
610.03,141.0
610.09,160.0
610.15,160.0
610.22,162.0
610.28,166.0
610.34,129.0
610.41,131.0
610.47,127.0
610.53,143.0
610.6,135.0
610.66,121.0
610.72,127.0
610.78,140.0
610.85,121.0
610.91,147.0
610.97,114.0
611.04,112.0
611.1,125.0
611.16,115.0
611.23,129.0
611.29,127.0
611.35,147.0
611.41,125.0
611.48,126.0
611.54,114.0
611.6,100.0
611.67,102.0
611.73,126.0
611.79,125.0
611.86,116.0
611.92,114.0
611.98,96.0
612.04,103.0
612.11,108.0
612.17,101.0
612.23,88.0
612.3,89.0
612.36,74.0
612.42,56.0
612.49,82.0
612.55,96.0
612.61,75.0
612.67,82.0
612.74,74.0
612.8,94.0
612.86,96.0
612.93,78.0
612.99,77.0
613.05,70.0
613.12,77.0
613.18,72.0
613.24,100.0
613.3,92.0
613.37,103.0
613.43,82.0
613.49,91.0
613.56,95.0
613.62,98.0
613.68,103.0
613.75,84.0
613.81,91.0
613.87,97.0
613.93,110.0
614.0,98.0
614.06,74.0
614.12,75.0
614.19,85.0
614.25,82.0
614.31,93.0
614.38,99.0
614.44,85.0
614.5,94.0
614.56,74.0
614.63,75.0
614.69,78.0
614.75,79.0
614.82,76.0
614.88,100.0
614.94,97.0
615.01,107.0
615.07,96.0
615.13,96.0
615.19,91.0
615.26,99.0
615.32,94.0
615.38,98.0
615.45,116.0
615.51,101.0
615.57,125.0
615.64,132.0
615.7,115.0
615.76,127.0
615.82,135.0
615.89,107.0
615.95,122.0
616.01,133.0
616.08,105.0
616.14,113.0
616.2,115.0
616.27,111.0
616.33,118.0
616.39,104.0
616.45,119.0
616.52,105.0
616.58,103.0
616.64,118.0
616.71,113.0
616.77,110.0
616.83,126.0
616.9,96.0
616.96,106.0
617.02,97.0
617.08,92.0
617.15,107.0
617.21,117.0
617.27,114.0
617.34,102.0
617.4,100.0
617.46,91.0
617.53,85.0
617.59,110.0
617.65,95.0
617.71,73.0
617.78,92.0
617.84,75.0
617.9,67.0
617.97,74.0
618.03,73.0
618.09,68.0
618.16,56.0
618.22,77.0
618.28,61.0
618.34,56.0
618.41,74.0
618.47,69.0
618.53,84.0
618.6,70.0
618.66,67.0
618.72,72.0
618.79,66.0
618.85,61.0
618.91,49.0
618.97,44.0
619.04,52.0
619.1,56.0
619.16,72.0
619.23,56.0
619.29,67.0
619.35,55.0
619.42,45.0
619.48,45.0
619.54,68.0
619.6,67.0
619.67,57.0
619.73,52.0
619.79,70.0
619.86,45.0
619.92,28.0
619.98,56.0
620.05,38.0
620.11,19.0
620.17,25.0
620.23,29.0
620.3,25.0
620.36,26.0
620.42,25.0
620.49,36.0
620.55,44.0
620.61,33.0
620.68,30.0
620.74,12.0
620.8,24.0
620.86,39.0
620.93,45.0
620.99,56.0
621.05,35.0
621.12,32.0
621.18,46.0
621.24,39.0
621.31,45.0
621.37,34.0
621.43,60.0
621.49,60.0
621.56,56.0
621.62,45.0
621.68,27.0
621.75,45.0
621.81,49.0
621.87,41.0
621.94,33.0
622.0,46.0
622.06,51.0
622.12,44.0
622.19,49.0
622.25,59.0
622.31,72.0
622.38,90.0
622.44,82.0
622.5,103.0
622.57,83.0
622.63,85.0
622.69,100.0
622.75,76.0
622.82,69.0
622.88,78.0
622.94,85.0
623.01,103.0
623.07,96.0
623.13,103.0
623.2,89.0
623.26,96.0
623.32,100.0
623.38,92.0
623.45,94.0
623.51,111.0
623.57,137.0
623.64,119.0
623.7,136.0
623.76,132.0
623.83,142.0
623.89,149.0
623.95,155.0
624.01,151.0
624.08,139.0
624.14,140.0
624.2,141.0
624.27,155.0
624.33,160.0
624.39,176.0
624.46,166.0
624.52,168.0
624.58,171.0
624.64,168.0
624.71,149.0
624.77,162.0
624.83,159.0
624.9,165.0
624.96,173.0
625.02,152.0
625.09,178.0
625.15,163.0
625.21,171.0
625.27,183.0
625.34,177.0
625.4,178.0
625.46,185.0
625.53,188.0
625.59,179.0
625.65,173.0
625.72,184.0
625.78,204.0
625.84,193.0
625.9,206.0
625.97,208.0
626.03,200.0
626.09,231.0
626.16,231.0
626.22,207.0
626.28,213.0
626.35,199.0
626.41,184.0
626.47,189.0
626.53,197.0
626.6,195.0
626.66,223.0
626.72,188.0
626.79,229.0
626.85,219.0
626.91,223.0
626.98,213.0
627.04,220.0
627.1,220.0
627.16,191.0
627.23,192.0
627.29,210.0
627.35,228.0
627.42,218.0
627.48,228.0
627.54,229.0
627.61,224.0
627.67,230.0
627.73,231.0
627.79,225.0
627.86,229.0
627.92,228.0
627.98,255.0
628.05,236.0
628.11,239.0
628.17,228.0
628.24,216.0
628.3,219.0
628.36,222.0
628.42,231.0
628.49,214.0
628.55,221.0
628.61,207.0
628.68,221.0
628.74,214.0
628.8,223.0
628.87,224.0
628.93,213.0
628.99,204.0
629.05,206.0
629.12,204.0
629.18,212.0
629.24,188.0
629.31,206.0
629.37,199.0
629.43,201.0
629.5,200.0
629.56,196.0
629.62,207.0
629.68,203.0
629.75,202.0
629.81,186.0
629.87,194.0
629.94,184.0
630.0,201.0
630.06,203.0
630.13,185.0
630.19,209.0
630.25,202.0
630.31,182.0
630.38,183.0
630.44,191.0
630.5,182.0
630.57,178.0
630.63,169.0
630.69,171.0
630.76,190.0
630.82,179.0
630.88,177.0
630.94,173.0
631.01,168.0
631.07,143.0
631.13,151.0
631.2,173.0
631.26,159.0
631.32,148.0
631.39,148.0
631.45,162.0
631.51,157.0
631.57,155.0
631.64,147.0
631.7,154.0
631.76,154.0
631.83,185.0
631.89,166.0
631.95,166.0
632.02,176.0
632.08,174.0
632.14,185.0
632.2,177.0
632.27,182.0
632.33,169.0
632.39,182.0
632.46,184.0
632.52,198.0
632.58,181.0
632.65,171.0
632.71,169.0
632.77,182.0
632.83,181.0
632.9,180.0
632.96,175.0
633.02,166.0
633.09,170.0
633.15,166.0
633.21,190.0
633.28,179.0
633.34,188.0
633.4,175.0
633.46,166.0
633.53,185.0
633.59,187.0
633.65,186.0
633.72,191.0
633.78,187.0
633.84,174.0
633.91,166.0
633.97,170.0
634.03,141.0
634.09,141.0
634.16,162.0
634.22,142.0
634.28,151.0
634.35,136.0
634.41,143.0
634.47,132.0
634.54,129.0
634.6,118.0
634.66,125.0
634.72,109.0
634.79,102.0
634.85,127.0
634.91,114.0
634.98,121.0
635.04,112.0
635.1,116.0
635.17,109.0
635.23,110.0
635.29,108.0
635.35,96.0
635.42,91.0
635.48,82.0
635.54,63.0
635.61,69.0
635.67,61.0
635.73,45.0
635.8,30.0
635.86,50.0
635.92,36.0
635.98,41.0
636.05,38.0
636.11,34.0
636.17,46.0
636.24,35.0
636.3,44.0
636.36,46.0
636.43,54.0
636.49,36.0
636.55,40.0
636.61,34.0
636.68,24.0
636.74,47.0
636.8,41.0
636.87,30.0
636.93,37.0
636.99,41.0
637.06,50.0
637.12,39.0
637.18,39.0
637.24,46.0
637.31,44.0
637.37,52.0
637.43,47.0
637.5,30.0
637.56,22.0
637.62,39.0
637.69,37.0
637.75,26.0
637.81,18.0
637.87,19.0
637.94,9.0
638.0,11.0
638.06,26.0
638.13,18.0
638.19,10.0
638.25,17.0
638.32,12.0
638.38,14.0
638.44,4.0
638.5,9.0
638.57,2.0
638.63,8.0
638.69,19.0
638.76,24.0
638.82,35.0
638.88,35.0
638.95,36.0
639.01,52.0
639.07,54.0
639.13,50.0
639.2,45.0
639.26,71.0
639.32,48.0
639.39,57.0
639.45,63.0
639.51,49.0
639.58,55.0
639.64,59.0
639.7,47.0
639.76,39.0
639.83,36.0
639.89,52.0
639.95,66.0
640.02,34.0
640.08,52.0
640.14,52.0
640.21,52.0
640.27,63.0
640.33,37.0
640.39,59.0
640.46,63.0
640.52,69.0
640.58,52.0
640.65,56.0
640.71,64.0
640.77,58.0
640.84,54.0
640.9,55.0
640.96,72.0
641.02,50.0
641.09,72.0
641.15,103.0
641.21,78.0
641.28,50.0
641.34,45.0
641.4,66.0
641.47,66.0
641.53,76.0
641.59,80.0
641.65,80.0
641.72,83.0
641.78,61.0
641.84,99.0
641.91,107.0
641.97,119.0
642.03,103.0
642.1,102.0
642.16,102.0
642.22,102.0
642.28,99.0
642.35,104.0
642.41,94.0
642.47,98.0
642.54,115.0
642.6,111.0
642.66,121.0
642.73,110.0
642.79,125.0
642.85,130.0
642.91,125.0
642.98,145.0
643.04,129.0
643.1,128.0
643.17,137.0
643.23,147.0
643.29,138.0
643.36,148.0
643.42,143.0
643.48,119.0
643.54,114.0
643.61,118.0
643.67,124.0
643.73,121.0
643.8,117.0
643.86,126.0
643.92,149.0
643.99,130.0
644.05,128.0
644.11,155.0
644.17,126.0
644.24,131.0
644.3,142.0
644.36,152.0
644.43,146.0
644.49,162.0
644.55,151.0
644.62,140.0
644.68,150.0
644.74,146.0
644.8,149.0
644.87,146.0
644.93,138.0
644.99,140.0
645.06,150.0
645.12,160.0
645.18,153.0
645.25,143.0
645.31,144.0
645.37,146.0
645.43,140.0
645.5,154.0
645.56,147.0
645.62,134.0
645.69,148.0
645.75,139.0
645.81,127.0
645.88,135.0
645.94,142.0
646.0,118.0
646.06,111.0
646.13,105.0
646.19,110.0
646.25,116.0
646.32,126.0
646.38,120.0
646.44,120.0
646.51,114.0
646.57,118.0
646.63,119.0
646.69,114.0
646.76,108.0
646.82,111.0
646.88,104.0
646.95,117.0
647.01,109.0
647.07,97.0
647.14,92.0
647.2,91.0
647.26,91.0
647.32,88.0
647.39,82.0
647.45,72.0
647.51,78.0
647.58,67.0
647.64,67.0
647.7,101.0
647.77,101.0
647.83,108.0
647.89,108.0
647.95,93.0
648.02,111.0
648.08,102.0
648.14,112.0
648.21,130.0
648.27,115.0
648.33,120.0
648.4,113.0
648.46,102.0
648.52,109.0
648.58,122.0
648.65,135.0
648.71,107.0
648.77,105.0
648.84,118.0
648.9,125.0
648.96,118.0
649.03,104.0
649.09,140.0
649.15,111.0
649.21,118.0
649.28,135.0
649.34,115.0
649.4,115.0
649.47,104.0
649.53,101.0
649.59,113.0
649.66,111.0
649.72,97.0
649.78,96.0
649.84,106.0
649.91,96.0
649.97,102.0
650.03,72.0
650.1,71.0
650.16,86.0
650.22,104.0
650.29,100.0
650.35,124.0
650.41,100.0
650.47,102.0
650.54,124.0
650.6,104.0
650.66,114.0
650.73,97.0
650.79,70.0
650.85,87.0
650.92,92.0
650.98,103.0
651.04,106.0
651.1,107.0
651.17,107.0
651.23,105.0
651.29,113.0
651.36,80.0
651.42,87.0
651.48,101.0
651.55,80.0
651.61,66.0
651.67,94.0
651.73,86.0
651.8,79.0
651.86,87.0
651.92,64.0
651.99,85.0
652.05,89.0
652.11,80.0
652.18,73.0
652.24,72.0
652.3,81.0
652.36,76.0
652.43,70.0
652.49,78.0
652.55,89.0
652.62,101.0
652.68,75.0
652.74,67.0
652.81,84.0
652.87,83.0
652.93,66.0
652.99,61.0
653.06,62.0
653.12,41.0
653.18,36.0
653.25,32.0
653.31,53.0
653.37,44.0
653.44,51.0
653.5,55.0
653.56,56.0
653.62,42.0
653.69,52.0
653.75,58.0
653.81,49.0
653.88,70.0
653.94,71.0
654.0,60.0
654.07,50.0
654.13,52.0
654.19,52.0
654.25,53.0
654.32,60.0
654.38,51.0
654.44,36.0
654.51,47.0
654.57,28.0
654.63,28.0
654.7,48.0
654.76,49.0
654.82,47.0
654.88,38.0
654.95,34.0
655.01,17.0
655.07,27.0
655.14,52.0
655.2,48.0
655.26,52.0
655.33,32.0
655.39,27.0
655.45,37.0
655.51,35.0
655.58,14.0
655.64,27.0
655.7,45.0
655.77,42.0
655.83,83.0
655.89,75.0
655.96,83.0
656.02,81.0
656.08,78.0
656.14,87.0
656.21,97.0
656.27,98.0
656.33,102.0
656.4,108.0
656.46,105.0
656.52,102.0
656.59,107.0
656.65,105.0
656.71,95.0
656.77,99.0
656.84,112.0
656.9,114.0
656.96,127.0
657.03,119.0
657.09,120.0
657.15,132.0
657.22,123.0
657.28,118.0
657.34,124.0
657.4,115.0
657.47,108.0
657.53,108.0
657.59,130.0
657.66,131.0
657.72,124.0
657.78,122.0
657.85,116.0
657.91,112.0
657.97,124.0
658.03,123.0
658.1,135.0
658.16,141.0
658.22,155.0
658.29,160.0
658.35,155.0
658.41,156.0
658.48,128.0
658.54,151.0
658.6,158.0
658.66,173.0
658.73,157.0
658.79,151.0
658.85,153.0
658.92,126.0
658.98,127.0
659.04,147.0
659.11,151.0
659.17,144.0
659.23,146.0
659.29,159.0
659.36,157.0
659.42,156.0
659.48,155.0
659.55,153.0
659.61,172.0
659.67,157.0
659.74,182.0
659.8,187.0
659.86,196.0
659.92,198.0
659.99,187.0
660.05,192.0
660.11,185.0
660.18,194.0
660.24,181.0
660.3,194.0
660.37,175.0
660.43,203.0
660.49,212.0
660.55,203.0
660.62,203.0
660.68,206.0
660.74,209.0
660.81,212.0
660.87,196.0
660.93,198.0
661.0,223.0
661.06,199.0
661.12,186.0
661.18,198.0
661.25,204.0
661.31,207.0
661.37,207.0
661.44,196.0
661.5,171.0
661.56,166.0
661.63,177.0
661.69,185.0
661.75,207.0
661.81,208.0
661.88,199.0
661.94,198.0
662.0,192.0
662.07,192.0
662.13,177.0
662.19,195.0
662.26,214.0
662.32,200.0
662.38,174.0
662.44,176.0
662.51,182.0
662.57,190.0
662.63,181.0
662.7,190.0
662.76,185.0
662.82,205.0
662.89,200.0
662.95,181.0
663.01,174.0
663.07,166.0
663.14,172.0
663.2,171.0
663.26,161.0
663.33,162.0
663.39,146.0
663.45,168.0
663.52,172.0
663.58,159.0
663.64,182.0
663.7,184.0
663.77,165.0
663.83,150.0
663.89,190.0
663.96,169.0
664.02,177.0
664.08,175.0
664.15,154.0
664.21,138.0
664.27,153.0
664.33,151.0
664.4,135.0
664.46,118.0
664.52,121.0
664.59,132.0
664.65,122.0
664.71,100.0
664.78,124.0
664.84,129.0
664.9,112.0
664.96,108.0
665.03,114.0
665.09,134.0
665.15,128.0
665.22,131.0
665.28,126.0
665.34,129.0
665.41,127.0
665.47,132.0
665.53,146.0
665.59,115.0
665.66,129.0
665.72,137.0
665.78,137.0
665.85,120.0
665.91,127.0
665.97,104.0
666.04,89.0
666.1,124.0
666.16,113.0
666.22,102.0
666.29,101.0
666.35,103.0
666.41,88.0
666.48,82.0
666.54,88.0
666.6,97.0
666.67,74.0
666.73,73.0
666.79,64.0
666.85,69.0
666.92,81.0
666.98,64.0
667.04,60.0
667.11,70.0
667.17,55.0
667.23,68.0
667.3,87.0
667.36,76.0
667.42,67.0
667.48,70.0
667.55,82.0
667.61,101.0
667.67,96.0
667.74,78.0
667.8,76.0
667.86,90.0
667.93,72.0
667.99,59.0
668.05,60.0
668.11,69.0
668.18,63.0
668.24,64.0
668.3,64.0
668.37,64.0
668.43,69.0
668.49,65.0
668.56,67.0
668.62,60.0
668.68,37.0
668.74,36.0
668.81,64.0
668.87,54.0
668.93,56.0
669.0,67.0
669.06,43.0
669.12,58.0
669.19,55.0
669.25,73.0
669.31,90.0
669.37,79.0
669.44,69.0
669.5,48.0
669.56,52.0
669.63,71.0
669.69,50.0
669.75,49.0
669.82,44.0
669.88,44.0
669.94,6.0
670.0,0.0
670.07,27.0
670.13,17.0
670.19,16.0
670.26,20.0
670.32,11.0
670.38,17.0
670.45,32.0
670.51,21.0
670.57,4.0
670.63,5.0
670.7,11.0
670.76,-9.0
670.82,4.0
670.89,14.0
670.95,24.0
671.01,0.0
671.08,12.0
671.14,20.0
671.2,25.0
671.26,22.0
671.33,7.0
671.39,12.0
671.45,9.0
671.52,9.0
671.58,-2.0
671.64,20.0
671.71,15.0
671.77,14.0
671.83,47.0
671.89,34.0
671.96,21.0
672.02,15.0
672.08,25.0
672.15,47.0
672.21,49.0
672.27,29.0
672.34,18.0
672.4,43.0
672.46,30.0
672.52,39.0
672.59,46.0
672.65,45.0
672.71,75.0
672.78,84.0
672.84,70.0
672.9,66.0
672.97,70.0
673.03,105.0
673.09,81.0
673.15,72.0
673.22,95.0
673.28,107.0
673.34,108.0
673.41,120.0
673.47,124.0
673.53,107.0
673.6,114.0
673.66,120.0
673.72,98.0
673.78,109.0
673.85,102.0
673.91,105.0
673.97,140.0
674.04,99.0
674.1,94.0
674.16,108.0
674.23,115.0
674.29,125.0
674.35,112.0
674.41,128.0
674.48,134.0
674.54,138.0
674.6,134.0
674.67,134.0
674.73,150.0
674.79,143.0
674.86,142.0
674.92,131.0
674.98,159.0
675.04,150.0
675.11,143.0
675.17,171.0
675.23,169.0
675.3,176.0
675.36,176.0
675.42,159.0
675.49,168.0
675.55,160.0
675.61,157.0
675.67,168.0
675.74,171.0
675.8,168.0
675.86,169.0
675.93,149.0
675.99,159.0
676.05,150.0
676.12,168.0
676.18,174.0
676.24,172.0
676.3,191.0
676.37,166.0
676.43,181.0
676.49,176.0
676.56,172.0
676.62,182.0
676.68,168.0
676.75,180.0
676.81,175.0
676.87,177.0
676.93,164.0
677.0,181.0
677.06,162.0
677.12,147.0
677.19,167.0
677.25,165.0
677.31,189.0
677.38,185.0
677.44,175.0
677.5,179.0
677.56,169.0
677.63,162.0
677.69,170.0
677.75,180.0
677.82,172.0
677.88,171.0
677.94,167.0
678.01,181.0
678.07,198.0
678.13,185.0
678.19,203.0
678.26,203.0
678.32,220.0
678.38,202.0
678.45,205.0
678.51,210.0
678.57,219.0
678.64,212.0
678.7,215.0
678.76,214.0
678.82,208.0
678.89,218.0
678.95,219.0
679.01,227.0
679.08,242.0
679.14,218.0
679.2,215.0
679.27,215.0
679.33,194.0
679.39,186.0
679.45,193.0
679.52,190.0
679.58,182.0
679.64,165.0
679.71,185.0
679.77,179.0
679.83,197.0
679.9,172.0
679.96,180.0
680.02,179.0
680.08,161.0
680.15,161.0
680.21,154.0
680.27,148.0
680.34,161.0
680.4,157.0
680.46,143.0
680.53,144.0
680.59,117.0
680.65,127.0
680.71,149.0
680.78,136.0
680.84,133.0
680.9,132.0
680.97,151.0
681.03,161.0
681.09,142.0
681.16,120.0
681.22,133.0
681.28,127.0
681.34,132.0
681.41,138.0
681.47,156.0
681.53,149.0
681.6,135.0
681.66,135.0
681.72,121.0
681.79,129.0
681.85,124.0
681.91,123.0
681.97,132.0
682.04,125.0
682.1,130.0
682.16,132.0
682.23,110.0
682.29,146.0
682.35,135.0
682.42,129.0
682.48,144.0
682.54,136.0
682.6,134.0
682.67,161.0
682.73,161.0
682.79,174.0
682.86,167.0
682.92,170.0
682.98,164.0
683.05,166.0
683.11,161.0
683.17,160.0
683.23,156.0
683.3,141.0
683.36,157.0
683.42,146.0
683.49,158.0
683.55,140.0
683.61,139.0
683.68,131.0
683.74,133.0
683.8,150.0
683.86,133.0
683.93,147.0
683.99,128.0
684.05,124.0
684.12,140.0
684.18,139.0
684.24,135.0
684.31,150.0
684.37,149.0
684.43,144.0
684.49,137.0
684.56,121.0
684.62,113.0
684.68,123.0
684.75,117.0
684.81,104.0
684.87,107.0
684.94,116.0
685.0,115.0
685.06,114.0
685.12,98.0
685.19,93.0
685.25,106.0
685.31,98.0
685.38,87.0
685.44,94.0
685.5,97.0
685.57,97.0
685.63,99.0
685.69,95.0
685.75,105.0
685.82,103.0
685.88,94.0
685.94,82.0
686.01,67.0
686.07,66.0
686.13,80.0
686.2,93.0
686.26,74.0
686.32,67.0
686.38,50.0
686.45,31.0
686.51,36.0
686.57,55.0
686.64,40.0
686.7,47.0
686.76,71.0
686.83,57.0
686.89,62.0
686.95,75.0
687.01,68.0
687.08,72.0
687.14,89.0
687.2,82.0
687.27,77.0
687.33,74.0
687.39,62.0
687.46,65.0
687.52,63.0
687.58,65.0
687.64,44.0
687.71,51.0
687.77,54.0
687.83,52.0
687.9,66.0
687.96,65.0
688.02,54.0
688.09,50.0
688.15,51.0
688.21,36.0
688.27,38.0
688.34,37.0
688.4,42.0
688.46,40.0
688.53,38.0
688.59,29.0
688.65,24.0
688.72,31.0
688.78,39.0
688.84,38.0
688.9,32.0
688.97,45.0
689.03,40.0
689.09,49.0
689.16,37.0
689.22,61.0
689.28,69.0
689.35,57.0
689.41,80.0
689.47,74.0
689.53,76.0
689.6,80.0
689.66,75.0
689.72,92.0
689.79,100.0
689.85,96.0
689.91,84.0
689.98,102.0
690.04,96.0
690.1,76.0
690.16,78.0
690.23,78.0
690.29,97.0
690.35,73.0
690.42,95.0
690.48,95.0
690.54,104.0
690.61,116.0
690.67,113.0
690.73,106.0
690.79,108.0
690.86,120.0
690.92,125.0
690.98,122.0
691.05,127.0
691.11,118.0
691.17,118.0
691.24,118.0
691.3,111.0
691.36,97.0
691.42,100.0
691.49,124.0
691.55,106.0
691.61,107.0
691.68,113.0
691.74,112.0
691.8,125.0
691.87,103.0
691.93,99.0
691.99,98.0
692.05,99.0
692.12,99.0
692.18,95.0
692.24,88.0
692.31,73.0
692.37,77.0
692.43,79.0
692.5,80.0
692.56,78.0
692.62,83.0
692.68,83.0
692.75,81.0
692.81,66.0
692.87,67.0
692.94,91.0
693.0,89.0
693.06,78.0
693.13,102.0
693.19,115.0
693.25,84.0
693.31,95.0
693.38,83.0
693.44,97.0
693.5,90.0
693.57,114.0
693.63,125.0
693.69,125.0
693.76,109.0
693.82,111.0
693.88,106.0
693.94,129.0
694.01,139.0
694.07,152.0
694.13,128.0
694.2,138.0
694.26,129.0
694.32,123.0
694.39,102.0
694.45,124.0
694.51,122.0
694.57,120.0
694.64,123.0
694.7,118.0
694.76,113.0
694.83,106.0
694.89,97.0
694.95,102.0
695.02,97.0
695.08,117.0
695.14,113.0
695.2,115.0
695.27,119.0
695.33,108.0
695.39,95.0
695.46,111.0
695.52,111.0
695.58,113.0
695.65,110.0
695.71,114.0
695.77,130.0
695.83,113.0
695.9,115.0
695.96,115.0
696.02,113.0
696.09,94.0
696.15,110.0
696.21,122.0
696.28,118.0
696.34,120.0
696.4,121.0
696.46,132.0
696.53,116.0
696.59,117.0
696.65,117.0
696.72,116.0
696.78,120.0
696.84,101.0
696.91,121.0
696.97,116.0
697.03,123.0
697.09,114.0
697.16,100.0
697.22,104.0
697.28,108.0
697.35,102.0
697.41,87.0
697.47,86.0
697.54,90.0
697.6,95.0
697.66,98.0
697.72,91.0
697.79,102.0
697.85,96.0
697.91,113.0
697.98,89.0
698.04,98.0
698.1,102.0
698.17,98.0
698.23,96.0
698.29,100.0
698.35,98.0
698.42,99.0
698.48,124.0
698.54,113.0
698.61,107.0
698.67,112.0
698.73,119.0
698.8,125.0
698.86,121.0
698.92,135.0
698.98,126.0
699.05,127.0
699.11,129.0
699.17,132.0
699.24,128.0
699.3,138.0
699.36,141.0
699.43,116.0
699.49,121.0
699.55,117.0
699.61,136.0
699.68,139.0
699.74,136.0
699.8,144.0
699.87,141.0
699.93,136.0
699.99,138.0
700.06,136.0
700.12,147.0
700.18,157.0
700.24,152.0
700.31,162.0
700.37,175.0
700.43,150.0
700.5,152.0
700.56,163.0
700.62,159.0
700.69,172.0
700.75,170.0
700.81,157.0
700.87,190.0
700.94,158.0
701.0,171.0
701.06,168.0
701.13,162.0
701.19,171.0
701.25,135.0
701.32,169.0
701.38,178.0
701.44,168.0
701.5,143.0
701.57,149.0
701.63,150.0
701.69,155.0
701.76,159.0
701.82,149.0
701.88,149.0
701.95,164.0
702.01,167.0
702.07,156.0
702.13,141.0
702.2,150.0
702.26,143.0
702.32,169.0
702.39,164.0
702.45,146.0
702.51,139.0
702.58,134.0
702.64,141.0
702.7,133.0
702.76,105.0
702.83,110.0
702.89,125.0
702.95,126.0
703.02,125.0
703.08,108.0
703.14,106.0
703.21,110.0
703.27,112.0
703.33,100.0
703.39,108.0
703.46,114.0
703.52,102.0
703.58,102.0
703.65,114.0
703.71,114.0
703.77,116.0
703.84,95.0
703.9,79.0
703.96,103.0
704.02,98.0
704.09,108.0
704.15,121.0
704.21,106.0
704.28,111.0
704.34,93.0
704.4,99.0
704.47,117.0
704.53,105.0
704.59,113.0
704.65,103.0
704.72,89.0
704.78,93.0
704.84,98.0
704.91,100.0
704.97,99.0
705.03,106.0
705.1,121.0
705.16,105.0
705.22,103.0
705.28,92.0
705.35,106.0
705.41,112.0
705.47,94.0
705.54,70.0
705.6,95.0
705.66,121.0
705.73,101.0
705.79,104.0
705.85,102.0
705.91,95.0
705.98,109.0
706.04,91.0
706.1,119.0
706.17,143.0
706.23,140.0
706.29,124.0
706.36,127.0
706.42,132.0
706.48,121.0
706.54,109.0
706.61,106.0
706.67,115.0
706.73,113.0
706.8,100.0
706.86,116.0
706.92,124.0
706.99,102.0
707.05,103.0
707.11,94.0
707.17,79.0
707.24,130.0
707.3,112.0
707.36,95.0
707.43,122.0
707.49,125.0
707.55,101.0
707.62,118.0
707.68,113.0
707.74,105.0
707.8,107.0
707.87,120.0
707.93,111.0
707.99,99.0
708.06,103.0
708.12,83.0
708.18,92.0
708.25,105.0
708.31,82.0
708.37,84.0
708.43,96.0
708.5,113.0
708.56,120.0
708.62,115.0
708.69,134.0
708.75,135.0
708.81,114.0
708.88,98.0
708.94,122.0
709.0,132.0
709.06,124.0
709.13,120.0
709.19,114.0
709.25,103.0
709.32,114.0
709.38,130.0
709.44,120.0
709.51,111.0
709.57,111.0
709.63,109.0
709.69,121.0
709.76,108.0
709.82,108.0
709.88,125.0
709.95,121.0
710.01,145.0
710.07,135.0
710.14,130.0
710.2,138.0
710.26,143.0
710.32,139.0
710.39,146.0
710.45,149.0
710.51,144.0
710.58,153.0
710.64,132.0
710.7,127.0
710.77,125.0
710.83,153.0
710.89,149.0
710.95,139.0
711.02,133.0
711.08,150.0
711.14,161.0
711.21,151.0
711.27,153.0
711.33,169.0
711.4,180.0
711.46,198.0
711.52,187.0
711.58,178.0
711.65,180.0
711.71,189.0
711.77,207.0
711.84,185.0
711.9,185.0
711.96,193.0
712.03,177.0
712.09,189.0
712.15,198.0
712.21,187.0
712.28,165.0
712.34,158.0
712.4,185.0
712.47,172.0
712.53,168.0
712.59,179.0
712.66,187.0
712.72,168.0
712.78,192.0
712.84,183.0
712.91,200.0
712.97,199.0
713.03,176.0
713.1,191.0
713.16,189.0
713.22,179.0
713.29,179.0
713.35,191.0
713.41,199.0
713.47,176.0
713.54,183.0
713.6,173.0
713.66,161.0
713.73,152.0
713.79,161.0
713.85,177.0
713.92,169.0
713.98,164.0
714.04,135.0
714.1,150.0
714.17,178.0
714.23,148.0
714.29,137.0
714.36,157.0
714.42,150.0
714.48,162.0
714.55,169.0
714.61,171.0
714.67,182.0
714.73,179.0
714.8,172.0
714.86,166.0
714.92,150.0
714.99,155.0
715.05,174.0
715.11,170.0
715.18,159.0
715.24,173.0
715.3,181.0
715.36,151.0
715.43,164.0
715.49,150.0
715.55,149.0
715.62,141.0
715.68,167.0
715.74,176.0
715.81,144.0
715.87,161.0
715.93,178.0
715.99,168.0
716.06,172.0
716.12,176.0
716.18,188.0
716.25,177.0
716.31,168.0
716.37,185.0
716.44,160.0
716.5,169.0
716.56,161.0
716.62,174.0
716.69,144.0
716.75,152.0
716.81,193.0
716.88,162.0
716.94,177.0
717.0,168.0
717.07,161.0
717.13,156.0
717.19,178.0
717.25,198.0
717.32,178.0
717.38,182.0
717.44,181.0
717.51,181.0
717.57,168.0
717.63,155.0
717.7,156.0
717.76,161.0
717.82,165.0
717.88,175.0
717.95,164.0
718.01,152.0
718.07,143.0
718.14,136.0
718.2,146.0
718.26,131.0
718.33,138.0
718.39,110.0
718.45,104.0
718.51,120.0
718.58,117.0
718.64,106.0
718.7,99.0
718.77,106.0
718.83,93.0
718.89,95.0
718.96,101.0
719.02,79.0
719.08,80.0
719.14,95.0
719.21,87.0
719.27,108.0
719.33,93.0
719.4,78.0
719.46,86.0
719.52,84.0
719.59,69.0
719.65,77.0
719.71,86.0
719.77,58.0
719.84,61.0
719.9,72.0
719.96,67.0
720.03,42.0
720.09,54.0
720.15,54.0
720.22,63.0
720.28,62.0
720.34,38.0
720.4,43.0
720.47,15.0
720.53,36.0
720.59,33.0
720.66,34.0
720.72,40.0
720.78,25.0
720.85,18.0
720.91,9.0
720.97,34.0
721.03,26.0
721.1,11.0
721.16,20.0
721.22,15.0
721.29,-2.0
721.35,4.0
721.41,-12.0
721.48,-1.0
721.54,5.0
721.6,16.0
721.66,19.0
721.73,6.0
721.79,5.0
721.85,-8.0
721.92,-12.0
721.98,-4.0
722.04,7.0
722.11,0.0
722.17,3.0
722.23,-23.0
722.29,-19.0
722.36,-22.0
722.42,-38.0
722.48,-40.0
722.55,-32.0
722.61,-31.0
722.67,-21.0
722.74,-13.0
722.8,-1.0
722.86,5.0
722.92,4.0
722.99,24.0
723.05,32.0
723.11,3.0
723.18,-18.0
723.24,-11.0
723.3,-18.0
723.37,-7.0
723.43,-22.0
723.49,-39.0
723.55,-18.0
723.62,-27.0
723.68,-4.0
723.74,-23.0
723.81,-15.0
723.87,6.0
723.93,11.0
724.0,18.0
724.06,11.0
724.12,12.0
724.18,11.0
724.25,22.0
724.31,42.0
724.37,15.0
724.44,41.0
724.5,38.0
724.56,34.0
724.63,38.0
724.69,33.0
724.75,58.0
724.81,46.0
724.88,51.0
724.94,55.0
725.0,49.0
725.07,51.0
725.13,60.0
725.19,63.0
725.26,51.0
725.32,29.0
725.38,29.0
725.44,33.0
725.51,43.0
725.57,48.0
725.63,40.0
725.7,29.0
725.76,29.0
725.82,42.0
725.89,41.0
725.95,45.0
726.01,59.0
726.07,58.0
726.14,60.0
726.2,65.0
726.26,67.0
726.33,71.0
726.39,57.0
726.45,81.0
726.52,75.0
726.58,98.0
726.64,118.0
726.7,100.0
726.77,109.0
726.83,84.0
726.89,106.0
726.96,107.0
727.02,118.0
727.08,127.0
727.15,134.0
727.21,143.0
727.27,111.0
727.33,119.0
727.4,131.0
727.46,142.0
727.52,133.0
727.59,151.0
727.65,146.0
727.71,150.0
727.78,147.0
727.84,150.0
727.9,152.0
727.96,148.0
728.03,167.0
728.09,180.0
728.15,164.0
728.22,134.0
728.28,173.0
728.34,184.0
728.41,173.0
728.47,163.0
728.53,156.0
728.59,153.0
728.66,149.0
728.72,147.0
728.78,167.0
728.85,174.0
728.91,165.0
728.97,159.0
729.04,185.0
729.1,194.0
729.16,171.0
729.22,192.0
729.29,183.0
729.35,186.0
729.41,162.0
729.48,176.0
729.54,187.0
729.6,162.0
729.67,156.0
729.73,145.0
729.79,170.0
729.85,164.0
729.92,173.0
729.98,170.0
730.04,161.0
730.11,175.0
730.17,190.0
730.23,159.0
730.3,160.0
730.36,151.0
730.42,171.0
730.48,173.0
730.55,168.0
730.61,184.0
730.67,183.0
730.74,206.0
730.8,188.0
730.86,179.0
730.93,162.0
730.99,156.0
731.05,169.0
731.11,178.0
731.18,186.0
731.24,185.0
731.3,205.0
731.37,190.0
731.43,183.0
731.49,179.0
731.56,185.0
731.62,219.0
731.68,200.0
731.74,197.0
731.81,183.0
731.87,198.0
731.93,187.0
732.0,180.0
732.06,184.0
732.12,192.0
732.19,193.0
732.25,194.0
732.31,190.0
732.37,165.0
732.44,196.0
732.5,207.0
732.56,207.0
732.63,198.0
732.69,172.0
732.75,210.0
732.82,212.0
732.88,199.0
732.94,204.0
733.0,203.0
733.07,205.0
733.13,203.0
733.19,214.0
733.26,231.0
733.32,201.0
733.38,197.0
733.45,196.0
733.51,217.0
733.57,201.0
733.63,199.0
733.7,207.0
733.76,207.0
733.82,203.0
733.89,202.0
733.95,202.0
734.01,203.0
734.08,219.0
734.14,234.0
734.2,200.0
734.26,191.0
734.33,197.0
734.39,198.0
734.45,198.0
734.52,202.0
734.58,191.0
734.64,178.0
734.71,197.0
734.77,189.0
734.83,170.0
734.89,193.0
734.96,194.0
735.02,182.0
735.08,206.0
735.15,181.0
735.21,171.0
735.27,187.0
735.34,200.0
735.4,200.0
735.46,195.0
735.52,228.0
735.59,174.0
735.65,201.0
735.71,203.0
735.78,180.0
735.84,190.0
735.9,202.0
735.97,198.0
736.03,191.0
736.09,194.0
736.15,209.0
736.22,198.0
736.28,172.0
736.34,169.0
736.41,149.0
736.47,156.0
736.53,148.0
736.6,158.0
736.66,193.0
736.72,175.0
736.78,165.0
736.85,150.0
736.91,150.0
736.97,136.0
737.04,139.0
737.1,123.0
737.16,123.0
737.23,131.0
737.29,117.0
737.35,106.0
737.41,113.0
737.48,113.0
737.54,111.0
737.6,102.0
737.67,111.0
737.73,96.0
737.79,84.0
737.86,88.0
737.92,86.0
737.98,91.0
738.04,73.0
738.11,84.0
738.17,80.0
738.23,87.0
738.3,110.0
738.36,106.0
738.42,80.0
738.49,73.0
738.55,85.0
738.61,90.0
738.67,87.0
738.74,87.0
738.8,82.0
738.86,72.0
738.93,56.0
738.99,63.0
739.05,69.0
739.12,81.0
739.18,87.0
739.24,98.0
739.3,99.0
739.37,110.0
739.43,101.0
739.49,78.0
739.56,86.0
739.62,69.0
739.68,86.0
739.75,102.0
739.81,118.0
739.87,121.0
739.93,112.0
740.0,139.0
740.06,126.0
740.12,144.0
740.19,126.0
740.25,154.0
740.31,142.0
740.38,136.0
740.44,129.0
740.5,121.0
740.56,141.0
740.63,124.0
740.69,135.0
740.75,127.0
740.82,131.0
740.88,132.0
740.94,119.0
741.01,128.0
741.07,128.0
741.13,143.0
741.19,131.0
741.26,145.0
741.32,131.0
741.38,142.0
741.45,137.0
741.51,154.0
741.57,151.0
741.64,142.0
741.7,129.0
741.76,124.0
741.82,124.0
741.89,112.0
741.95,131.0
742.01,127.0
742.08,142.0
742.14,131.0
742.2,123.0
742.27,131.0
742.33,153.0
742.39,167.0
742.45,150.0
742.52,149.0
742.58,159.0
742.64,161.0
742.71,172.0
742.77,151.0
742.83,176.0
742.9,183.0
742.96,190.0
743.02,180.0
743.08,164.0
743.15,183.0
743.21,169.0
743.27,166.0
743.34,154.0
743.4,170.0
743.46,177.0
743.53,171.0
743.59,151.0
743.65,160.0
743.71,172.0
743.78,161.0
743.84,168.0
743.9,152.0
743.97,174.0
744.03,176.0
744.09,173.0
744.16,165.0
744.22,175.0
744.28,187.0
744.34,179.0
744.41,176.0
744.47,205.0
744.53,209.0
744.6,184.0
744.66,165.0
744.72,172.0
744.79,162.0
744.85,167.0
744.91,163.0
744.97,166.0
745.04,192.0
745.1,176.0
745.16,165.0
745.23,156.0
745.29,171.0
745.35,155.0
745.42,143.0
745.48,157.0
745.54,132.0
745.6,141.0
745.67,145.0
745.73,159.0
745.79,170.0
745.86,159.0
745.92,174.0
745.98,171.0
746.05,162.0
746.11,146.0
746.17,150.0
746.23,132.0
746.3,140.0
746.36,126.0
746.42,114.0
746.49,114.0
746.55,104.0
746.61,96.0
746.68,118.0
746.74,117.0
746.8,132.0
746.86,119.0
746.93,113.0
746.99,93.0
747.05,81.0
747.12,110.0
747.18,95.0
747.24,109.0
747.31,129.0
747.37,106.0
747.43,119.0
747.49,117.0
747.56,103.0
747.62,100.0
747.68,109.0
747.75,120.0
747.81,110.0
747.87,93.0
747.94,106.0
748.0,92.0
748.06,79.0
748.12,81.0
748.19,76.0
748.25,67.0
748.31,76.0
748.38,69.0
748.44,57.0
748.5,75.0
748.57,51.0
748.63,72.0
748.69,77.0
748.75,54.0
748.82,68.0
748.88,58.0
748.94,59.0
749.01,80.0
749.07,77.0
749.13,81.0
749.2,69.0
749.26,70.0
749.32,73.0
749.38,91.0
749.45,101.0
749.51,80.0
749.57,91.0
749.64,97.0
749.7,94.0
749.76,112.0
749.83,107.0
749.89,106.0
749.95,106.0
750.01,85.0
750.08,88.0
750.14,76.0
750.2,107.0
750.27,110.0
750.33,105.0
750.39,75.0
750.46,99.0
750.52,106.0
750.58,126.0
750.64,135.0
750.71,118.0
750.77,118.0
750.83,107.0
750.9,117.0
750.96,111.0
751.02,120.0
751.09,101.0
751.15,101.0
751.21,110.0
751.27,116.0
751.34,92.0
751.4,101.0
751.46,87.0
751.53,84.0
751.59,79.0
751.65,74.0
751.72,69.0
751.78,59.0
751.84,25.0
751.9,41.0
751.97,55.0
752.03,48.0
752.09,32.0
752.16,40.0
752.22,32.0
752.28,25.0
752.35,35.0
752.41,34.0
752.47,44.0
752.53,21.0
752.6,3.0
752.66,4.0
752.72,24.0
752.79,36.0
752.85,35.0
752.91,27.0
752.98,1.0
753.04,36.0
753.1,32.0
753.16,13.0
753.23,8.0
753.29,38.0
753.35,54.0
753.42,11.0
753.48,16.0
753.54,29.0
753.61,23.0
753.67,47.0
753.73,40.0
753.79,37.0
753.86,35.0
753.92,30.0
753.98,25.0
754.05,-1.0
754.11,-3.0
754.17,16.0
754.24,29.0
754.3,15.0
754.36,25.0
754.42,6.0
754.49,4.0
754.55,12.0
754.61,20.0
754.68,35.0
754.74,25.0
754.8,11.0
754.87,14.0
754.93,13.0
754.99,12.0
755.05,34.0
755.12,39.0
755.18,-6.0
755.24,9.0
755.31,48.0
755.37,44.0
755.43,28.0
755.5,24.0
755.56,20.0
755.62,38.0
755.68,25.0
755.75,43.0
755.81,25.0
755.87,22.0
755.94,30.0
756.0,23.0
756.06,40.0
756.13,55.0
756.19,46.0
756.25,47.0
756.31,29.0
756.38,23.0
756.44,34.0
756.5,41.0
756.57,60.0
756.63,60.0
756.69,52.0
756.76,51.0
756.82,52.0
756.88,54.0
756.94,55.0
757.01,51.0
757.07,29.0
757.13,38.0
757.2,25.0
757.26,42.0
757.32,60.0
757.39,66.0
757.45,87.0
757.51,99.0
757.57,82.0
757.64,84.0
757.7,84.0
757.76,91.0
757.83,86.0
757.89,99.0
757.95,80.0
758.02,91.0
758.08,96.0
758.14,107.0
758.2,104.0
758.27,115.0
758.33,96.0
758.39,93.0
758.46,87.0
758.52,62.0
758.58,112.0
758.65,126.0
758.71,115.0
758.77,90.0
758.83,108.0
758.9,105.0
758.96,109.0
759.02,102.0
759.09,98.0
759.15,114.0
759.21,129.0
759.28,114.0
759.34,110.0
759.4,97.0
759.46,104.0
759.53,123.0
759.59,116.0
759.65,127.0
759.72,141.0
759.78,145.0
759.84,144.0
759.91,140.0
759.97,141.0
760.03,168.0
760.09,163.0
760.16,139.0
760.22,148.0
760.28,151.0
760.35,132.0
760.41,146.0
760.47,154.0
760.54,141.0
760.6,160.0
760.66,148.0
760.72,168.0
760.79,176.0
760.85,180.0
760.91,192.0
760.98,152.0
761.04,178.0
761.1,188.0
761.17,194.0
761.23,193.0
761.29,174.0
761.35,190.0
761.42,183.0
761.48,187.0
761.54,171.0
761.61,143.0
761.67,162.0
761.73,165.0
761.8,148.0
761.86,140.0
761.92,167.0
761.98,178.0
762.05,200.0
762.11,210.0
762.17,187.0
762.24,181.0
762.3,184.0
762.36,171.0
762.43,190.0
762.49,188.0
762.55,212.0
762.61,214.0
762.68,183.0
762.74,158.0
762.8,193.0
762.87,181.0
762.93,187.0
762.99,190.0
763.06,187.0
763.12,171.0
763.18,143.0
763.24,145.0
763.31,140.0
763.37,178.0
763.43,162.0
763.5,154.0
763.56,141.0
763.62,147.0
763.69,159.0
763.75,150.0
763.81,159.0
763.87,180.0
763.94,185.0
764.0,181.0
764.06,165.0
764.13,173.0
764.19,162.0
764.25,166.0
764.32,183.0
764.38,179.0
764.44,163.0
764.5,149.0
764.57,181.0
764.63,174.0
764.69,171.0
764.76,192.0
764.82,195.0
764.88,166.0
764.95,170.0
765.01,199.0
765.07,185.0
765.13,170.0
765.2,185.0
765.26,175.0
765.32,161.0
765.39,170.0
765.45,165.0
765.51,177.0
765.58,176.0
765.64,189.0
765.7,179.0
765.76,201.0
765.83,182.0
765.89,162.0
765.95,128.0
766.02,173.0
766.08,181.0
766.14,187.0
766.21,192.0
766.27,168.0
766.33,187.0
766.39,189.0
766.46,178.0
766.52,187.0
766.58,198.0
766.65,190.0
766.71,186.0
766.77,173.0
766.84,195.0
766.9,188.0
766.96,172.0
767.02,181.0
767.09,187.0
767.15,203.0
767.21,203.0
767.28,184.0
767.34,181.0
767.4,173.0
767.47,208.0
767.53,192.0
767.59,198.0
767.65,201.0
767.72,196.0
767.78,199.0
767.84,203.0
767.91,193.0
767.97,185.0
768.03,201.0
768.1,188.0
768.16,202.0
768.22,196.0
768.28,192.0
768.35,195.0
768.41,194.0
768.47,193.0
768.54,193.0
768.6,186.0
768.66,176.0
768.73,180.0
768.79,188.0
768.85,186.0
768.91,181.0
768.98,184.0
769.04,176.0
769.1,176.0
769.17,168.0
769.23,157.0
769.29,174.0
769.36,162.0
769.42,158.0
769.48,159.0
769.54,137.0
769.61,134.0
769.67,134.0
769.73,108.0
769.8,130.0
769.86,126.0
769.92,119.0
769.99,120.0
770.05,136.0
770.11,117.0
770.17,118.0
770.24,106.0
770.3,115.0
770.36,111.0
770.43,105.0
770.49,119.0
770.55,102.0
770.62,98.0
770.68,126.0
770.74,93.0
770.8,98.0
770.87,105.0
770.93,122.0
770.99,99.0
771.06,107.0
771.12,128.0
771.18,106.0
771.25,122.0
771.31,134.0
771.37,116.0
771.43,115.0
771.5,138.0
771.56,99.0
771.62,96.0
771.69,115.0
771.75,119.0
771.81,91.0
771.88,79.0
771.94,82.0
772.0,75.0
772.06,92.0
772.13,88.0
772.19,83.0
772.25,79.0
772.32,86.0
772.38,75.0
772.44,46.0
772.51,61.0
772.57,95.0
772.63,80.0
772.69,81.0
772.76,89.0
772.82,63.0
772.88,80.0
772.95,88.0
773.01,99.0
773.07,92.0
773.14,102.0
773.2,98.0
773.26,104.0
773.32,101.0
773.39,92.0
773.45,108.0
773.51,114.0
773.58,110.0
773.64,101.0
773.7,107.0
773.77,96.0
773.83,80.0
773.89,100.0
773.95,104.0
774.02,104.0
774.08,96.0
774.14,92.0
774.21,94.0
774.27,108.0
774.33,110.0
774.4,97.0
774.46,118.0
774.52,118.0
774.58,91.0
774.65,79.0
774.71,65.0
774.77,72.0
774.84,71.0
774.9,99.0
774.96,91.0
775.03,82.0
775.09,70.0
775.15,78.0
775.21,74.0
775.28,74.0
775.34,97.0
775.4,86.0
775.47,78.0
775.53,74.0
775.59,96.0
775.66,92.0
775.72,83.0
775.78,88.0
775.84,99.0
775.91,75.0
775.97,74.0
776.03,70.0
776.1,57.0
776.16,89.0
776.22,84.0
776.29,73.0
776.35,101.0
776.41,127.0
776.47,104.0
776.54,108.0
776.6,92.0
776.66,83.0
776.73,89.0
776.79,78.0
776.85,105.0
776.92,95.0
776.98,93.0
777.04,98.0
777.1,106.0
777.17,88.0
777.23,91.0
777.29,113.0
777.36,100.0
777.42,100.0
777.48,107.0
777.55,97.0
777.61,78.0
777.67,89.0
777.73,105.0
777.8,100.0
777.86,116.0
777.92,91.0
777.99,93.0
778.05,102.0
778.11,101.0
778.18,110.0
778.24,105.0
778.3,69.0
778.36,66.0
778.43,79.0
778.49,98.0
778.55,94.0
778.62,85.0
778.68,86.0
778.74,96.0
778.81,98.0
778.87,98.0
778.93,93.0
778.99,95.0
779.06,103.0
779.12,102.0
779.18,100.0
779.25,86.0
779.31,84.0
779.37,82.0
779.44,88.0
779.5,97.0
779.56,103.0
779.62,115.0
779.69,111.0
779.75,99.0
779.81,77.0
779.88,102.0
779.94,112.0
780.0,97.0
780.07,109.0
780.13,92.0
780.19,114.0
780.25,111.0
780.32,104.0
780.38,96.0
780.44,108.0
780.51,96.0
780.57,91.0
780.63,82.0
780.7,78.0
780.76,76.0
780.82,95.0
780.88,110.0
780.95,91.0
781.01,97.0
781.07,106.0
781.14,101.0
781.2,92.0
781.26,106.0
781.33,112.0
781.39,125.0
781.45,113.0
781.51,131.0
781.58,119.0
781.64,102.0
781.7,111.0
781.77,149.0
781.83,150.0
781.89,135.0
781.96,141.0
782.02,130.0
782.08,125.0
782.14,131.0
782.21,136.0
782.27,160.0
782.33,157.0
782.4,143.0
782.46,148.0
782.52,152.0
782.59,157.0
782.65,153.0
782.71,139.0
782.77,152.0
782.84,167.0
782.9,182.0
782.96,191.0
783.03,159.0
783.09,165.0
783.15,206.0
783.22,193.0
783.28,167.0
783.34,183.0
783.4,180.0
783.47,183.0
783.53,157.0
783.59,178.0
783.66,180.0
783.72,156.0
783.78,178.0
783.85,182.0
783.91,207.0
783.97,221.0
784.03,208.0
784.1,209.0
784.16,200.0
784.22,209.0
784.29,208.0
784.35,216.0
784.41,236.0
784.48,201.0
784.54,216.0
784.6,217.0
784.66,202.0
784.73,195.0
784.79,194.0
784.85,200.0
784.92,211.0
784.98,218.0
785.04,200.0
785.11,190.0
785.17,195.0
785.23,197.0
785.29,196.0
785.36,217.0
785.42,196.0
785.48,227.0
785.55,209.0
785.61,192.0
785.67,183.0
785.74,183.0
785.8,190.0
785.86,170.0
785.92,200.0
785.99,193.0
786.05,183.0
786.11,174.0
786.18,179.0
786.24,173.0
786.3,191.0
786.37,201.0
786.43,183.0
786.49,188.0
786.55,208.0
786.62,207.0
786.68,195.0
786.74,218.0
786.81,214.0
786.87,207.0
786.93,225.0
787.0,206.0
787.06,206.0
787.12,181.0
787.18,174.0
787.25,181.0
787.31,182.0
787.37,180.0
787.44,163.0
787.5,176.0
787.56,175.0
787.63,183.0
787.69,200.0
787.75,198.0
787.81,194.0
787.88,188.0
787.94,179.0
788.0,193.0
788.07,185.0
788.13,177.0
788.19,185.0
788.26,164.0
788.32,176.0
788.38,171.0
788.44,185.0
788.51,163.0
788.57,166.0
788.63,181.0
788.7,155.0
788.76,153.0
788.82,151.0
788.89,157.0
788.95,127.0
789.01,136.0
789.07,154.0
789.14,141.0
789.2,138.0
789.26,121.0
789.33,148.0
789.39,137.0
789.45,148.0
789.52,139.0
789.58,137.0
789.64,160.0
789.7,157.0
789.77,139.0
789.83,123.0
789.89,125.0
789.96,145.0
790.02,149.0
790.08,127.0
790.15,136.0
790.21,139.0
790.27,148.0
790.33,148.0
790.4,134.0
790.46,139.0
790.52,165.0
790.59,143.0
790.65,139.0
790.71,124.0
790.78,123.0
790.84,129.0
790.9,141.0
790.96,146.0
791.03,136.0
791.09,133.0
791.15,149.0
791.22,166.0
791.28,160.0
791.34,164.0
791.41,140.0
791.47,152.0
791.53,129.0
791.59,137.0
791.66,142.0
791.72,135.0
791.78,132.0
791.85,136.0
791.91,126.0
791.97,128.0
792.04,135.0
792.1,139.0
792.16,140.0
792.22,143.0
792.29,140.0
792.35,161.0
792.41,160.0
792.48,154.0
792.54,144.0
792.6,144.0
792.67,152.0
792.73,132.0
792.79,149.0
792.85,137.0
792.92,126.0
792.98,108.0
793.04,94.0
793.11,125.0
793.17,134.0
793.23,126.0
793.3,126.0
793.36,110.0
793.42,108.0
793.48,108.0
793.55,130.0
793.61,163.0
793.67,130.0
793.74,124.0
793.8,161.0
793.86,141.0
793.93,141.0
793.99,168.0
794.05,159.0
794.11,156.0
794.18,137.0
794.24,137.0
794.3,135.0
794.37,145.0
794.43,153.0
794.49,149.0
794.56,129.0
794.62,139.0
794.68,151.0
794.74,148.0
794.81,138.0
794.87,146.0
794.93,137.0
795.0,142.0
795.06,137.0
795.12,130.0
795.19,144.0
795.25,145.0
795.31,131.0
795.37,114.0
795.44,133.0
795.5,128.0
795.56,140.0
795.63,133.0
795.69,119.0
795.75,136.0
795.82,148.0
795.88,119.0
795.94,106.0
796.0,108.0
796.07,102.0
796.13,93.0
796.19,113.0
796.26,118.0
796.32,113.0
796.38,127.0
796.45,134.0
796.51,111.0
796.57,136.0
796.63,141.0
796.7,142.0
796.76,152.0
796.82,149.0
796.89,150.0
796.95,144.0
797.01,150.0
797.08,141.0
797.14,137.0
797.2,159.0
797.26,165.0
797.33,149.0
797.39,148.0
797.45,142.0
797.52,145.0
797.58,139.0
797.64,118.0
797.71,140.0
797.77,140.0
797.83,140.0
797.89,143.0
797.96,156.0
798.02,143.0
798.08,154.0
798.15,161.0
798.21,169.0
798.27,160.0
798.34,163.0
798.4,173.0
798.46,171.0
798.52,175.0
798.59,166.0
798.65,171.0
798.71,155.0
798.78,167.0
798.84,161.0
798.9,181.0
798.97,188.0
799.03,189.0
799.09,178.0
799.15,195.0
799.22,167.0
799.28,184.0
799.34,152.0
799.41,159.0
799.47,180.0
799.53,157.0
799.6,170.0
799.66,162.0
799.72,166.0
799.78,173.0
799.85,180.0
799.91,162.0
799.97,151.0
800.04,179.0
800.1,181.0
800.16,189.0
800.23,187.0
800.29,178.0
800.35,175.0
800.41,186.0
800.48,174.0
800.54,173.0
800.6,174.0
800.67,150.0
800.73,186.0
800.79,206.0
800.86,181.0
800.92,154.0
800.98,162.0
801.04,159.0
801.11,152.0
801.17,153.0
801.23,152.0
801.3,141.0
801.36,135.0
801.42,141.0
801.49,131.0
801.55,155.0
801.61,145.0
801.67,134.0
801.74,134.0
801.8,146.0
801.86,120.0
801.93,126.0
801.99,136.0
802.05,146.0
802.12,132.0
802.18,150.0
802.24,140.0
802.3,119.0
802.37,112.0
802.43,125.0
802.49,129.0
802.56,104.0
802.62,112.0
802.68,115.0
802.75,119.0
802.81,141.0
802.87,133.0
802.93,115.0
803.0,125.0
803.06,108.0
803.12,92.0
803.19,99.0
803.25,104.0
803.31,91.0
803.38,96.0
803.44,99.0
803.5,106.0
803.56,94.0
803.63,78.0
803.69,72.0
803.75,81.0
803.82,85.0
803.88,117.0
803.94,105.0
804.01,108.0
804.07,119.0
804.13,86.0
804.19,111.0
804.26,91.0
804.32,84.0
804.38,99.0
804.45,69.0
804.51,60.0
804.57,52.0
804.64,40.0
804.7,45.0
804.76,28.0
804.82,63.0
804.89,65.0
804.95,60.0
805.01,30.0
805.08,38.0
805.14,53.0
805.2,42.0
805.27,45.0
805.33,38.0
805.39,53.0
805.45,41.0
805.52,38.0
805.58,51.0
805.64,42.0
805.71,33.0
805.77,23.0
805.83,46.0
805.9,38.0
805.96,39.0
806.02,12.0
806.08,37.0
806.15,20.0
806.21,26.0
806.27,33.0
806.34,19.0
806.4,28.0
806.46,28.0
806.53,20.0
806.59,7.0
806.65,3.0
806.71,10.0
806.78,-2.0
806.84,1.0
806.9,-11.0
806.97,4.0
807.03,20.0
807.09,9.0
807.16,3.0
807.22,16.0
807.28,6.0
807.34,0.0
807.41,24.0
807.47,7.0
807.53,0.0
807.6,9.0
807.66,18.0
807.72,-2.0
807.79,12.0
807.85,22.0
807.91,19.0
807.97,14.0
808.04,3.0
808.1,14.0
808.16,38.0
808.23,44.0
808.29,29.0
808.35,20.0
808.42,38.0
808.48,45.0
808.54,55.0
808.6,56.0
808.67,39.0
808.73,66.0
808.79,58.0
808.86,49.0
808.92,41.0
808.98,50.0
809.05,48.0
809.11,43.0
809.17,47.0
809.23,81.0
809.3,66.0
809.36,39.0
809.42,49.0
809.49,42.0
809.55,69.0
809.61,77.0
809.68,73.0
809.74,76.0
809.8,57.0
809.86,71.0
809.93,77.0
809.99,81.0
810.05,114.0
810.12,94.0
810.18,89.0
810.24,102.0
810.31,91.0
810.37,92.0
810.43,105.0
810.49,109.0
810.56,95.0
810.62,92.0
810.68,114.0
810.75,117.0
810.81,130.0
810.87,124.0
810.94,97.0
811.0,116.0
811.06,110.0
811.12,117.0
811.19,116.0
811.25,119.0
811.31,127.0
811.38,118.0
811.44,130.0
811.5,145.0
811.57,129.0
811.63,130.0
811.69,135.0
811.75,143.0
811.82,148.0
811.88,146.0
811.94,147.0
812.01,166.0
812.07,185.0
812.13,170.0
812.2,168.0
812.26,189.0
812.32,173.0
812.38,139.0
812.45,155.0
812.51,151.0
812.57,158.0
812.64,172.0
812.7,169.0
812.76,159.0
812.83,169.0
812.89,142.0
812.95,134.0
813.01,139.0
813.08,158.0
813.14,167.0
813.2,175.0
813.27,177.0
813.33,174.0
813.39,183.0
813.46,158.0
813.52,158.0
813.58,180.0
813.64,193.0
813.71,182.0
813.77,167.0
813.83,184.0
813.9,168.0
813.96,150.0
814.02,159.0
814.09,185.0
814.15,198.0
814.21,179.0
814.27,162.0
814.34,157.0
814.4,176.0
814.46,172.0
814.53,173.0
814.59,157.0
814.65,179.0
814.72,171.0
814.78,177.0
814.84,164.0
814.9,166.0
814.97,177.0
815.03,175.0
815.09,176.0
815.16,170.0
815.22,190.0
815.28,194.0
815.35,179.0
815.41,180.0
815.47,200.0
815.53,193.0
815.6,183.0
815.66,168.0
815.72,171.0
815.79,161.0
815.85,163.0
815.91,187.0
815.98,174.0
816.04,181.0
816.1,186.0
816.16,182.0
816.23,201.0
816.29,202.0
816.35,205.0
816.42,187.0
816.48,190.0
816.54,175.0
816.61,198.0
816.67,182.0
816.73,187.0
816.79,195.0
816.86,185.0
816.92,194.0
816.98,172.0
817.05,177.0
817.11,156.0
817.17,201.0
817.24,202.0
817.3,208.0
817.36,208.0
817.42,182.0
817.49,211.0
817.55,225.0
817.61,223.0
817.68,217.0
817.74,219.0
817.8,201.0
817.87,200.0
817.93,187.0
817.99,175.0
818.05,179.0
818.12,199.0
818.18,185.0
818.24,191.0
818.31,199.0
818.37,183.0
818.43,171.0
818.5,153.0
818.56,155.0
818.62,161.0
818.68,157.0
818.75,166.0
818.81,182.0
818.87,174.0
818.94,176.0
819.0,174.0
819.06,173.0
819.13,159.0
819.19,158.0
819.25,153.0
819.31,135.0
819.38,133.0
819.44,148.0
819.5,158.0
819.57,123.0
819.63,108.0
819.69,111.0
819.76,116.0
819.82,102.0
819.88,108.0
819.94,108.0
820.01,129.0
820.07,110.0
820.13,95.0
820.2,81.0
820.26,73.0
820.32,80.0
820.39,76.0
820.45,95.0
820.51,97.0
820.57,66.0
820.64,84.0
820.7,95.0
820.76,77.0
820.83,80.0
820.89,101.0
820.95,80.0
821.02,66.0
821.08,84.0
821.14,93.0
821.2,76.0
821.27,88.0
821.33,109.0
821.39,71.0
821.46,83.0
821.52,76.0
821.58,74.0
821.65,72.0
821.71,69.0
821.77,62.0
821.83,53.0
821.9,70.0
821.96,69.0
822.02,40.0
822.09,41.0
822.15,48.0
822.21,42.0
822.28,25.0
822.34,21.0
822.4,25.0
822.46,24.0
822.53,27.0
822.59,30.0
822.65,39.0
822.72,27.0
822.78,8.0
822.84,22.0
822.91,7.0
822.97,27.0
823.03,18.0
823.09,42.0
823.16,33.0
823.22,34.0
823.28,34.0
823.35,36.0
823.41,50.0
823.47,58.0
823.54,56.0
823.6,51.0
823.66,34.0
823.72,40.0
823.79,34.0
823.85,44.0
823.91,40.0
823.98,34.0
824.04,21.0
824.1,17.0
824.17,58.0
824.23,26.0
824.29,5.0
824.35,29.0
824.42,19.0
824.48,24.0
824.54,18.0
824.61,13.0
824.67,23.0
824.73,27.0
824.8,23.0
824.86,52.0
824.92,3.0
824.98,36.0
825.05,22.0
825.11,33.0
825.17,28.0
825.24,45.0
825.3,35.0
825.36,31.0
825.43,33.0
825.49,32.0
825.55,38.0
825.61,36.0
825.68,36.0
825.74,62.0
825.8,51.0
825.87,65.0
825.93,53.0
825.99,52.0
826.06,32.0
826.12,29.0
826.18,40.0
826.24,29.0
826.31,41.0
826.37,49.0
826.43,43.0
826.5,68.0
826.56,64.0
826.62,58.0
826.69,44.0
826.75,80.0
826.81,61.0
826.87,51.0
826.94,63.0
827.0,71.0
827.06,67.0
827.13,55.0
827.19,68.0
827.25,64.0
827.32,91.0
827.38,81.0
827.44,83.0
827.5,95.0
827.57,95.0
827.63,65.0
827.69,76.0
827.76,113.0
827.82,96.0
827.88,103.0
827.95,99.0
828.01,99.0
828.07,94.0
828.13,95.0
828.2,117.0
828.26,106.0
828.32,102.0
828.39,104.0
828.45,88.0
828.51,102.0
828.58,92.0
828.64,94.0
828.7,120.0
828.76,99.0
828.83,99.0
828.89,131.0
828.95,108.0
829.02,119.0
829.08,120.0
829.14,102.0
829.21,128.0
829.27,90.0
829.33,106.0
829.39,113.0
829.46,94.0
829.52,108.0
829.58,103.0
829.65,107.0
829.71,120.0
829.77,108.0
829.84,114.0
829.9,99.0
829.96,94.0
830.02,105.0
830.09,112.0
830.15,133.0
830.21,115.0
830.28,126.0
830.34,131.0
830.4,113.0
830.47,102.0
830.53,112.0
830.59,87.0
830.65,118.0
830.72,112.0
830.78,113.0
830.84,111.0
830.91,96.0
830.97,109.0
831.03,101.0
831.1,98.0
831.16,108.0
831.22,103.0
831.28,106.0
831.35,116.0
831.41,120.0
831.47,132.0
831.54,120.0
831.6,126.0
831.66,114.0
831.73,125.0
831.79,128.0
831.85,106.0
831.91,118.0
831.98,123.0
832.04,129.0
832.1,122.0
832.17,119.0
832.23,106.0
832.29,119.0
832.36,134.0
832.42,132.0
832.48,135.0
832.54,127.0
832.61,125.0
832.67,136.0
832.73,133.0
832.8,126.0
832.86,141.0
832.92,162.0
832.99,148.0
833.05,128.0
833.11,133.0
833.17,136.0
833.24,142.0
833.3,165.0
833.36,164.0
833.43,159.0
833.49,158.0
833.55,170.0
833.62,178.0
833.68,185.0
833.74,163.0
833.8,163.0
833.87,165.0
833.93,166.0
833.99,162.0
834.06,153.0
834.12,169.0
834.18,173.0
834.25,153.0
834.31,153.0
834.37,172.0
834.43,158.0
834.5,160.0
834.56,161.0
834.62,168.0
834.69,175.0
834.75,178.0
834.81,177.0
834.88,169.0
834.94,182.0
835.0,188.0
835.06,181.0
835.13,177.0
835.19,164.0
835.25,172.0
835.32,185.0
835.38,166.0
835.44,172.0
835.51,168.0
835.57,179.0
835.63,187.0
835.69,170.0
835.76,176.0
835.82,166.0
835.88,163.0
835.95,179.0
836.01,161.0
836.07,160.0
836.14,147.0
836.2,115.0
836.26,122.0
836.32,131.0
836.39,128.0
836.45,112.0
836.51,102.0
836.58,105.0
836.64,105.0
836.7,91.0
836.77,93.0
836.83,97.0
836.89,105.0
836.95,109.0
837.02,91.0
837.08,108.0
837.14,94.0
837.21,94.0
837.27,94.0
837.33,93.0
837.4,88.0
837.46,72.0
837.52,70.0
837.58,67.0
837.65,76.0
837.71,93.0
837.77,87.0
837.84,85.0
837.9,113.0
837.96,87.0
838.03,95.0
838.09,99.0
838.15,100.0
838.21,88.0
838.28,73.0
838.34,76.0
838.4,62.0
838.47,58.0
838.53,59.0
838.59,69.0
838.66,62.0
838.72,73.0
838.78,84.0
838.84,69.0
838.91,66.0
838.97,73.0
839.03,78.0
839.1,66.0
839.16,78.0
839.22,81.0
839.29,62.0
839.35,69.0
839.41,77.0
839.47,72.0
839.54,95.0
839.6,102.0
839.66,66.0
839.73,66.0
839.79,94.0
839.85,84.0
839.92,81.0
839.98,77.0
840.04,108.0
840.1,116.0
840.17,123.0
840.23,113.0
840.29,114.0
840.36,132.0
840.42,131.0
840.48,124.0
840.55,137.0
840.61,153.0
840.67,130.0
840.73,128.0
840.8,130.0
840.86,149.0
840.92,139.0
840.99,123.0
841.05,133.0
841.11,118.0
841.18,135.0
841.24,126.0
841.3,119.0
841.36,159.0
841.43,136.0
841.49,130.0
841.55,122.0
841.62,121.0
841.68,123.0
841.74,117.0
841.81,107.0
841.87,90.0
841.93,128.0
841.99,124.0
842.06,127.0
842.12,112.0
842.18,126.0
842.25,127.0
842.31,124.0
842.37,134.0
842.44,111.0
842.5,103.0
842.56,124.0
842.62,130.0
842.69,119.0
842.75,123.0
842.81,126.0
842.88,124.0
842.94,133.0
843.0,148.0
843.07,128.0
843.13,124.0
843.19,145.0
843.25,129.0
843.32,124.0
843.38,131.0
843.44,115.0
843.51,113.0
843.57,141.0
843.63,144.0
843.7,133.0
843.76,124.0
843.82,133.0
843.88,150.0
843.95,134.0
844.01,135.0
844.07,142.0
844.14,152.0
844.2,175.0
844.26,163.0
844.33,150.0
844.39,161.0
844.45,149.0
844.51,163.0
844.58,161.0
844.64,188.0
844.7,178.0
844.77,174.0
844.83,177.0
844.89,193.0
844.96,186.0
845.02,186.0
845.08,166.0
845.14,171.0
845.21,190.0
845.27,176.0
845.33,158.0
845.4,146.0
845.46,135.0
845.52,151.0
845.59,179.0
845.65,165.0
845.71,171.0
845.77,180.0
845.84,172.0
845.9,180.0
845.96,196.0
846.03,188.0
846.09,188.0
846.15,203.0
846.22,190.0
846.28,172.0
846.34,183.0
846.4,196.0
846.47,194.0
846.53,190.0
846.59,204.0
846.66,188.0
846.72,198.0
846.78,185.0
846.85,177.0
846.91,196.0
846.97,189.0
847.03,187.0
847.1,174.0
847.16,174.0
847.22,179.0
847.29,171.0
847.35,166.0
847.41,185.0
847.48,177.0
847.54,169.0
847.6,181.0
847.66,176.0
847.73,166.0
847.79,153.0
847.85,167.0
847.92,169.0
847.98,179.0
848.04,186.0
848.11,186.0
848.17,180.0
848.23,195.0
848.29,184.0
848.36,187.0
848.42,189.0
848.48,186.0
848.55,185.0
848.61,183.0
848.67,187.0
848.74,180.0
848.8,190.0
848.86,204.0
848.92,187.0
848.99,196.0
849.05,187.0
849.11,190.0
849.18,207.0
849.24,201.0
849.3,214.0
849.37,218.0
849.43,213.0
849.49,190.0
849.55,213.0
849.62,207.0
849.68,214.0
849.74,232.0
849.81,235.0
849.87,222.0
849.93,215.0
850.0,202.0
850.06,217.0
850.12,204.0
850.18,208.0
850.25,219.0
850.31,205.0
850.37,238.0
850.44,221.0
850.5,216.0
850.56,207.0
850.63,184.0
850.69,201.0
850.75,183.0
850.81,183.0
850.88,182.0
850.94,196.0
851.0,191.0
851.07,182.0
851.13,181.0
851.19,180.0
851.26,174.0
851.32,202.0
851.38,183.0
851.44,193.0
851.51,186.0
851.57,177.0
851.63,169.0
851.7,165.0
851.76,173.0
851.82,175.0
851.89,161.0
851.95,167.0
852.01,154.0
852.07,139.0
852.14,152.0
852.2,164.0
852.26,150.0
852.33,145.0
852.39,136.0
852.45,140.0
852.52,135.0
852.58,116.0
852.64,121.0
852.7,117.0
852.77,144.0
852.83,119.0
852.89,108.0
852.96,110.0
853.02,119.0
853.08,121.0
853.15,105.0
853.21,106.0
853.27,94.0
853.33,99.0
853.4,95.0
853.46,88.0
853.52,80.0
853.59,82.0
853.65,77.0
853.71,46.0
853.78,50.0
853.84,78.0
853.9,64.0
853.96,68.0
854.03,84.0
854.09,78.0
854.15,60.0
854.22,53.0
854.28,79.0
854.34,65.0
854.41,60.0
854.47,81.0
854.53,66.0
854.59,69.0
854.66,57.0
854.72,54.0
854.78,69.0
854.85,53.0
854.91,50.0
854.97,35.0
855.04,32.0
855.1,29.0
855.16,38.0
855.22,47.0
855.29,56.0
855.35,49.0
855.41,30.0
855.48,38.0
855.54,8.0
855.6,15.0
855.67,7.0
855.73,40.0
855.79,31.0
855.85,12.0
855.92,24.0
855.98,3.0
856.04,10.0
856.11,3.0
856.17,7.0
856.23,17.0
856.3,18.0
856.36,22.0
856.42,14.0
856.48,7.0
856.55,18.0
856.61,11.0
856.67,14.0
856.74,28.0
856.8,36.0
856.86,18.0
856.93,26.0
856.99,23.0
857.05,40.0
857.11,39.0
857.18,18.0
857.24,17.0
857.3,44.0
857.37,27.0
857.43,28.0
857.49,23.0
857.56,26.0
857.62,20.0
857.68,-2.0
857.74,-1.0
857.81,5.0
857.87,10.0
857.93,7.0
858.0,-5.0
858.06,-5.0
858.12,0.0
858.19,-3.0
858.25,-17.0
858.31,-17.0
858.37,-10.0
858.44,5.0
858.5,-2.0
858.56,-32.0
858.63,-11.0
858.69,6.0
858.75,-8.0
858.82,-15.0
858.88,-13.0
858.94,4.0
859.0,13.0
859.07,31.0
859.13,27.0
859.19,26.0
859.26,25.0
859.32,18.0
859.38,23.0
859.45,16.0
859.51,26.0
859.57,13.0
859.63,31.0
859.7,29.0
859.76,19.0
859.82,27.0
859.89,34.0
859.95,16.0
860.01,24.0
860.08,54.0
860.14,40.0
860.2,42.0
860.26,39.0
860.33,18.0
860.39,47.0
860.45,44.0
860.52,57.0
860.58,47.0
860.64,35.0
860.71,70.0
860.77,54.0
860.83,67.0
860.89,62.0
860.96,45.0
861.02,54.0
861.08,40.0
861.15,54.0
861.21,40.0
861.27,26.0
861.34,34.0
861.4,14.0
861.46,15.0
861.52,56.0
861.59,23.0
861.65,35.0
861.71,36.0
861.78,43.0
861.84,55.0
861.9,41.0
861.97,45.0
862.03,62.0
862.09,56.0
862.15,55.0
862.22,67.0
862.28,75.0
862.34,73.0
862.41,72.0
862.47,76.0
862.53,69.0
862.6,71.0
862.66,76.0
862.72,75.0
862.78,72.0
862.85,80.0
862.91,89.0
862.97,105.0
863.04,93.0
863.1,108.0
863.16,82.0
863.23,68.0
863.29,66.0
863.35,65.0
863.41,58.0
863.48,68.0
863.54,76.0
863.6,48.0
863.67,55.0
863.73,61.0
863.79,54.0
863.86,55.0
863.92,53.0
863.98,72.0
864.04,84.0
864.11,76.0
864.17,87.0
864.23,88.0
864.3,92.0
864.36,93.0
864.42,85.0
864.49,98.0
864.55,93.0
864.61,107.0
864.67,104.0
864.74,108.0
864.8,113.0
864.86,93.0
864.93,111.0
864.99,121.0
865.05,108.0
865.12,123.0
865.18,117.0
865.24,117.0
865.3,129.0
865.37,122.0
865.43,128.0
865.49,111.0
865.56,123.0
865.62,127.0
865.68,129.0
865.75,134.0
865.81,142.0
865.87,157.0
865.93,153.0
866.0,141.0
866.06,125.0
866.12,143.0
866.19,142.0
866.25,133.0
866.31,143.0
866.38,185.0
866.44,163.0
866.5,165.0
866.56,159.0
866.63,167.0
866.69,166.0
866.75,164.0
866.82,178.0
866.88,166.0
866.94,166.0
867.01,190.0
867.07,195.0
867.13,190.0
867.19,199.0
867.26,186.0
867.32,188.0
867.38,192.0
867.45,189.0
867.51,191.0
867.57,200.0
867.64,200.0
867.7,196.0
867.76,194.0
867.82,203.0
867.89,181.0
867.95,208.0
868.01,225.0
868.08,203.0
868.14,189.0
868.2,199.0
868.27,185.0
868.33,184.0
868.39,224.0
868.45,192.0
868.52,197.0
868.58,186.0
868.64,187.0
868.71,188.0
868.77,192.0
868.83,182.0
868.9,199.0
868.96,208.0
869.02,194.0
869.08,199.0
869.15,181.0
869.21,179.0
869.27,170.0
869.34,181.0
869.4,164.0
869.46,174.0
869.53,173.0
869.59,175.0
869.65,178.0
869.71,165.0
869.78,162.0
869.84,149.0
869.9,151.0
869.97,153.0
870.03,151.0
870.09,161.0
870.16,140.0
870.22,141.0
870.28,145.0
870.34,146.0
870.41,145.0
870.47,140.0
870.53,137.0
870.6,133.0
870.66,133.0
870.72,136.0
870.79,146.0
870.85,145.0
870.91,137.0
870.97,153.0
871.04,156.0
871.1,140.0
871.16,152.0
871.23,167.0
871.29,161.0
871.35,145.0
871.42,133.0
871.48,155.0
871.54,132.0
871.6,131.0
871.67,139.0
871.73,131.0
871.79,143.0
871.86,132.0
871.92,136.0
871.98,127.0
872.05,137.0
872.11,145.0
872.17,156.0
872.23,130.0
872.3,140.0
872.36,128.0
872.42,111.0
872.49,112.0
872.55,97.0
872.61,109.0
872.68,102.0
872.74,85.0
872.8,85.0
872.86,70.0
872.93,65.0
872.99,95.0
873.05,100.0
873.12,92.0
873.18,95.0
873.24,84.0
873.31,100.0
873.37,93.0
873.43,89.0
873.49,82.0
873.56,76.0
873.62,62.0
873.68,61.0
873.75,49.0
873.81,68.0
873.87,81.0
873.94,70.0
874.0,76.0
874.06,82.0
874.12,89.0
874.19,82.0
874.25,99.0
874.31,89.0
874.38,79.0
874.44,90.0
874.5,93.0
874.57,104.0
874.63,109.0
874.69,97.0
874.75,67.0
874.82,80.0
874.88,76.0
874.94,91.0
875.01,104.0
875.07,84.0
875.13,84.0
875.2,70.0
875.26,70.0
875.32,53.0
875.38,53.0
875.45,81.0
875.51,89.0
875.57,82.0
875.64,101.0
875.7,92.0
875.76,100.0
875.83,94.0
875.89,76.0
875.95,75.0
876.01,91.0
876.08,111.0
876.14,101.0
876.2,81.0
876.27,107.0
876.33,96.0
876.39,77.0
876.46,82.0
876.52,92.0
876.58,85.0
876.64,84.0
876.71,70.0
876.77,70.0
876.83,74.0
876.9,79.0
876.96,77.0
877.02,89.0
877.09,73.0
877.15,75.0
877.21,72.0
877.27,83.0
877.34,71.0
877.4,84.0
877.46,87.0
877.53,86.0
877.59,100.0
877.65,88.0
877.72,64.0
877.78,92.0
877.84,102.0
877.9,89.0
877.97,92.0
878.03,93.0
878.09,75.0
878.16,81.0
878.22,78.0
878.28,87.0
878.35,78.0
878.41,69.0
878.47,72.0
878.53,71.0
878.6,61.0
878.66,76.0
878.72,73.0
878.79,67.0
878.85,80.0
878.91,69.0
878.98,66.0
879.04,82.0
879.1,76.0
879.16,94.0
879.23,106.0
879.29,93.0
879.35,76.0
879.42,103.0
879.48,82.0
879.54,84.0
879.61,104.0
879.67,75.0
879.73,70.0
879.79,84.0
879.86,95.0
879.92,95.0
879.98,83.0
880.05,100.0
880.11,92.0
880.17,76.0
880.24,65.0
880.3,60.0
880.36,73.0
880.42,90.0
880.49,78.0
880.55,72.0
880.61,88.0
880.68,78.0
880.74,81.0
880.8,86.0
880.87,92.0
880.93,100.0
880.99,69.0
881.05,80.0
881.12,67.0
881.18,82.0
881.24,84.0
881.31,95.0
881.37,70.0
881.43,72.0
881.5,68.0
881.56,71.0
881.62,71.0
881.68,77.0
881.75,73.0
881.81,87.0
881.87,96.0
881.94,84.0
882.0,90.0
882.06,100.0
882.13,115.0
882.19,115.0
882.25,109.0
882.31,95.0
882.38,97.0
882.44,91.0
882.5,126.0
882.57,112.0
882.63,111.0
882.69,138.0
882.76,128.0
882.82,118.0
882.88,126.0
882.94,137.0
883.01,133.0
883.07,147.0
883.13,151.0
883.2,142.0
883.26,144.0
883.32,167.0
883.39,162.0
883.45,161.0
883.51,167.0
883.57,164.0
883.64,157.0
883.7,175.0
883.76,170.0
883.83,174.0
883.89,179.0
883.95,185.0
884.02,210.0
884.08,199.0
884.14,197.0
884.2,175.0
884.27,177.0
884.33,188.0
884.39,175.0
884.46,195.0
884.52,188.0
884.58,183.0
884.65,199.0
884.71,187.0
884.77,200.0
884.83,204.0
884.9,192.0
884.96,189.0
885.02,199.0
885.09,210.0
885.15,199.0
885.21,183.0
885.28,210.0
885.34,206.0
885.4,205.0
885.46,183.0
885.53,166.0
885.59,176.0
885.65,165.0
885.72,167.0
885.78,153.0
885.84,161.0
885.91,181.0
885.97,174.0
886.03,162.0
886.09,175.0
886.16,166.0
886.22,180.0
886.28,180.0
886.35,164.0
886.41,159.0
886.47,165.0
886.54,191.0
886.6,194.0
886.66,188.0
886.72,181.0
886.79,184.0
886.85,186.0
886.91,193.0
886.98,210.0
887.04,227.0
887.1,214.0
887.17,210.0
887.23,207.0
887.29,200.0
887.35,195.0
887.42,192.0
887.48,199.0
887.54,181.0
887.61,192.0
887.67,216.0
887.73,209.0
887.8,187.0
887.86,176.0
887.92,167.0
887.98,176.0
888.05,190.0
888.11,181.0
888.17,189.0
888.24,167.0
888.3,179.0
888.36,185.0
888.43,190.0
888.49,175.0
888.55,165.0
888.61,177.0
888.68,157.0
888.74,148.0
888.8,152.0
888.87,152.0
888.93,130.0
888.99,126.0
889.06,126.0
889.12,119.0
889.18,136.0
889.24,123.0
889.31,102.0
889.37,81.0
889.43,100.0
889.5,95.0
889.56,78.0
889.62,66.0
889.69,84.0
889.75,84.0
889.81,93.0
889.87,70.0
889.94,75.0
890.0,75.0
890.06,76.0
890.13,74.0
890.19,88.0
890.25,83.0
890.32,82.0
890.38,90.0
890.44,93.0
890.5,90.0
890.57,87.0
890.63,83.0
890.69,99.0
890.76,97.0
890.82,98.0
890.88,96.0
890.95,55.0
891.01,77.0
891.07,62.0
891.13,78.0
891.2,82.0
891.26,101.0
891.32,107.0
891.39,100.0
891.45,92.0
891.51,72.0
891.58,81.0
891.64,82.0
891.7,79.0
891.76,79.0
891.83,80.0
891.89,81.0
891.95,74.0
892.02,88.0
892.08,78.0
892.14,78.0
892.21,94.0
892.27,71.0
892.33,75.0
892.39,69.0
892.46,79.0
892.52,106.0
892.58,92.0
892.65,91.0
892.71,106.0
892.77,92.0
892.84,83.0
892.9,66.0
892.96,73.0
893.02,80.0
893.09,86.0
893.15,92.0
893.21,93.0
893.28,93.0
893.34,98.0
893.4,72.0
893.47,94.0
893.53,106.0
893.59,113.0
893.65,124.0
893.72,98.0
893.78,98.0
893.84,108.0
893.91,109.0
893.97,91.0
894.03,95.0
894.1,110.0
894.16,112.0
894.22,110.0
894.28,107.0
894.35,96.0
894.41,122.0
894.47,101.0
894.54,104.0
894.6,112.0
894.66,100.0
894.73,118.0
894.79,97.0
894.85,95.0
894.91,111.0
894.98,122.0
895.04,120.0
895.1,122.0
895.17,134.0
895.23,138.0
895.29,146.0
895.36,140.0
895.42,118.0
895.48,130.0
895.54,142.0
895.61,126.0
895.67,115.0
895.73,117.0
895.8,135.0
895.86,117.0
895.92,129.0
895.99,137.0
896.05,132.0
896.11,137.0
896.17,134.0
896.24,135.0
896.3,136.0
896.36,129.0
896.43,147.0
896.49,143.0
896.55,145.0
896.62,148.0
896.68,151.0
896.74,155.0
896.8,146.0
896.87,153.0
896.93,155.0
896.99,149.0
897.06,155.0
897.12,172.0
897.18,176.0
897.25,189.0
897.31,197.0
897.37,199.0
897.43,178.0
897.5,163.0
897.56,180.0
897.62,170.0
897.69,167.0
897.75,162.0
897.81,156.0
897.88,192.0
897.94,172.0
898.0,176.0
898.06,183.0
898.13,188.0
898.19,181.0
898.25,183.0
898.32,172.0
898.38,173.0
898.44,158.0
898.51,172.0
898.57,188.0
898.63,192.0
898.69,203.0
898.76,200.0
898.82,199.0
898.88,190.0
898.95,184.0
899.01,179.0
899.07,181.0
899.14,199.0
899.2,207.0
899.26,229.0
899.32,216.0
899.39,214.0
899.45,214.0
899.51,205.0
899.58,211.0
899.64,194.0
899.7,234.0
899.77,222.0
899.83,215.0
899.89,212.0
899.95,226.0
900.02,205.0
900.08,222.0
900.14,232.0
900.21,242.0
900.27,243.0
900.33,229.0
900.4,216.0
900.46,231.0
900.52,245.0
900.58,231.0
900.65,262.0
900.71,248.0
900.77,243.0
900.84,233.0
900.9,230.0
900.96,231.0
901.03,221.0
901.09,244.0
901.15,259.0
901.21,253.0
901.28,235.0
901.34,240.0
901.4,251.0
901.47,265.0
901.53,260.0
901.59,260.0
901.66,247.0
901.72,269.0
901.78,250.0
901.84,252.0
901.91,277.0
901.97,275.0
902.03,272.0
902.1,275.0
902.16,283.0
902.22,288.0
902.29,265.0
902.35,277.0
902.41,270.0
902.47,262.0
902.54,247.0
902.6,251.0
902.66,253.0
902.73,262.0
902.79,233.0
902.85,232.0
902.92,271.0
902.98,262.0
903.04,248.0
903.1,235.0
903.17,243.0
903.23,238.0
903.29,236.0
903.36,244.0
903.42,214.0
903.48,211.0
903.55,203.0
903.61,215.0
903.67,210.0
903.73,203.0
903.8,213.0
903.86,225.0
903.92,210.0
903.99,205.0
904.05,203.0
904.11,198.0
904.18,193.0
904.24,207.0
904.3,203.0
904.36,188.0
904.43,191.0
904.49,181.0
904.55,192.0
904.62,200.0
904.68,172.0
904.74,163.0
904.81,163.0
904.87,159.0
904.93,142.0
904.99,146.0
905.06,138.0
905.12,147.0
905.18,160.0
905.25,159.0
905.31,159.0
905.37,146.0
905.44,152.0
905.5,157.0
905.56,115.0
905.62,115.0
905.69,125.0
905.75,130.0
905.81,121.0
905.88,114.0
905.94,126.0
906.0,109.0
906.07,95.0
906.13,86.0
906.19,85.0
906.25,101.0
906.32,87.0
906.38,86.0
906.44,75.0
906.51,103.0
906.57,107.0
906.63,92.0
906.7,90.0
906.76,86.0
906.82,74.0
906.88,70.0
906.95,92.0
907.01,65.0
907.07,67.0
907.14,75.0
907.2,49.0
907.26,45.0
907.33,59.0
907.39,38.0
907.45,59.0
907.51,30.0
907.58,20.0
907.64,43.0
907.7,22.0
907.77,26.0
907.83,30.0
907.89,10.0
907.96,33.0
908.02,24.0
908.08,33.0
908.14,40.0
908.21,26.0
908.27,38.0
908.33,26.0
908.4,41.0
908.46,36.0
908.52,32.0
908.59,27.0
908.65,18.0
908.71,25.0
908.77,20.0
908.84,5.0
908.9,12.0
908.96,20.0
909.03,29.0
909.09,23.0
909.15,7.0
909.22,21.0
909.28,16.0
909.34,5.0
909.4,9.0
909.47,5.0
909.53,-3.0
909.59,19.0
909.66,10.0
909.72,14.0
909.78,10.0
909.85,15.0
909.91,-5.0
909.97,-2.0
910.03,1.0
910.1,10.0
910.16,6.0
910.22,-14.0
910.29,-17.0
910.35,-7.0
910.41,15.0
910.48,-3.0
910.54,26.0
910.6,30.0
910.66,28.0
910.73,18.0
910.79,28.0
910.85,28.0
910.92,12.0
910.98,14.0
911.04,17.0
911.11,13.0
911.17,26.0
911.23,49.0
911.29,34.0
911.36,30.0
911.42,37.0
911.48,39.0
911.55,41.0
911.61,55.0
911.67,55.0
911.74,43.0
911.8,51.0
911.86,44.0
911.92,40.0
911.99,32.0
912.05,33.0
912.11,42.0
912.18,51.0
912.24,57.0
912.3,77.0
912.37,60.0
912.43,69.0
912.49,43.0
912.55,58.0
912.62,59.0
912.68,75.0
912.74,89.0
912.81,74.0
912.87,86.0
912.93,73.0
913.0,88.0
913.06,91.0
913.12,89.0
913.18,90.0
913.25,104.0
913.31,107.0
913.37,99.0
913.44,99.0
913.5,121.0
913.56,107.0
913.63,110.0
913.69,114.0
913.75,126.0
913.81,120.0
913.88,109.0
913.94,112.0
914.0,127.0
914.07,130.0
914.13,123.0
914.19,118.0
914.26,118.0
914.32,97.0
914.38,113.0
914.44,90.0
914.51,73.0
914.57,67.0
914.63,65.0
914.7,81.0
914.76,95.0
914.82,70.0
914.89,65.0
914.95,58.0
915.01,66.0
915.07,81.0
915.14,85.0
915.2,91.0
915.26,77.0
915.33,97.0
915.39,91.0
915.45,92.0
915.52,89.0
915.58,116.0
915.64,102.0
915.7,89.0
915.77,94.0
915.83,92.0
915.89,92.0
915.96,83.0
916.02,86.0
916.08,77.0
916.15,86.0
916.21,83.0
916.27,97.0
916.33,113.0
916.4,118.0
916.46,112.0
916.52,122.0
916.59,128.0
916.65,131.0
916.71,140.0
916.78,150.0
916.84,160.0
916.9,158.0
916.96,175.0
917.03,151.0
917.09,155.0
917.15,180.0
917.22,173.0
917.28,183.0
917.34,176.0
917.41,177.0
917.47,178.0
917.53,165.0
917.59,181.0
917.66,195.0
917.72,198.0
917.78,205.0
917.85,188.0
917.91,188.0
917.97,175.0
918.04,202.0
918.1,178.0
918.16,195.0
918.22,203.0
918.29,224.0
918.35,204.0
918.41,192.0
918.48,209.0
918.54,204.0
918.6,205.0
918.67,197.0
918.73,187.0
918.79,200.0
918.85,217.0
918.92,216.0
918.98,223.0
919.04,217.0
919.11,222.0
919.17,227.0
919.23,217.0
919.3,223.0
919.36,212.0
919.42,214.0
919.48,212.0
919.55,202.0
919.61,213.0
919.67,214.0
919.74,209.0
919.8,200.0
919.86,198.0
919.93,210.0
919.99,202.0
920.05,188.0
920.11,185.0
920.18,206.0
920.24,221.0
920.3,210.0
920.37,215.0
920.43,188.0
920.49,186.0
920.56,196.0
920.62,213.0
920.68,183.0
920.74,179.0
920.81,187.0
920.87,194.0
920.93,204.0
921.0,185.0
921.06,188.0
921.12,198.0
921.19,154.0
921.25,160.0
921.31,175.0
921.37,145.0
921.44,179.0
921.5,158.0
921.56,162.0
921.63,154.0
921.69,155.0
921.75,137.0
921.82,149.0
921.88,153.0
921.94,147.0
922.0,148.0
922.07,132.0
922.13,96.0
922.19,101.0
922.26,98.0
922.32,93.0
922.38,99.0
922.45,99.0
922.51,106.0
922.57,114.0
922.63,93.0
922.7,122.0
922.76,121.0
922.82,111.0
922.89,96.0
922.95,99.0
923.01,115.0
923.08,103.0
923.14,85.0
923.2,102.0
923.26,114.0
923.33,108.0
923.39,104.0
923.45,109.0
923.52,113.0
923.58,121.0
923.64,134.0
923.71,134.0
923.77,121.0
923.83,156.0
923.89,127.0
923.96,125.0
924.02,124.0
924.08,112.0
924.15,109.0
924.21,110.0
924.27,121.0
924.34,118.0
924.4,133.0
924.46,102.0
924.52,103.0
924.59,88.0
924.65,103.0
924.71,99.0
924.78,96.0
924.84,118.0
924.9,94.0
924.97,99.0
925.03,103.0
925.09,100.0
925.15,106.0
925.22,97.0
925.28,88.0
925.34,100.0
925.41,99.0
925.47,87.0
925.53,100.0
925.6,90.0
925.66,95.0
925.72,88.0
925.78,80.0
925.85,95.0
925.91,89.0
925.97,88.0
926.04,93.0
926.1,89.0
926.16,60.0
926.23,76.0
926.29,77.0
926.35,66.0
926.41,74.0
926.48,70.0
926.54,73.0
926.6,69.0
926.67,81.0
926.73,64.0
926.79,77.0
926.86,77.0
926.92,81.0
926.98,90.0
927.04,83.0
927.11,95.0
927.17,107.0
927.23,105.0
927.3,103.0
927.36,90.0
927.42,96.0
927.49,100.0
927.55,103.0
927.61,111.0
927.67,96.0
927.74,104.0
927.8,135.0
927.86,122.0
927.93,105.0
927.99,117.0
928.05,127.0
928.12,116.0
928.18,121.0
928.24,139.0
928.3,150.0
928.37,155.0
928.43,136.0
928.49,134.0
928.56,132.0
928.62,123.0
928.68,121.0
928.75,122.0
928.81,137.0
928.87,143.0
928.93,136.0
929.0,147.0
929.06,156.0
929.12,127.0
929.19,124.0
929.25,143.0
929.31,146.0
929.38,130.0
929.44,145.0
929.5,138.0
929.56,139.0
929.63,154.0
929.69,139.0
929.75,132.0
929.82,122.0
929.88,117.0
929.94,120.0
930.01,128.0
930.07,148.0
930.13,154.0
930.19,151.0
930.26,150.0
930.32,144.0
930.38,145.0
930.45,165.0
930.51,161.0
930.57,139.0
930.64,152.0
930.7,148.0
930.76,138.0
930.82,132.0
930.89,137.0
930.95,122.0
931.01,136.0
931.08,127.0
931.14,136.0
931.2,136.0
931.27,138.0
931.33,139.0
931.39,130.0
931.45,124.0
931.52,108.0
931.58,110.0
931.64,108.0
931.71,103.0
931.77,107.0
931.83,126.0
931.9,118.0
931.96,132.0
932.02,111.0
932.08,117.0
932.15,132.0
932.21,147.0
932.27,139.0
932.34,133.0
932.4,122.0
932.46,117.0
932.53,124.0
932.59,125.0
932.65,132.0
932.71,112.0
932.78,115.0
932.84,117.0
932.9,120.0
932.97,108.0
933.03,124.0
933.09,130.0
933.16,124.0
933.22,125.0
933.28,112.0
933.34,110.0
933.41,114.0
933.47,136.0
933.53,130.0
933.6,135.0
933.66,120.0
933.72,117.0
933.79,128.0
933.85,117.0
933.91,131.0
933.97,125.0
934.04,131.0
934.1,142.0
934.16,138.0
934.23,128.0
934.29,124.0
934.35,140.0
934.42,136.0
934.48,135.0
934.54,135.0
934.6,132.0
934.67,123.0
934.73,129.0
934.79,119.0
934.86,128.0
934.92,147.0
934.98,143.0
935.05,160.0
935.11,144.0
935.17,124.0
935.23,132.0
935.3,139.0
935.36,146.0
935.42,144.0
935.49,144.0
935.55,148.0
935.61,144.0
935.68,141.0
935.74,148.0
935.8,147.0
935.86,145.0
935.93,147.0
935.99,143.0
936.05,140.0
936.12,127.0
936.18,132.0
936.24,125.0
936.31,126.0
936.37,121.0
936.43,109.0
936.49,112.0
936.56,111.0
936.62,114.0
936.68,119.0
936.75,109.0
936.81,90.0
936.87,118.0
936.94,116.0
937.0,111.0
937.06,113.0
937.12,119.0
937.19,109.0
937.25,96.0
937.31,100.0
937.38,100.0
937.44,97.0
937.5,103.0
937.57,106.0
937.63,95.0
937.69,105.0
937.75,86.0
937.82,91.0
937.88,93.0
937.94,87.0
938.01,108.0
938.07,84.0
938.13,95.0
938.2,108.0
938.26,108.0
938.32,88.0
938.38,92.0
938.45,101.0
938.51,108.0
938.57,84.0
938.64,100.0
938.7,114.0
938.76,107.0
938.83,111.0
938.89,96.0
938.95,100.0
939.01,125.0
939.08,117.0
939.14,109.0
939.2,108.0
939.27,111.0
939.33,112.0
939.39,120.0
939.46,117.0
939.52,103.0
939.58,114.0
939.64,118.0
939.71,107.0
939.77,96.0
939.83,119.0
939.9,108.0
939.96,89.0
940.02,93.0
940.09,100.0
940.15,99.0
940.21,82.0
940.27,87.0
940.34,83.0
940.4,99.0
940.46,96.0
940.53,75.0
940.59,74.0
940.65,66.0
940.72,56.0
940.78,58.0
940.84,71.0
940.9,70.0
940.97,61.0
941.03,66.0
941.09,83.0
941.16,83.0
941.22,64.0
941.28,78.0
941.35,66.0
941.41,62.0
941.47,59.0
941.53,56.0
941.6,67.0
941.66,91.0
941.72,85.0
941.79,63.0
941.85,63.0
941.91,49.0
941.98,62.0
942.04,73.0
942.1,86.0
942.16,75.0
942.23,83.0
942.29,75.0
942.35,66.0
942.42,88.0
942.48,74.0
942.54,56.0
942.61,61.0
942.67,70.0
942.73,72.0
942.79,62.0
942.86,59.0
942.92,85.0
942.98,88.0
943.05,81.0
943.11,87.0
943.17,107.0
943.24,97.0
943.3,93.0
943.36,69.0
943.42,83.0
943.49,80.0
943.55,88.0
943.61,103.0
943.68,103.0
943.74,88.0
943.8,105.0
943.87,88.0
943.93,92.0
943.99,91.0
944.05,99.0
944.12,77.0
944.18,57.0
944.24,58.0
944.31,59.0
944.37,62.0
944.43,62.0
944.5,59.0
944.56,55.0
944.62,40.0
944.68,59.0
944.75,64.0
944.81,48.0
944.87,38.0
944.94,50.0
945.0,55.0
945.06,75.0
945.13,67.0
945.19,72.0
945.25,64.0
945.31,78.0
945.38,82.0
945.44,85.0
945.5,76.0
945.57,99.0
945.63,98.0
945.69,106.0
945.76,96.0
945.82,103.0
945.88,129.0
945.94,121.0
946.01,114.0
946.07,121.0
946.13,126.0
946.2,138.0
946.26,141.0
946.32,154.0
946.39,142.0
946.45,139.0
946.51,142.0
946.57,130.0
946.64,133.0
946.7,161.0
946.76,158.0
946.83,163.0
946.89,150.0
946.95,159.0
947.02,141.0
947.08,132.0
947.14,132.0
947.2,143.0
947.27,135.0
947.33,144.0
947.39,148.0
947.46,148.0
947.52,154.0
947.58,121.0
947.65,133.0
947.71,143.0
947.77,139.0
947.83,145.0
947.9,158.0
947.96,157.0
948.02,149.0
948.09,166.0
948.15,158.0
948.21,137.0
948.28,154.0
948.34,168.0
948.4,169.0
948.46,174.0
948.53,183.0
948.59,163.0
948.65,163.0
948.72,170.0
948.78,183.0
948.84,192.0
948.91,186.0
948.97,176.0
949.03,157.0
949.09,177.0
949.16,201.0
949.22,176.0
949.28,182.0
949.35,193.0
949.41,186.0
949.47,195.0
949.54,199.0
949.6,205.0
949.66,194.0
949.72,203.0
949.79,202.0
949.85,207.0
949.91,223.0
949.98,210.0
950.04,217.0
950.1,218.0
950.17,214.0
950.23,212.0
950.29,205.0
950.35,224.0
950.42,234.0
950.48,223.0
950.54,245.0
950.61,247.0
950.67,240.0
950.73,250.0
950.8,275.0
950.86,241.0
950.92,240.0
950.98,258.0
951.05,236.0
951.11,257.0
951.17,253.0
951.24,240.0
951.3,264.0
951.36,268.0
951.43,270.0
951.49,290.0
951.55,267.0
951.61,271.0
951.68,276.0
951.74,262.0
951.8,268.0
951.87,266.0
951.93,270.0
951.99,273.0
952.06,300.0
952.12,288.0
952.18,265.0
952.24,278.0
952.31,278.0
952.37,264.0
952.43,285.0
952.5,285.0
952.56,285.0
952.62,274.0
952.69,273.0
952.75,284.0
952.81,273.0
952.87,301.0
952.94,306.0
953.0,292.0
953.06,301.0
953.13,289.0
953.19,294.0
953.25,311.0
953.32,296.0
953.38,295.0
953.44,307.0
953.5,300.0
953.57,304.0
953.63,277.0
953.69,282.0
953.76,274.0
953.82,267.0
953.88,266.0
953.95,256.0
954.01,253.0
954.07,264.0
954.13,270.0
954.2,239.0
954.26,236.0
954.32,248.0
954.39,271.0
954.45,242.0
954.51,261.0
954.58,278.0
954.64,249.0
954.7,252.0
954.76,252.0
954.83,220.0
954.89,222.0
954.95,219.0
955.02,224.0
955.08,231.0
955.14,225.0
955.21,225.0
955.27,240.0
955.33,208.0
955.39,215.0
955.46,229.0
955.52,226.0
955.58,217.0
955.65,199.0
955.71,209.0
955.77,196.0
955.84,178.0
955.9,197.0
955.96,177.0
956.02,165.0
956.09,183.0
956.15,185.0
956.21,182.0
956.28,187.0
956.34,184.0
956.4,195.0
956.47,177.0
956.53,180.0
956.59,176.0
956.65,158.0
956.72,145.0
956.78,127.0
956.84,118.0
956.91,128.0
956.97,135.0
957.03,146.0
957.1,146.0
957.16,130.0
957.22,124.0
957.28,133.0
957.35,141.0
957.41,122.0
957.47,127.0
957.54,132.0
957.6,107.0
957.66,132.0
957.73,117.0
957.79,121.0
957.85,128.0
957.91,113.0
957.98,108.0
958.04,122.0
958.1,120.0
958.17,128.0
958.23,127.0
958.29,112.0
958.36,109.0
958.42,97.0
958.48,89.0
958.54,101.0
958.61,92.0
958.67,67.0
958.73,92.0
958.8,68.0
958.86,86.0
958.92,64.0
958.99,67.0
959.05,83.0
959.11,66.0
959.17,73.0
959.24,65.0
959.3,78.0
959.36,64.0
959.43,50.0
959.49,59.0
959.55,66.0
959.62,75.0
959.68,75.0
959.74,75.0
959.8,80.0
959.87,59.0
959.93,46.0
959.99,67.0
960.06,44.0
960.12,37.0
960.18,64.0
960.25,42.0
960.31,21.0
960.37,37.0
960.43,51.0
960.5,36.0
960.56,10.0
960.62,-1.0
960.69,2.0
960.75,9.0
960.81,12.0
960.88,27.0
960.94,17.0
961.0,-8.0
961.06,13.0
961.13,16.0
961.19,-4.0
961.25,-15.0
961.32,-10.0
961.38,-12.0
961.44,1.0
961.51,-7.0
961.57,-11.0
961.63,-2.0
961.69,24.0
961.76,-2.0
961.82,-5.0
961.88,-33.0
961.95,-21.0
962.01,7.0
962.07,-4.0
962.14,-9.0
962.2,-3.0
962.26,4.0
962.32,15.0
962.39,18.0
962.45,15.0
962.51,29.0
962.58,30.0
962.64,48.0
962.7,23.0
962.77,32.0
962.83,29.0
962.89,18.0
962.95,35.0
963.02,7.0
963.08,18.0
963.14,8.0
963.21,5.0
963.27,20.0
963.33,7.0
963.4,4.0
963.46,13.0
963.52,10.0
963.58,5.0
963.65,8.0
963.71,-5.0
963.77,0.0
963.84,13.0
963.9,2.0
963.96,7.0
964.03,-8.0
964.09,0.0
964.15,-9.0
964.21,-2.0
964.28,-25.0
964.34,-18.0
964.4,-7.0
964.47,-12.0
964.53,8.0
964.59,-2.0
964.66,-14.0
964.72,-1.0
964.78,-20.0
964.84,-14.0
964.91,-21.0
964.97,-47.0
965.03,-42.0
965.1,-10.0
965.16,7.0
965.22,-1.0
965.29,-7.0
965.35,-11.0
965.41,-29.0
965.47,-21.0
965.54,9.0
965.6,2.0
965.66,18.0
965.73,18.0
965.79,17.0
965.85,21.0
965.92,16.0
965.98,18.0
966.04,23.0
966.1,26.0
966.17,37.0
966.23,30.0
966.29,25.0
966.36,23.0
966.42,26.0
966.48,52.0
966.55,50.0
966.61,64.0
966.67,73.0
966.73,56.0
966.8,84.0
966.86,98.0
966.92,101.0
966.99,78.0
967.05,75.0
967.11,68.0
967.18,70.0
967.24,66.0
967.3,64.0
967.36,59.0
967.43,78.0
967.49,99.0
967.55,103.0
967.62,96.0
967.68,114.0
967.74,122.0
967.81,123.0
967.87,135.0
967.93,140.0
967.99,131.0
968.06,143.0
968.12,162.0
968.18,176.0
968.25,166.0
968.31,164.0
968.37,163.0
968.44,148.0
968.5,162.0
968.56,184.0
968.62,187.0
968.69,168.0
968.75,175.0
968.81,177.0
968.88,189.0
968.94,194.0
969.0,206.0
969.07,217.0
969.13,211.0
969.19,187.0
969.25,185.0
969.32,205.0
969.38,188.0
969.44,198.0
969.51,198.0
969.57,186.0
969.63,182.0
969.7,200.0
969.76,186.0
969.82,214.0
969.88,206.0
969.95,194.0
970.01,202.0
970.07,199.0
970.14,185.0
970.2,185.0
970.26,195.0
970.33,169.0
970.39,178.0
970.45,176.0
970.51,181.0
970.58,180.0
970.64,187.0
970.7,172.0
970.77,187.0
970.83,170.0
970.89,175.0
970.96,178.0
971.02,171.0
971.08,180.0
971.14,166.0
971.21,174.0
971.27,161.0
971.33,169.0
971.4,175.0
971.46,184.0
971.52,202.0
971.59,188.0
971.65,191.0
971.71,203.0
971.77,199.0
971.84,211.0
971.9,209.0
971.96,207.0
972.03,204.0
972.09,186.0
972.15,206.0
972.22,197.0
972.28,214.0
972.34,206.0
972.4,212.0
972.47,195.0
972.53,213.0
972.59,203.0
972.66,206.0
972.72,216.0
972.78,214.0
972.85,213.0
972.91,192.0
972.97,223.0
973.03,226.0
973.1,214.0
973.16,206.0
973.22,222.0
973.29,204.0
973.35,196.0
973.41,195.0
973.48,208.0
973.54,188.0
973.6,203.0
973.66,225.0
973.73,224.0
973.79,209.0
973.85,210.0
973.92,219.0
973.98,208.0
974.04,192.0
974.11,195.0
974.17,212.0
974.23,212.0
974.29,196.0
974.36,222.0
974.42,204.0
974.48,220.0
974.55,208.0
974.61,205.0
974.67,187.0
974.74,189.0
974.8,198.0
974.86,199.0
974.92,202.0
974.99,191.0
975.05,186.0
975.11,167.0
975.18,174.0
975.24,164.0
975.3,163.0
975.37,192.0
975.43,164.0
975.49,184.0
975.55,187.0
975.62,185.0
975.68,171.0
975.74,169.0
975.81,195.0
975.87,181.0
975.93,165.0
976.0,185.0
976.06,175.0
976.12,177.0
976.18,171.0
976.25,175.0
976.31,169.0
976.37,160.0
976.44,177.0
976.5,168.0
976.56,175.0
976.63,171.0
976.69,162.0
976.75,159.0
976.81,137.0
976.88,138.0
976.94,142.0
977.0,166.0
977.07,147.0
977.13,140.0
977.19,155.0
977.26,155.0
977.32,128.0
977.38,122.0
977.44,140.0
977.51,137.0
977.57,132.0
977.63,139.0
977.7,142.0
977.76,128.0
977.82,154.0
977.89,144.0
977.95,150.0
978.01,126.0
978.07,83.0
978.14,95.0
978.2,110.0
978.26,93.0
978.33,112.0
978.39,118.0
978.45,106.0
978.52,120.0
978.58,136.0
978.64,133.0
978.7,120.0
978.77,152.0
978.83,148.0
978.89,122.0
978.96,126.0
979.02,123.0
979.08,132.0
979.15,115.0
979.21,114.0
979.27,136.0
979.33,139.0
979.4,154.0
979.46,160.0
979.52,123.0
979.59,121.0
979.65,122.0
979.71,136.0
979.78,151.0
979.84,148.0
979.9,135.0
979.96,145.0
980.03,142.0
980.09,146.0
980.15,165.0
980.22,145.0
980.28,129.0
980.34,148.0
980.41,118.0
980.47,128.0
980.53,111.0
980.59,106.0
980.66,100.0
980.72,76.0
980.78,85.0
980.85,88.0
980.91,85.0
980.97,76.0
981.04,69.0
981.1,81.0
981.16,86.0
981.22,89.0
981.29,85.0
981.35,101.0
981.41,94.0
981.48,98.0
981.54,109.0
981.6,107.0
981.67,118.0
981.73,109.0
981.79,90.0
981.85,85.0
981.92,103.0
981.98,89.0
982.04,115.0
982.11,104.0
982.17,115.0
982.23,105.0
982.3,92.0
982.36,100.0
982.42,101.0
982.48,106.0
982.55,101.0
982.61,93.0
982.67,102.0
982.74,101.0
982.8,110.0
982.86,115.0
982.93,101.0
982.99,92.0
983.05,85.0
983.11,93.0
983.18,105.0
983.24,126.0
983.3,125.0
983.37,109.0
983.43,129.0
983.49,130.0
983.56,129.0
983.62,131.0
983.68,147.0
983.74,140.0
983.81,125.0
983.87,139.0
983.93,119.0
984.0,125.0
984.06,121.0
984.12,132.0
984.19,141.0
984.25,153.0
984.31,143.0
984.37,166.0
984.44,172.0
984.5,156.0
984.56,146.0
984.63,159.0
984.69,170.0
984.75,163.0
984.82,149.0
984.88,143.0
984.94,155.0
985.0,139.0
985.07,137.0
985.13,155.0
985.19,156.0
985.26,162.0
985.32,148.0
985.38,161.0
985.45,178.0
985.51,167.0
985.57,190.0
985.63,178.0
985.7,162.0
985.76,153.0
985.82,147.0
985.89,160.0
985.95,171.0
986.01,167.0
986.08,173.0
986.14,180.0
986.2,177.0
986.26,171.0
986.33,168.0
986.39,155.0
986.45,159.0
986.52,152.0
986.58,142.0
986.64,142.0
986.71,148.0
986.77,147.0
986.83,134.0
986.89,153.0
986.96,146.0
987.02,149.0
987.08,151.0
987.15,157.0
987.21,138.0
987.27,145.0
987.34,153.0
987.4,122.0
987.46,132.0
987.52,141.0
987.59,128.0
987.65,139.0
987.71,139.0
987.78,134.0
987.84,128.0
987.9,117.0
987.97,133.0
988.03,109.0
988.09,108.0
988.15,120.0
988.22,128.0
988.28,136.0
988.34,125.0
988.41,132.0
988.47,133.0
988.53,127.0
988.6,132.0
988.66,125.0
988.72,94.0
988.78,96.0
988.85,85.0
988.91,91.0
988.97,81.0
989.04,104.0
989.1,98.0
989.16,84.0
989.23,85.0
989.29,87.0
989.35,105.0
989.41,89.0
989.48,99.0
989.54,89.0
989.6,86.0
989.67,100.0
989.73,96.0
989.79,104.0
989.86,76.0
989.92,93.0
989.98,102.0
990.04,88.0
990.11,77.0
990.17,63.0
990.23,56.0
990.3,59.0
990.36,57.0
990.42,66.0
990.49,73.0
990.55,74.0
990.61,63.0
990.67,67.0
990.74,52.0
990.8,52.0
990.86,47.0
990.93,37.0
990.99,51.0
991.05,41.0
991.12,24.0
991.18,55.0
991.24,52.0
991.3,46.0
991.37,52.0
991.43,52.0
991.49,50.0
991.56,41.0
991.62,34.0
991.68,32.0
991.75,54.0
991.81,59.0
991.87,49.0
991.93,52.0
992.0,41.0
992.06,21.0
992.12,42.0
992.19,34.0
992.25,37.0
992.31,30.0
992.38,21.0
992.44,38.0
992.5,36.0
992.56,49.0
992.63,30.0
992.69,41.0
992.75,61.0
992.82,59.0
992.88,63.0
992.94,52.0
993.01,43.0
993.07,41.0
993.13,37.0
993.19,26.0
993.26,29.0
993.32,46.0
993.38,48.0
993.45,42.0
993.51,37.0
993.57,34.0
993.64,43.0
993.7,45.0
993.76,42.0
993.82,53.0
993.89,65.0
993.95,68.0
994.01,83.0
994.08,78.0
994.14,81.0
994.2,78.0
994.27,70.0
994.33,66.0
994.39,95.0
994.45,103.0
994.52,95.0
994.58,90.0
994.64,107.0
994.71,114.0
994.77,86.0
994.83,78.0
994.9,100.0
994.96,109.0
995.02,84.0
995.08,99.0
995.15,110.0
995.21,108.0
995.27,96.0
995.34,98.0
995.4,109.0
995.46,88.0
995.53,100.0
995.59,104.0
995.65,96.0
995.71,86.0
995.78,73.0
995.84,77.0
995.9,86.0
995.97,84.0
996.03,88.0
996.09,79.0
996.16,77.0
996.22,72.0
996.28,80.0
996.34,87.0
996.41,75.0
996.47,102.0
996.53,102.0
996.6,108.0
996.66,110.0
996.72,121.0
996.79,128.0
996.85,120.0
996.91,102.0
996.97,121.0
997.04,140.0
997.1,126.0
997.16,140.0
997.23,125.0
997.29,110.0
997.35,114.0
997.42,104.0
997.48,124.0
997.54,118.0
997.6,111.0
997.67,95.0
997.73,110.0
997.79,115.0
997.86,119.0
997.92,109.0
997.98,132.0
998.05,144.0
998.11,133.0
998.17,153.0
998.23,125.0
998.3,138.0
998.36,139.0
998.42,161.0
998.49,146.0
998.55,142.0
998.61,147.0
998.68,142.0
998.74,136.0
998.8,139.0
998.86,138.0
998.93,155.0
998.99,167.0
999.05,155.0
999.12,156.0
999.18,166.0
999.24,161.0
999.31,159.0
999.37,178.0
999.43,180.0
999.49,196.0
999.56,202.0
999.62,202.0
999.68,195.0
999.75,190.0
999.81,192.0
999.87,213.0
