timestamp,intensity
0,-287.0
0.06,-292.0
0.13,-303.0
0.19,-292.0
0.25,-280.0
0.32,-299.0
0.38,-294.0
0.44,-302.0
0.5,-294.0
0.57,-284.0
0.63,-290.0
0.69,-274.0
0.76,-279.0
0.82,-287.0
0.88,-281.0
0.94,-297.0
1.01,-299.0
1.07,-307.0
1.13,-307.0
1.2,-316.0
1.26,-307.0
1.32,-287.0
1.39,-313.0
1.45,-320.0
1.51,-305.0
1.57,-319.0
1.64,-315.0
1.7,-330.0
1.76,-321.0
1.83,-316.0
1.89,-320.0
1.95,-309.0
2.02,-323.0
2.08,-326.0
2.14,-344.0
2.2,-328.0
2.27,-325.0
2.33,-339.0
2.39,-320.0
2.46,-335.0
2.52,-322.0
2.58,-328.0
2.65,-335.0
2.71,-331.0
2.77,-338.0
2.84,-334.0
2.9,-368.0
2.96,-355.0
3.02,-354.0
3.09,-353.0
3.15,-367.0
3.21,-360.0
3.28,-373.0
3.34,-383.0
3.4,-355.0
3.47,-361.0
3.53,-377.0
3.59,-364.0
3.65,-346.0
3.72,-368.0
3.78,-363.0
3.84,-363.0
3.91,-358.0
3.97,-359.0
4.03,-365.0
4.1,-376.0
4.16,-380.0
4.22,-361.0
4.28,-365.0
4.35,-357.0
4.41,-356.0
4.47,-371.0
4.54,-384.0
4.6,-371.0
4.66,-362.0
4.73,-379.0
4.79,-408.0
4.85,-371.0
4.91,-347.0
4.98,-356.0
5.04,-343.0
5.1,-358.0
5.17,-337.0
5.23,-337.0
5.29,-356.0
5.35,-336.0
5.42,-336.0
5.48,-348.0
5.54,-343.0
5.61,-356.0
5.67,-353.0
5.73,-344.0
5.8,-328.0
5.86,-311.0
5.92,-313.0
5.98,-326.0
6.05,-330.0
6.11,-335.0
6.17,-322.0
6.24,-316.0
6.3,-318.0
6.36,-314.0
6.43,-317.0
6.49,-299.0
6.55,-285.0
6.61,-303.0
6.68,-305.0
6.74,-288.0
6.8,-284.0
6.87,-301.0
6.93,-316.0
6.99,-293.0
7.06,-299.0
7.12,-313.0
7.18,-301.0
7.24,-284.0
7.31,-291.0
7.37,-318.0
7.43,-306.0
7.5,-294.0
7.56,-303.0
7.62,-328.0
7.69,-319.0
7.75,-302.0
7.81,-303.0
7.87,-304.0
7.94,-310.0
8.0,-270.0
8.06,-283.0
8.13,-303.0
8.19,-287.0
8.25,-282.0
8.32,-295.0
8.38,-286.0
8.44,-275.0
8.5,-263.0
8.57,-292.0
8.63,-278.0
8.69,-280.0
8.76,-298.0
8.82,-296.0
8.88,-310.0
8.95,-325.0
9.01,-329.0
9.07,-319.0
9.13,-321.0
9.2,-346.0
9.26,-345.0
9.32,-354.0
9.39,-357.0
9.45,-335.0
9.51,-348.0
9.58,-348.0
9.64,-347.0
9.7,-349.0
9.77,-341.0
9.83,-356.0
9.89,-348.0
9.95,-346.0
10.02,-359.0
10.08,-334.0
10.14,-344.0
10.21,-337.0
10.27,-347.0
10.33,-354.0
10.4,-322.0
10.46,-330.0
10.52,-348.0
10.58,-361.0
10.65,-361.0
10.71,-358.0
10.77,-355.0
10.84,-361.0
10.9,-384.0
10.96,-379.0
11.03,-353.0
11.09,-368.0
11.15,-361.0
11.21,-364.0
11.28,-375.0
11.34,-391.0
11.4,-386.0
11.47,-379.0
11.53,-386.0
11.59,-391.0
11.66,-383.0
11.72,-397.0
11.78,-414.0
11.84,-408.0
11.91,-419.0
11.97,-413.0
12.03,-414.0
12.1,-421.0
12.16,-416.0
12.22,-424.0
12.29,-425.0
12.35,-435.0
12.41,-412.0
12.47,-420.0
12.54,-438.0
12.6,-419.0
12.66,-421.0
12.73,-427.0
12.79,-421.0
12.85,-412.0
12.92,-419.0
12.98,-422.0
13.04,-417.0
13.1,-420.0
13.17,-410.0
13.23,-405.0
13.29,-404.0
13.36,-405.0
13.42,-399.0
13.48,-379.0
13.55,-380.0
13.61,-380.0
13.67,-366.0
13.73,-373.0
13.8,-383.0
13.86,-376.0
13.92,-358.0
13.99,-342.0
14.05,-361.0
14.11,-360.0
14.18,-336.0
14.24,-338.0
14.3,-339.0
14.36,-343.0
14.43,-339.0
14.49,-340.0
14.55,-339.0
14.62,-326.0
14.68,-325.0
14.74,-327.0
14.81,-322.0
14.87,-313.0
14.93,-318.0
14.99,-329.0
15.06,-326.0
15.12,-318.0
15.18,-298.0
15.25,-325.0
15.31,-321.0
15.37,-324.0
15.44,-317.0
15.5,-314.0
15.56,-311.0
15.62,-293.0
15.69,-293.0
15.75,-304.0
15.81,-289.0
15.88,-281.0
15.94,-278.0
16.0,-290.0
16.07,-276.0
16.13,-267.0
16.19,-279.0
16.25,-284.0
16.32,-281.0
16.38,-274.0
16.44,-276.0
16.51,-275.0
16.57,-274.0
16.63,-271.0
16.7,-271.0
16.76,-251.0
16.82,-272.0
16.88,-272.0
16.95,-274.0
17.01,-258.0
17.07,-240.0
17.14,-250.0
17.2,-242.0
17.26,-249.0
17.33,-259.0
17.39,-275.0
17.45,-272.0
17.51,-266.0
17.58,-248.0
17.64,-239.0
17.7,-226.0
17.77,-227.0
17.83,-225.0
17.89,-234.0
17.96,-236.0
18.02,-238.0
18.08,-241.0
18.14,-220.0
18.21,-220.0
18.27,-223.0
18.33,-221.0
18.4,-214.0
18.46,-221.0
18.52,-206.0
18.59,-225.0
18.65,-215.0
18.71,-221.0
18.77,-212.0
18.84,-203.0
18.9,-200.0
18.96,-213.0
19.03,-204.0
19.09,-200.0
19.15,-213.0
19.22,-204.0
19.28,-216.0
19.34,-209.0
19.4,-200.0
19.47,-216.0
19.53,-197.0
19.59,-201.0
19.66,-214.0
19.72,-203.0
19.78,-198.0
19.84,-183.0
19.91,-192.0
19.97,-197.0
20.03,-208.0
20.1,-194.0
20.16,-193.0
20.22,-195.0
20.29,-211.0
20.35,-200.0
20.41,-208.0
20.47,-208.0
20.54,-218.0
20.6,-218.0
20.66,-213.0
20.73,-208.0
20.79,-211.0
20.85,-211.0
20.92,-224.0
20.98,-216.0
21.04,-203.0
21.1,-213.0
21.17,-196.0
21.23,-183.0
21.29,-231.0
21.36,-215.0
21.42,-229.0
21.48,-235.0
21.55,-207.0
21.61,-212.0
21.67,-219.0
21.73,-224.0
21.8,-206.0
21.86,-222.0
21.92,-239.0
21.99,-236.0
22.05,-231.0
22.11,-211.0
22.18,-216.0
22.24,-196.0
22.3,-203.0
22.36,-191.0
22.43,-174.0
22.49,-180.0
22.55,-191.0
22.62,-186.0
22.68,-184.0
22.74,-200.0
22.81,-202.0
22.87,-204.0
22.93,-211.0
22.99,-199.0
23.06,-188.0
23.12,-183.0
23.18,-199.0
23.25,-202.0
23.31,-202.0
23.37,-200.0
23.44,-183.0
23.5,-168.0
23.56,-164.0
23.62,-181.0
23.69,-161.0
23.75,-164.0
23.81,-150.0
23.88,-151.0
23.94,-159.0
24.0,-165.0
24.07,-157.0
24.13,-145.0
24.19,-140.0
24.25,-110.0
24.32,-130.0
24.38,-150.0
24.44,-152.0
24.51,-131.0
24.57,-135.0
24.63,-115.0
24.7,-114.0
24.76,-122.0
24.82,-127.0
24.88,-109.0
24.95,-97.0
25.01,-95.0
25.07,-93.0
25.14,-97.0
25.2,-105.0
25.26,-94.0
25.33,-94.0
25.39,-107.0
25.45,-115.0
25.51,-113.0
25.58,-126.0
25.64,-112.0
25.7,-111.0
25.77,-129.0
25.83,-149.0
25.89,-156.0
25.96,-149.0
26.02,-145.0
26.08,-153.0
26.14,-166.0
26.21,-153.0
26.27,-151.0
26.33,-144.0
26.4,-155.0
26.46,-161.0
26.52,-180.0
26.59,-179.0
26.65,-158.0
26.71,-175.0
26.77,-187.0
26.84,-185.0
26.9,-186.0
26.96,-191.0
27.03,-194.0
27.09,-201.0
27.15,-215.0
27.22,-217.0
27.28,-222.0
27.34,-229.0
27.4,-218.0
27.47,-223.0
27.53,-240.0
27.59,-235.0
27.66,-243.0
27.72,-253.0
27.78,-239.0
27.85,-266.0
27.91,-258.0
27.97,-278.0
28.03,-273.0
28.1,-266.0
28.16,-277.0
28.22,-265.0
28.29,-267.0
28.35,-287.0
28.41,-310.0
28.48,-289.0
28.54,-270.0
28.6,-267.0
28.66,-304.0
28.73,-305.0
28.79,-290.0
28.85,-287.0
28.92,-280.0
28.98,-301.0
29.04,-304.0
29.11,-293.0
29.17,-293.0
29.23,-303.0
29.29,-299.0
29.36,-298.0
29.42,-288.0
29.48,-313.0
29.55,-297.0
29.61,-296.0
29.67,-298.0
29.74,-314.0
29.8,-308.0
29.86,-299.0
29.92,-298.0
29.99,-299.0
30.05,-287.0
30.11,-290.0
30.18,-300.0
30.24,-296.0
30.3,-297.0
30.37,-301.0
30.43,-283.0
30.49,-279.0
30.55,-283.0
30.62,-272.0
30.68,-261.0
30.74,-272.0
30.81,-271.0
30.87,-260.0
30.93,-252.0
31.0,-251.0
31.06,-248.0
31.12,-233.0
31.18,-242.0
31.25,-249.0
31.31,-252.0
31.37,-254.0
31.44,-226.0
31.5,-242.0
31.56,-238.0
31.63,-235.0
31.69,-222.0
31.75,-229.0
31.81,-237.0
31.88,-234.0
31.94,-227.0
32.0,-223.0
32.07,-209.0
32.13,-200.0
32.19,-207.0
32.26,-205.0
32.32,-204.0
32.38,-198.0
32.44,-201.0
32.51,-205.0
32.57,-238.0
32.63,-240.0
32.7,-227.0
32.76,-204.0
32.82,-208.0
32.89,-211.0
32.95,-205.0
33.01,-199.0
33.07,-186.0
33.14,-200.0
33.2,-188.0
33.26,-173.0
33.33,-196.0
33.39,-199.0
33.45,-208.0
33.52,-209.0
33.58,-204.0
33.64,-204.0
33.7,-221.0
33.77,-220.0
33.83,-221.0
33.89,-203.0
33.96,-205.0
34.02,-209.0
34.08,-205.0
34.15,-201.0
34.21,-213.0
34.27,-206.0
34.33,-217.0
34.4,-204.0
34.46,-213.0
34.52,-196.0
34.59,-204.0
34.65,-202.0
34.71,-184.0
34.78,-193.0
34.84,-178.0
34.9,-180.0
34.96,-167.0
35.03,-175.0
35.09,-154.0
35.15,-150.0
35.22,-148.0
35.28,-145.0
35.34,-153.0
35.41,-140.0
35.47,-148.0
35.53,-137.0
35.59,-138.0
35.66,-139.0
35.72,-134.0
35.78,-130.0
35.85,-144.0
35.91,-163.0
35.97,-166.0
36.04,-164.0
36.1,-160.0
36.16,-138.0
36.22,-148.0
36.29,-156.0
36.35,-156.0
36.41,-147.0
36.48,-159.0
36.54,-161.0
36.6,-163.0
36.67,-152.0
36.73,-161.0
36.79,-160.0
36.85,-168.0
36.92,-185.0
36.98,-173.0
37.04,-160.0
37.11,-160.0
37.17,-148.0
37.23,-160.0
37.3,-162.0
37.36,-139.0
37.42,-158.0
37.48,-169.0
37.55,-195.0
37.61,-175.0
37.67,-182.0
37.74,-189.0
37.8,-178.0
37.86,-168.0
37.93,-177.0
37.99,-169.0
38.05,-182.0
38.12,-186.0
38.18,-176.0
38.24,-162.0
38.3,-202.0
38.37,-191.0
38.43,-180.0
38.49,-174.0
38.56,-173.0
38.62,-163.0
38.68,-150.0
38.75,-156.0
38.81,-150.0
38.87,-147.0
38.93,-152.0
39.0,-144.0
39.06,-137.0
39.12,-113.0
39.19,-101.0
39.25,-106.0
39.31,-114.0
39.38,-105.0
39.44,-117.0
39.5,-92.0
39.56,-79.0
39.63,-75.0
39.69,-77.0
39.75,-87.0
39.82,-85.0
39.88,-74.0
39.94,-73.0
40.01,-85.0
40.07,-74.0
40.13,-52.0
40.19,-59.0
40.26,-77.0
40.32,-59.0
40.38,-47.0
40.45,-54.0
40.51,-80.0
40.57,-59.0
40.64,-42.0
40.7,-61.0
40.76,-59.0
40.82,-46.0
40.89,-37.0
40.95,-38.0
41.01,-32.0
41.08,-10.0
41.14,-17.0
41.2,-34.0
41.27,-28.0
41.33,-31.0
41.39,-28.0
41.45,-12.0
41.52,-21.0
41.58,-12.0
41.64,-28.0
41.71,13.0
41.77,11.0
41.83,3.0
41.9,-15.0
41.96,-13.0
42.02,1.0
42.08,-9.0
42.15,-7.0
42.21,-8.0
42.27,-13.0
42.34,-32.0
42.4,-57.0
42.46,-56.0
42.53,-30.0
42.59,-44.0
42.65,-28.0
42.71,-36.0
42.78,-23.0
42.84,-24.0
42.9,-46.0
42.97,-18.0
43.03,-37.0
43.09,-45.0
43.16,-54.0
43.22,-70.0
43.28,-51.0
43.34,-50.0
43.41,-64.0
43.47,-60.0
43.53,-54.0
43.6,-79.0
43.66,-98.0
43.72,-87.0
43.79,-100.0
43.85,-104.0
43.91,-96.0
43.97,-98.0
44.04,-115.0
44.1,-107.0
44.16,-105.0
44.23,-87.0
44.29,-92.0
44.35,-111.0
44.42,-96.0
44.48,-94.0
44.54,-114.0
44.6,-103.0
44.67,-99.0
44.73,-118.0
44.79,-108.0
44.86,-101.0
44.92,-107.0
44.98,-100.0
45.05,-99.0
45.11,-125.0
45.17,-128.0
45.23,-125.0
45.3,-134.0
45.36,-129.0
45.42,-127.0
45.49,-130.0
45.55,-127.0
45.61,-138.0
45.68,-143.0
45.74,-153.0
45.8,-163.0
45.86,-155.0
45.93,-133.0
45.99,-139.0
46.05,-138.0
46.12,-125.0
46.18,-142.0
46.24,-140.0
46.31,-118.0
46.37,-151.0
46.43,-136.0
46.49,-136.0
46.56,-151.0
46.62,-136.0
46.68,-138.0
46.75,-166.0
46.81,-139.0
46.87,-157.0
46.94,-152.0
47.0,-162.0
47.06,-160.0
47.12,-147.0
47.19,-140.0
47.25,-145.0
47.31,-165.0
47.38,-159.0
47.44,-165.0
47.5,-149.0
47.57,-168.0
47.63,-149.0
47.69,-158.0
47.75,-153.0
47.82,-159.0
47.88,-139.0
47.94,-165.0
48.01,-145.0
48.07,-150.0
48.13,-153.0
48.2,-140.0
48.26,-126.0
48.32,-112.0
48.38,-128.0
48.45,-132.0
48.51,-131.0
48.57,-144.0
48.64,-142.0
48.7,-155.0
48.76,-159.0
48.83,-138.0
48.89,-128.0
48.95,-138.0
49.01,-156.0
49.08,-146.0
49.14,-150.0
49.2,-142.0
49.27,-144.0
49.33,-143.0
49.39,-133.0
49.46,-131.0
49.52,-118.0
49.58,-108.0
49.64,-110.0
49.71,-113.0
49.77,-139.0
49.83,-105.0
49.9,-127.0
49.96,-115.0
50.02,-98.0
50.09,-118.0
50.15,-131.0
50.21,-123.0
50.27,-118.0
50.34,-121.0
50.4,-90.0
50.46,-103.0
50.53,-102.0
50.59,-96.0
50.65,-85.0
50.72,-78.0
50.78,-76.0
50.84,-97.0
50.9,-79.0
50.97,-74.0
51.03,-92.0
51.09,-82.0
51.16,-73.0
51.22,-64.0
51.28,-79.0
51.35,-54.0
51.41,-68.0
51.47,-65.0
51.53,-70.0
51.6,-64.0
51.66,-78.0
51.72,-82.0
51.79,-68.0
51.85,-76.0
51.91,-74.0
51.98,-95.0
52.04,-66.0
52.1,-98.0
52.16,-73.0
52.23,-79.0
52.29,-83.0
52.35,-78.0
52.42,-94.0
52.48,-97.0
52.54,-103.0
52.61,-84.0
52.67,-85.0
52.73,-96.0
52.79,-109.0
52.86,-105.0
52.92,-108.0
52.98,-113.0
53.05,-114.0
53.11,-118.0
53.17,-143.0
53.24,-141.0
53.3,-157.0
53.36,-170.0
53.42,-152.0
53.49,-142.0
53.55,-113.0
53.61,-134.0
53.68,-136.0
53.74,-115.0
53.8,-106.0
53.87,-137.0
53.93,-118.0
53.99,-132.0
54.05,-131.0
54.12,-125.0
54.18,-144.0
54.24,-145.0
54.31,-128.0
54.37,-143.0
54.43,-158.0
54.5,-152.0
54.56,-151.0
54.62,-136.0
54.68,-158.0
54.75,-152.0
54.81,-141.0
54.87,-141.0
54.94,-130.0
55.0,-120.0
55.06,-123.0
55.13,-123.0
55.19,-119.0
55.25,-116.0
55.31,-106.0
55.38,-112.0
55.44,-117.0
55.5,-109.0
55.57,-106.0
55.63,-110.0
55.69,-102.0
55.76,-85.0
55.82,-100.0
55.88,-112.0
55.94,-99.0
56.01,-91.0
56.07,-99.0
56.13,-107.0
56.2,-124.0
56.26,-105.0
56.32,-122.0
56.39,-101.0
56.45,-105.0
56.51,-96.0
56.57,-87.0
56.64,-108.0
56.7,-95.0
56.76,-93.0
56.83,-93.0
56.89,-89.0
56.95,-97.0
57.02,-88.0
57.08,-92.0
57.14,-91.0
57.2,-83.0
57.27,-74.0
57.33,-59.0
57.39,-81.0
57.46,-76.0
57.52,-80.0
57.58,-67.0
57.65,-67.0
57.71,-72.0
57.77,-69.0
57.83,-67.0
57.9,-59.0
57.96,-77.0
58.02,-60.0
58.09,-86.0
58.15,-97.0
58.21,-77.0
58.28,-81.0
58.34,-75.0
58.4,-82.0
58.46,-87.0
58.53,-73.0
58.59,-66.0
58.65,-83.0
58.72,-62.0
58.78,-63.0
58.84,-63.0
58.91,-47.0
58.97,-53.0
59.03,-56.0
59.09,-53.0
59.16,-61.0
59.22,-47.0
59.28,-43.0
59.35,-63.0
59.41,-54.0
59.47,-66.0
59.54,-102.0
59.6,-98.0
59.66,-90.0
59.72,-69.0
59.79,-76.0
59.85,-79.0
59.91,-67.0
59.98,-78.0
60.04,-86.0
60.1,-83.0
60.17,-95.0
60.23,-92.0
60.29,-100.0
60.35,-102.0
60.42,-79.0
60.48,-93.0
60.54,-91.0
60.61,-89.0
60.67,-85.0
60.73,-92.0
60.8,-88.0
60.86,-85.0
60.92,-97.0
60.98,-91.0
61.05,-93.0
61.11,-94.0
61.17,-102.0
61.24,-120.0
61.3,-112.0
61.36,-102.0
61.43,-104.0
61.49,-94.0
61.55,-96.0
61.61,-99.0
61.68,-104.0
61.74,-105.0
61.8,-128.0
61.87,-151.0
61.93,-128.0
61.99,-136.0
62.06,-154.0
62.12,-152.0
62.18,-142.0
62.24,-131.0
62.31,-154.0
62.37,-151.0
62.43,-153.0
62.5,-147.0
62.56,-154.0
62.62,-168.0
62.69,-160.0
62.75,-164.0
62.81,-170.0
62.87,-167.0
62.94,-166.0
63.0,-159.0
63.06,-190.0
63.13,-174.0
63.19,-182.0
63.25,-172.0
63.32,-169.0
63.38,-171.0
63.44,-170.0
63.5,-208.0
63.57,-184.0
63.63,-179.0
63.69,-172.0
63.76,-166.0
63.82,-177.0
63.88,-164.0
63.95,-179.0
64.01,-190.0
64.07,-178.0
64.13,-197.0
64.2,-206.0
64.26,-190.0
64.32,-191.0
64.39,-190.0
64.45,-188.0
64.51,-173.0
64.58,-183.0
64.64,-172.0
64.7,-191.0
64.76,-182.0
64.83,-168.0
64.89,-166.0
64.95,-170.0
65.02,-156.0
65.08,-152.0
65.14,-173.0
65.21,-178.0
65.27,-170.0
65.33,-155.0
65.39,-164.0
65.46,-147.0
65.52,-158.0
65.58,-167.0
65.65,-156.0
65.71,-165.0
65.77,-155.0
65.84,-169.0
65.9,-161.0
65.96,-160.0
66.02,-164.0
66.09,-162.0
66.15,-151.0
66.21,-122.0
66.28,-125.0
66.34,-127.0
66.4,-119.0
66.47,-110.0
66.53,-107.0
66.59,-128.0
66.65,-123.0
66.72,-109.0
66.78,-106.0
66.84,-98.0
66.91,-90.0
66.97,-77.0
67.03,-62.0
67.1,-71.0
67.16,-70.0
67.22,-62.0
67.28,-57.0
67.35,-57.0
67.41,-71.0
67.47,-53.0
67.54,-59.0
67.6,-76.0
67.66,-79.0
67.73,-64.0
67.79,-38.0
67.85,-44.0
67.91,-38.0
67.98,-41.0
68.04,-49.0
68.1,-43.0
68.17,-64.0
68.23,-58.0
68.29,-38.0
68.36,-44.0
68.42,-46.0
68.48,-58.0
68.54,-28.0
68.61,-11.0
68.67,-23.0
68.73,-46.0
68.8,-32.0
68.86,-46.0
68.92,-48.0
68.99,-44.0
69.05,-33.0
69.11,-28.0
69.17,-47.0
69.24,-44.0
69.3,-49.0
69.36,-45.0
69.43,-24.0
69.49,-30.0
69.55,-26.0
69.62,-25.0
69.68,-20.0
69.74,-9.0
69.8,-36.0
69.87,-35.0
69.93,-7.0
69.99,-27.0
70.06,-32.0
70.12,-44.0
70.18,-39.0
70.25,-15.0
70.31,-17.0
70.37,-37.0
70.43,-65.0
70.5,-39.0
70.56,-47.0
70.62,-52.0
70.69,-76.0
70.75,-32.0
70.81,-43.0
70.88,-29.0
70.94,-40.0
71.0,-27.0
71.06,-16.0
71.13,-17.0
71.19,2.0
71.25,-25.0
71.32,-21.0
71.38,-7.0
71.44,-5.0
71.51,-10.0
71.57,-9.0
71.63,4.0
71.69,-6.0
71.76,-2.0
71.82,-27.0
71.88,-44.0
71.95,-23.0
72.01,-30.0
72.07,-39.0
72.14,-35.0
72.2,-21.0
72.26,-30.0
72.32,-24.0
72.39,-24.0
72.45,-11.0
72.51,-11.0
72.58,-36.0
72.64,-43.0
72.7,-27.0
72.77,-15.0
72.83,-33.0
72.89,2.0
72.95,-11.0
73.02,-16.0
73.08,11.0
73.14,0.0
73.21,-14.0
73.27,7.0
73.33,-5.0
73.4,-1.0
73.46,12.0
73.52,-4.0
73.58,11.0
73.65,8.0
73.71,14.0
73.77,10.0
73.84,12.0
73.9,25.0
73.96,31.0
74.03,24.0
74.09,32.0
74.15,36.0
74.21,33.0
74.28,63.0
74.34,51.0
74.4,26.0
74.47,36.0
74.53,32.0
74.59,25.0
74.66,31.0
74.72,23.0
74.78,34.0
74.84,39.0
74.91,28.0
74.97,35.0
75.03,41.0
75.1,37.0
75.16,48.0
75.22,47.0
75.29,53.0
75.35,73.0
75.41,46.0
75.47,54.0
75.54,67.0
75.6,46.0
75.66,55.0
75.73,44.0
75.79,57.0
75.85,47.0
75.92,55.0
75.98,50.0
76.04,48.0
76.1,57.0
76.17,38.0
76.23,46.0
76.29,62.0
76.36,73.0
76.42,72.0
76.48,81.0
76.55,77.0
76.61,75.0
76.67,62.0
76.73,61.0
76.8,69.0
76.86,51.0
76.92,77.0
76.99,69.0
77.05,48.0
77.11,69.0
77.18,62.0
77.24,58.0
77.3,70.0
77.36,78.0
77.43,58.0
77.49,74.0
77.55,79.0
77.62,59.0
77.68,52.0
77.74,48.0
77.81,31.0
77.87,43.0
77.93,48.0
77.99,52.0
78.06,32.0
78.12,32.0
78.18,23.0
78.25,10.0
78.31,13.0
78.37,18.0
78.44,9.0
78.5,-1.0
78.56,16.0
78.62,17.0
78.69,8.0
78.75,9.0
78.81,6.0
78.88,-3.0
78.94,-2.0
79.0,-6.0
79.07,-8.0
79.13,-30.0
79.19,-32.0
79.25,-50.0
79.32,-36.0
79.38,-46.0
79.44,-69.0
79.51,-69.0
79.57,-75.0
79.63,-83.0
79.7,-89.0
79.76,-95.0
79.82,-74.0
79.88,-65.0
79.95,-50.0
80.01,-80.0
80.07,-61.0
80.14,-68.0
80.2,-56.0
80.26,-69.0
80.33,-63.0
80.39,-70.0
80.45,-81.0
80.51,-54.0
80.58,-79.0
80.64,-84.0
80.7,-87.0
80.77,-72.0
80.83,-80.0
80.89,-74.0
80.96,-72.0
81.02,-76.0
81.08,-82.0
81.14,-66.0
81.21,-59.0
81.27,-71.0
81.33,-80.0
81.4,-65.0
81.46,-88.0
81.52,-99.0
81.59,-83.0
81.65,-100.0
81.71,-96.0
81.77,-89.0
81.84,-110.0
81.9,-122.0
81.96,-115.0
82.03,-125.0
82.09,-98.0
82.15,-121.0
82.22,-113.0
82.28,-99.0
82.34,-98.0
82.4,-99.0
82.47,-104.0
82.53,-102.0
82.59,-108.0
82.66,-90.0
82.72,-84.0
82.78,-77.0
82.85,-89.0
82.91,-104.0
82.97,-101.0
83.03,-74.0
83.1,-68.0
83.16,-66.0
83.22,-83.0
83.29,-81.0
83.35,-57.0
83.41,-57.0
83.48,-59.0
83.54,-46.0
83.6,-62.0
83.66,-74.0
83.73,-65.0
83.79,-64.0
83.85,-71.0
83.92,-62.0
83.98,-77.0
84.04,-90.0
84.11,-73.0
84.17,-48.0
84.23,-61.0
84.29,-83.0
84.36,-71.0
84.42,-57.0
84.48,-65.0
84.55,-55.0
84.61,-52.0
84.67,-57.0
84.74,-40.0
84.8,-31.0
84.86,-29.0
84.92,-8.0
84.99,-15.0
85.05,-12.0
85.11,-12.0
85.18,1.0
85.24,-11.0
85.3,5.0
85.37,-6.0
85.43,-5.0
85.49,-8.0
85.55,-16.0
85.62,-35.0
85.68,-37.0
85.74,-21.0
85.81,-10.0
85.87,-18.0
85.93,-1.0
86.0,4.0
86.06,-17.0
86.12,-10.0
86.18,-12.0
86.25,-24.0
86.31,5.0
86.37,-3.0
86.44,-25.0
86.5,-9.0
86.56,11.0
86.63,19.0
86.69,32.0
86.75,35.0
86.81,37.0
86.88,15.0
86.94,29.0
87.0,28.0
87.07,29.0
87.13,18.0
87.19,-3.0
87.26,-5.0
87.32,0.0
87.38,7.0
87.44,-2.0
87.51,-28.0
87.57,-11.0
87.63,-21.0
87.7,-11.0
87.76,5.0
87.82,6.0
87.89,-16.0
87.95,-9.0
88.01,-15.0
88.07,-28.0
88.14,-29.0
88.2,-7.0
88.26,-3.0
88.33,-5.0
88.39,-18.0
88.45,0.0
88.52,-10.0
88.58,-20.0
88.64,-10.0
88.7,-15.0
88.77,-28.0
88.83,-19.0
88.89,-27.0
88.96,-7.0
89.02,-4.0
89.08,4.0
89.15,10.0
89.21,-7.0
89.27,0.0
89.33,-9.0
89.4,1.0
89.46,1.0
89.52,-2.0
89.59,1.0
89.65,-6.0
89.71,15.0
89.78,-1.0
89.84,9.0
89.9,5.0
89.96,28.0
90.03,23.0
90.09,34.0
90.15,42.0
90.22,20.0
90.28,34.0
90.34,58.0
90.41,49.0
90.47,34.0
90.53,32.0
90.59,43.0
90.66,42.0
90.72,32.0
90.78,42.0
90.85,45.0
90.91,33.0
90.97,47.0
91.04,64.0
91.1,37.0
91.16,51.0
91.22,58.0
91.29,54.0
91.35,74.0
91.41,70.0
91.48,71.0
91.54,62.0
91.6,75.0
91.67,75.0
91.73,80.0
91.79,87.0
91.85,101.0
91.92,89.0
91.98,91.0
92.04,88.0
92.11,96.0
92.17,100.0
92.23,117.0
92.3,105.0
92.36,95.0
92.42,116.0
92.48,114.0
92.55,95.0
92.61,101.0
92.67,100.0
92.74,84.0
92.8,108.0
92.86,101.0
92.93,100.0
92.99,93.0
93.05,86.0
93.11,120.0
93.18,100.0
93.24,126.0
93.3,114.0
93.37,124.0
93.43,109.0
93.49,114.0
93.56,112.0
93.62,102.0
93.68,92.0
93.74,88.0
93.81,102.0
93.87,90.0
93.93,86.0
94.0,72.0
94.06,94.0
94.12,100.0
94.19,90.0
94.25,61.0
94.31,87.0
94.37,99.0
94.44,87.0
94.5,72.0
94.56,64.0
94.63,60.0
94.69,76.0
94.75,60.0
94.82,64.0
94.88,72.0
94.94,56.0
95.0,76.0
95.07,64.0
95.13,60.0
95.19,78.0
95.26,67.0
95.32,54.0
95.38,51.0
95.45,56.0
95.51,24.0
95.57,22.0
95.63,46.0
95.7,27.0
95.76,34.0
95.82,6.0
95.89,29.0
95.95,29.0
96.01,6.0
96.08,17.0
96.14,5.0
96.2,2.0
96.26,13.0
96.33,8.0
96.39,13.0
96.45,17.0
96.52,25.0
96.58,12.0
96.64,10.0
96.71,16.0
96.77,17.0
96.83,5.0
96.89,13.0
96.96,6.0
97.02,-3.0
97.08,5.0
97.15,-8.0
97.21,-25.0
97.27,-40.0
97.34,-14.0
97.4,-18.0
97.46,-27.0
97.52,-20.0
97.59,-25.0
97.65,-16.0
97.71,-48.0
97.78,-54.0
97.84,-50.0
97.9,-46.0
97.97,-56.0
98.03,-58.0
98.09,-45.0
98.15,-55.0
98.22,-64.0
98.28,-43.0
98.34,-63.0
98.41,-55.0
98.47,-67.0
98.53,-54.0
98.6,-41.0
98.66,-51.0
98.72,-47.0
98.78,-47.0
98.85,-26.0
98.91,-33.0
98.97,-42.0
99.04,-37.0
99.1,-42.0
99.16,-41.0
99.23,-30.0
99.29,-18.0
99.35,-37.0
99.41,-43.0
99.48,-20.0
99.54,-38.0
99.6,-27.0
99.67,-24.0
99.73,-15.0
99.79,-24.0
99.86,-28.0
99.92,-12.0
99.98,5.0
100.04,-10.0
100.11,0.0
100.17,-6.0
100.23,-10.0
100.3,11.0
100.36,24.0
100.42,18.0
100.49,3.0
100.55,6.0
100.61,-1.0
100.67,30.0
100.74,34.0
100.8,28.0
100.86,24.0
100.93,29.0
100.99,29.0
101.05,19.0
101.12,-1.0
101.18,9.0
101.24,19.0
101.3,0.0
101.37,11.0
101.43,38.0
101.49,34.0
101.56,42.0
101.62,39.0
101.68,31.0
101.75,35.0
101.81,44.0
101.87,53.0
101.93,41.0
102.0,48.0
102.06,49.0
102.12,61.0
102.19,55.0
102.25,60.0
102.31,57.0
102.38,67.0
102.44,78.0
102.5,75.0
102.56,80.0
102.63,78.0
102.69,68.0
102.75,66.0
102.82,73.0
102.88,94.0
102.94,74.0
103.01,82.0
103.07,64.0
103.13,68.0
103.19,80.0
103.26,77.0
103.32,57.0
103.38,50.0
103.45,63.0
103.51,44.0
103.57,44.0
103.64,46.0
103.7,44.0
103.76,28.0
103.82,48.0
103.89,45.0
103.95,31.0
104.01,15.0
104.08,31.0
104.14,33.0
104.2,27.0
104.27,37.0
104.33,45.0
104.39,49.0
104.45,50.0
104.52,31.0
104.58,45.0
104.64,41.0
104.71,31.0
104.77,33.0
104.83,24.0
104.9,20.0
104.96,28.0
105.02,12.0
105.08,4.0
105.15,8.0
105.21,21.0
105.27,1.0
105.34,-5.0
105.4,10.0
105.46,-1.0
105.53,-11.0
105.59,-7.0
105.65,-27.0
105.71,-14.0
105.78,-14.0
105.84,-12.0
105.9,-2.0
105.97,4.0
106.03,19.0
106.09,10.0
106.16,14.0
106.22,22.0
106.28,10.0
106.34,18.0
106.41,27.0
106.47,10.0
106.53,10.0
106.6,8.0
106.66,-8.0
106.72,17.0
106.79,28.0
106.85,26.0
106.91,18.0
106.97,18.0
107.04,21.0
107.1,19.0
107.16,18.0
107.23,26.0
107.29,22.0
107.35,22.0
107.42,3.0
107.48,21.0
107.54,20.0
107.6,22.0
107.67,22.0
107.73,24.0
107.79,15.0
107.86,11.0
107.92,24.0
107.98,34.0
108.05,18.0
108.11,32.0
108.17,35.0
108.23,37.0
108.3,44.0
108.36,41.0
108.42,14.0
108.49,20.0
108.55,25.0
108.61,38.0
108.68,33.0
108.74,17.0
108.8,35.0
108.86,41.0
108.93,44.0
108.99,28.0
109.05,28.0
109.12,24.0
109.18,40.0
109.24,39.0
109.31,30.0
109.37,27.0
109.43,24.0
109.49,44.0
109.56,41.0
109.62,39.0
109.68,37.0
109.75,50.0
109.81,50.0
109.87,52.0
109.94,50.0
110.0,46.0
110.06,57.0
110.12,46.0
110.19,47.0
110.25,47.0
110.31,49.0
110.38,48.0
110.44,63.0
110.5,74.0
110.57,67.0
110.63,62.0
110.69,59.0
110.75,57.0
110.82,34.0
110.88,50.0
110.94,60.0
111.01,72.0
111.07,74.0
111.13,59.0
111.2,32.0
111.26,35.0
111.32,46.0
111.38,27.0
111.45,27.0
111.51,24.0
111.57,36.0
111.64,26.0
111.7,15.0
111.76,26.0
111.83,19.0
111.89,13.0
111.95,5.0
112.01,6.0
112.08,10.0
112.14,18.0
112.2,6.0
112.27,9.0
112.33,12.0
112.39,26.0
112.46,-10.0
112.52,-8.0
112.58,0.0
112.64,1.0
112.71,12.0
112.77,15.0
112.83,7.0
112.9,12.0
112.96,-13.0
113.02,-19.0
113.09,-24.0
113.15,-25.0
113.21,-44.0
113.27,-45.0
113.34,-31.0
113.4,-44.0
113.46,-33.0
113.53,-42.0
113.59,-46.0
113.65,-39.0
113.72,-43.0
113.78,-33.0
113.84,-38.0
113.9,-45.0
113.97,-38.0
114.03,-14.0
114.09,-25.0
114.16,-23.0
114.22,-30.0
114.28,-10.0
114.35,-7.0
114.41,-29.0
114.47,-43.0
114.53,-31.0
114.6,-63.0
114.66,-65.0
114.72,-35.0
114.79,-39.0
114.85,-32.0
114.91,-30.0
114.98,-44.0
115.04,-25.0
115.1,-44.0
115.16,-48.0
115.23,-75.0
115.29,-75.0
115.35,-80.0
115.42,-78.0
115.48,-69.0
115.54,-65.0
115.61,-63.0
115.67,-88.0
115.73,-102.0
115.79,-81.0
115.86,-76.0
115.92,-63.0
115.98,-73.0
116.05,-67.0
116.11,-63.0
116.17,-70.0
116.24,-78.0
116.3,-70.0
116.36,-46.0
116.42,-60.0
116.49,-31.0
116.55,-30.0
116.61,-45.0
116.68,-53.0
116.74,-50.0
116.8,-40.0
116.87,-50.0
116.93,-48.0
116.99,-34.0
117.05,-27.0
117.12,-33.0
117.18,-24.0
117.24,-41.0
117.31,-26.0
117.37,-22.0
117.43,-18.0
117.5,-30.0
117.56,-40.0
117.62,-13.0
117.68,-2.0
117.75,7.0
117.81,13.0
117.87,18.0
117.94,6.0
118.0,24.0
118.06,3.0
118.13,3.0
118.19,16.0
118.25,22.0
118.31,12.0
118.38,24.0
118.44,16.0
118.5,29.0
118.57,27.0
118.63,-5.0
118.69,20.0
118.76,17.0
118.82,31.0
118.88,14.0
118.94,15.0
119.01,30.0
119.07,27.0
119.13,33.0
119.2,12.0
119.26,3.0
119.32,27.0
119.39,4.0
119.45,4.0
119.51,6.0
119.57,14.0
119.64,-5.0
119.7,-3.0
119.76,3.0
119.83,-23.0
119.89,-18.0
119.95,2.0
120.02,-9.0
120.08,1.0
120.14,9.0
120.2,16.0
120.27,31.0
120.33,25.0
120.39,28.0
120.46,1.0
120.52,7.0
120.58,15.0
120.65,5.0
120.71,-7.0
120.77,-18.0
120.83,18.0
120.9,-1.0
120.96,-7.0
121.02,11.0
121.09,9.0
121.15,43.0
121.21,46.0
121.28,34.0
121.34,-6.0
121.4,23.0
121.46,31.0
121.53,12.0
121.59,20.0
121.65,34.0
121.72,34.0
121.78,31.0
121.84,20.0
121.91,37.0
121.97,29.0
122.03,32.0
122.09,20.0
122.16,26.0
122.22,38.0
122.28,38.0
122.35,26.0
122.41,55.0
122.47,62.0
122.54,49.0
122.6,78.0
122.66,60.0
122.72,55.0
122.79,71.0
122.85,63.0
122.91,69.0
122.98,49.0
123.04,49.0
123.1,47.0
123.17,38.0
123.23,22.0
123.29,16.0
123.35,28.0
123.42,20.0
123.48,27.0
123.54,49.0
123.61,21.0
123.67,31.0
123.73,38.0
123.8,46.0
123.86,46.0
123.92,68.0
123.98,72.0
124.05,74.0
124.11,63.0
124.17,89.0
124.24,83.0
124.3,47.0
124.36,60.0
124.43,74.0
124.49,77.0
124.55,66.0
124.61,71.0
124.68,80.0
124.74,63.0
124.8,67.0
124.87,68.0
124.93,67.0
124.99,82.0
125.06,69.0
125.12,86.0
125.18,82.0
125.24,74.0
125.31,90.0
125.37,93.0
125.43,101.0
125.5,96.0
125.56,111.0
125.62,110.0
125.69,102.0
125.75,111.0
125.81,92.0
125.87,104.0
125.94,100.0
126.0,113.0
126.06,112.0
126.13,101.0
126.19,106.0
126.25,115.0
126.32,105.0
126.38,141.0
126.44,111.0
126.5,110.0
126.57,104.0
126.63,108.0
126.69,110.0
126.76,110.0
126.82,142.0
126.88,129.0
126.95,108.0
127.01,117.0
127.07,115.0
127.13,85.0
127.2,100.0
127.26,86.0
127.32,97.0
127.39,102.0
127.45,97.0
127.51,105.0
127.58,108.0
127.64,96.0
127.7,99.0
127.76,100.0
127.83,90.0
127.89,101.0
127.95,92.0
128.02,119.0
128.08,109.0
128.14,121.0
128.21,113.0
128.27,122.0
128.33,133.0
128.39,148.0
128.46,125.0
128.52,125.0
128.58,117.0
128.65,123.0
128.71,118.0
128.77,130.0
128.84,89.0
128.9,108.0
128.96,103.0
129.02,98.0
129.09,107.0
129.15,90.0
129.21,85.0
129.28,105.0
129.34,95.0
129.4,76.0
129.47,65.0
129.53,82.0
129.59,103.0
129.65,82.0
129.72,85.0
129.78,87.0
129.84,77.0
129.91,92.0
129.97,68.0
130.03,78.0
130.1,56.0
130.16,46.0
130.22,63.0
130.28,44.0
130.35,47.0
130.41,58.0
130.47,40.0
130.54,43.0
130.6,31.0
130.66,30.0
130.73,15.0
130.79,20.0
130.85,34.0
130.91,13.0
130.98,16.0
131.04,13.0
131.1,9.0
131.17,9.0
131.23,0.0
131.29,13.0
131.36,27.0
131.42,30.0
131.48,25.0
131.54,7.0
131.61,20.0
131.67,7.0
131.73,2.0
131.8,7.0
131.86,18.0
131.92,21.0
131.99,33.0
132.05,27.0
132.11,-2.0
132.17,8.0
132.24,32.0
132.3,3.0
132.36,14.0
132.43,8.0
132.49,22.0
132.55,12.0
132.62,23.0
132.68,30.0
132.74,-3.0
132.8,4.0
132.87,23.0
132.93,45.0
132.99,40.0
133.06,19.0
133.12,41.0
133.18,72.0
133.25,66.0
133.31,48.0
133.37,44.0
133.43,38.0
133.5,48.0
133.56,53.0
133.62,55.0
133.69,50.0
133.75,55.0
133.81,52.0
133.88,49.0
133.94,69.0
134.0,73.0
134.06,52.0
134.13,75.0
134.19,69.0
134.25,52.0
134.32,54.0
134.38,52.0
134.44,55.0
134.51,68.0
134.57,37.0
134.63,29.0
134.69,52.0
134.76,90.0
134.82,60.0
134.88,32.0
134.95,34.0
135.01,65.0
135.07,55.0
135.14,39.0
135.2,45.0
135.26,57.0
135.32,66.0
135.39,68.0
135.45,62.0
135.51,47.0
135.58,48.0
135.64,31.0
135.7,48.0
135.77,47.0
135.83,48.0
135.89,58.0
135.95,59.0
136.02,67.0
136.08,78.0
136.14,82.0
136.21,82.0
136.27,97.0
136.33,98.0
136.4,87.0
136.46,96.0
136.52,103.0
136.58,103.0
136.65,106.0
136.71,114.0
136.77,107.0
136.84,97.0
136.9,90.0
136.96,81.0
137.03,82.0
137.09,67.0
137.15,85.0
137.21,81.0
137.28,81.0
137.34,70.0
137.4,65.0
137.47,77.0
137.53,47.0
137.59,41.0
137.66,69.0
137.72,55.0
137.78,37.0
137.84,60.0
137.91,53.0
137.97,45.0
138.03,39.0
138.1,40.0
138.16,22.0
138.22,37.0
138.29,48.0
138.35,48.0
138.41,38.0
138.47,28.0
138.54,23.0
138.6,23.0
138.66,36.0
138.73,27.0
138.79,23.0
138.85,8.0
138.92,26.0
138.98,20.0
139.04,18.0
139.1,20.0
139.17,0.0
139.23,37.0
139.29,32.0
139.36,27.0
139.42,45.0
139.48,35.0
139.55,28.0
139.61,18.0
139.67,28.0
139.73,26.0
139.8,46.0
139.86,35.0
139.92,62.0
139.99,42.0
140.05,45.0
140.11,31.0
140.18,48.0
140.24,45.0
140.3,45.0
140.36,33.0
140.43,56.0
140.49,70.0
140.55,74.0
140.62,62.0
140.68,51.0
140.74,42.0
140.81,53.0
140.87,41.0
140.93,36.0
140.99,38.0
141.06,30.0
141.12,59.0
141.18,55.0
141.25,62.0
141.31,43.0
141.37,55.0
141.44,68.0
141.5,73.0
141.56,68.0
141.62,64.0
141.69,62.0
141.75,62.0
141.81,77.0
141.88,59.0
141.94,72.0
142.0,50.0
142.07,55.0
142.13,63.0
142.19,63.0
142.25,42.0
142.32,51.0
142.38,56.0
142.44,66.0
142.51,79.0
142.57,62.0
142.63,49.0
142.7,69.0
142.76,65.0
142.82,71.0
142.88,80.0
142.95,66.0
143.01,58.0
143.07,72.0
143.14,86.0
143.2,86.0
143.26,78.0
143.33,71.0
143.39,89.0
143.45,80.0
143.51,78.0
143.58,65.0
143.64,74.0
143.7,83.0
143.77,88.0
143.83,53.0
143.89,67.0
143.96,82.0
144.02,73.0
144.08,85.0
144.14,82.0
144.21,78.0
144.27,66.0
144.33,48.0
144.4,52.0
144.46,57.0
144.52,48.0
144.59,54.0
144.65,67.0
144.71,58.0
144.77,48.0
144.84,62.0
144.9,68.0
144.96,67.0
145.03,63.0
145.09,38.0
145.15,29.0
145.22,16.0
145.28,27.0
145.34,28.0
145.4,25.0
145.47,42.0
145.53,42.0
145.59,39.0
145.66,46.0
145.72,27.0
145.78,47.0
145.85,73.0
145.91,60.0
145.97,51.0
146.03,47.0
146.1,41.0
146.16,38.0
146.22,30.0
146.29,10.0
146.35,22.0
146.41,16.0
146.47,0.0
146.54,7.0
146.6,20.0
146.66,3.0
146.73,21.0
146.79,8.0
146.85,11.0
146.92,10.0
146.98,-8.0
147.04,-18.0
147.1,-5.0
147.17,-13.0
147.23,-10.0
147.29,-26.0
147.36,-11.0
147.42,5.0
147.48,-3.0
147.55,5.0
147.61,10.0
147.67,-22.0
147.73,-21.0
147.8,-8.0
147.86,-19.0
147.92,-19.0
147.99,-21.0
148.05,-31.0
148.11,-35.0
148.18,-34.0
148.24,-19.0
148.3,-47.0
148.36,-35.0
148.43,-39.0
148.49,-25.0
148.55,-44.0
148.62,-34.0
148.68,-7.0
148.74,-13.0
148.81,-10.0
148.87,8.0
148.93,-4.0
148.99,-14.0
149.06,-1.0
149.12,2.0
149.18,4.0
149.25,10.0
149.31,9.0
149.37,6.0
149.44,20.0
149.5,8.0
149.56,18.0
149.62,25.0
149.69,21.0
149.75,6.0
149.81,21.0
149.88,28.0
149.94,24.0
150.0,18.0
150.07,39.0
150.13,55.0
150.19,35.0
150.25,44.0
150.32,39.0
150.38,43.0
150.44,51.0
150.51,43.0
150.57,31.0
150.63,29.0
150.7,32.0
150.76,43.0
150.82,56.0
150.88,46.0
150.95,50.0
151.01,43.0
151.07,22.0
151.14,24.0
151.2,37.0
151.26,50.0
151.33,36.0
151.39,42.0
151.45,48.0
151.51,55.0
151.58,63.0
151.64,66.0
151.7,76.0
151.77,87.0
151.83,85.0
151.89,86.0
151.96,110.0
152.02,79.0
152.08,79.0
152.14,92.0
152.21,95.0
152.27,87.0
152.33,88.0
152.4,92.0
152.46,77.0
152.52,80.0
152.59,93.0
152.65,94.0
152.71,87.0
152.77,85.0
152.84,99.0
152.9,87.0
152.96,87.0
153.03,94.0
153.09,74.0
153.15,69.0
153.22,113.0
153.28,72.0
153.34,68.0
153.4,65.0
153.47,59.0
153.53,53.0
153.59,64.0
153.66,61.0
153.72,60.0
153.78,52.0
153.85,52.0
153.91,51.0
153.97,51.0
154.03,64.0
154.1,52.0
154.16,71.0
154.22,74.0
154.29,51.0
154.35,38.0
154.41,41.0
154.48,41.0
154.54,35.0
154.6,46.0
154.66,46.0
154.73,51.0
154.79,55.0
154.85,35.0
154.92,27.0
154.98,55.0
155.04,66.0
155.11,37.0
155.17,56.0
155.23,57.0
155.29,71.0
155.36,56.0
155.42,49.0
155.48,52.0
155.55,74.0
155.61,80.0
155.67,82.0
155.74,57.0
155.8,44.0
155.86,42.0
155.92,37.0
155.99,36.0
156.05,31.0
156.11,34.0
156.18,41.0
156.24,63.0
156.3,50.0
156.37,65.0
156.43,49.0
156.49,50.0
156.55,39.0
156.62,51.0
156.68,70.0
156.74,61.0
156.81,57.0
156.87,57.0
156.93,62.0
157.0,62.0
157.06,60.0
157.12,68.0
157.18,63.0
157.25,60.0
157.31,74.0
157.37,61.0
157.44,77.0
157.5,70.0
157.56,68.0
157.63,60.0
157.69,65.0
157.75,78.0
157.81,87.0
157.88,104.0
157.94,101.0
158.0,108.0
158.07,118.0
158.13,125.0
158.19,123.0
158.26,141.0
158.32,135.0
158.38,147.0
158.44,143.0
158.51,137.0
158.57,143.0
158.63,130.0
158.7,114.0
158.76,121.0
158.82,139.0
158.89,127.0
158.95,127.0
159.01,139.0
159.07,148.0
159.14,142.0
159.2,124.0
159.26,130.0
159.33,157.0
159.39,157.0
159.45,160.0
159.52,170.0
159.58,182.0
159.64,185.0
159.7,177.0
159.77,175.0
159.83,160.0
159.89,155.0
159.96,160.0
160.02,160.0
160.08,158.0
160.15,134.0
160.21,124.0
160.27,144.0
160.33,142.0
160.4,140.0
160.46,143.0
160.52,144.0
160.59,143.0
160.65,142.0
160.71,139.0
160.78,137.0
160.84,138.0
160.9,111.0
160.96,116.0
161.03,120.0
161.09,126.0
161.15,135.0
161.22,144.0
161.28,131.0
161.34,122.0
161.41,140.0
161.47,131.0
161.53,111.0
161.59,110.0
161.66,85.0
161.72,99.0
161.78,94.0
161.85,89.0
161.91,95.0
161.97,99.0
162.04,72.0
162.1,74.0
162.16,80.0
162.22,82.0
162.29,65.0
162.35,72.0
162.41,67.0
162.48,55.0
162.54,54.0
162.6,57.0
162.67,61.0
162.73,57.0
162.79,54.0
162.85,47.0
162.92,47.0
162.98,51.0
163.04,43.0
163.11,42.0
163.17,40.0
163.23,36.0
163.3,39.0
163.36,38.0
163.42,52.0
163.48,20.0
163.55,14.0
163.61,25.0
163.67,33.0
163.74,48.0
163.8,44.0
163.86,44.0
163.93,42.0
163.99,24.0
164.05,25.0
164.11,6.0
164.18,5.0
164.24,16.0
164.3,-1.0
164.37,4.0
164.43,-9.0
164.49,-7.0
164.56,-11.0
164.62,-4.0
164.68,-15.0
164.74,-3.0
164.81,-10.0
164.87,-3.0
164.93,-2.0
165.0,-11.0
165.06,-1.0
165.12,2.0
165.19,-10.0
165.25,-5.0
165.31,-5.0
165.37,-30.0
165.44,-16.0
165.5,-20.0
165.56,-23.0
165.63,7.0
165.69,-10.0
165.75,-26.0
165.82,-23.0
165.88,-17.0
165.94,-20.0
166.0,-8.0
166.07,-8.0
166.13,-46.0
166.19,-38.0
166.26,-38.0
166.32,-19.0
166.38,-12.0
166.45,-23.0
166.51,-19.0
166.57,-13.0
166.63,-18.0
166.7,-12.0
166.76,-13.0
166.82,-19.0
166.89,-29.0
166.95,-7.0
167.01,-18.0
167.08,-16.0
167.14,-31.0
167.2,-11.0
167.26,-14.0
167.33,-30.0
167.39,0.0
167.45,0.0
167.52,-11.0
167.58,-12.0
167.64,-33.0
167.71,-26.0
167.77,-20.0
167.83,-30.0
167.89,-15.0
167.96,-16.0
168.02,-11.0
168.08,8.0
168.15,-13.0
168.21,-31.0
168.27,-16.0
168.34,-7.0
168.4,-2.0
168.46,-4.0
168.52,-7.0
168.59,-6.0
168.65,-22.0
168.71,-12.0
168.78,-24.0
168.84,-20.0
168.9,-20.0
168.97,-34.0
169.03,-45.0
169.09,-26.0
169.15,-34.0
169.22,-64.0
169.28,-17.0
169.34,-21.0
169.41,-17.0
169.47,-6.0
169.53,-14.0
169.6,-4.0
169.66,8.0
169.72,-13.0
169.78,-13.0
169.85,-4.0
169.91,-10.0
169.97,5.0
170.04,20.0
170.1,12.0
170.16,25.0
170.23,37.0
170.29,23.0
170.35,2.0
170.41,31.0
170.48,17.0
170.54,10.0
170.6,22.0
170.67,1.0
170.73,7.0
170.79,-1.0
170.86,-14.0
170.92,3.0
170.98,16.0
171.04,-12.0
171.11,5.0
171.17,2.0
171.23,-10.0
171.3,-6.0
171.36,-16.0
171.42,-22.0
171.49,2.0
171.55,-23.0
171.61,-14.0
171.67,-10.0
171.74,-4.0
171.8,2.0
171.86,5.0
171.93,-1.0
171.99,-19.0
172.05,-22.0
172.12,-16.0
172.18,-25.0
172.24,-21.0
172.3,-24.0
172.37,-11.0
172.43,-2.0
172.49,-29.0
172.56,-30.0
172.62,-17.0
172.68,-23.0
172.75,-4.0
172.81,-13.0
172.87,-41.0
172.93,-34.0
173.0,-17.0
173.06,-8.0
173.12,15.0
173.19,2.0
173.25,6.0
173.31,29.0
173.38,25.0
173.44,45.0
173.5,36.0
173.56,25.0
173.63,43.0
173.69,22.0
173.75,25.0
173.82,26.0
173.88,32.0
173.94,31.0
174.01,50.0
174.07,50.0
174.13,56.0
174.19,63.0
174.26,70.0
174.32,84.0
174.38,81.0
174.45,81.0
174.51,78.0
174.57,76.0
174.64,69.0
174.7,80.0
174.76,78.0
174.82,75.0
174.89,76.0
174.95,72.0
175.01,72.0
175.08,85.0
175.14,80.0
175.2,91.0
175.27,92.0
175.33,99.0
175.39,115.0
175.45,84.0
175.52,102.0
175.58,118.0
175.64,133.0
175.71,126.0
175.77,120.0
175.83,118.0
175.9,97.0
175.96,98.0
176.02,110.0
176.08,128.0
176.15,147.0
176.21,133.0
176.27,117.0
176.34,120.0
176.4,122.0
176.46,118.0
176.53,123.0
176.59,131.0
176.65,140.0
176.71,118.0
176.78,115.0
176.84,147.0
176.9,136.0
176.97,140.0
177.03,157.0
177.09,152.0
177.16,140.0
177.22,155.0
177.28,154.0
177.34,155.0
177.41,145.0
177.47,143.0
177.53,143.0
177.6,140.0
177.66,158.0
177.72,147.0
177.79,128.0
177.85,142.0
177.91,139.0
177.97,126.0
178.04,125.0
178.1,128.0
178.16,150.0
178.23,140.0
178.29,150.0
178.35,143.0
178.42,150.0
178.48,156.0
178.54,162.0
178.6,165.0
178.67,169.0
178.73,182.0
178.79,176.0
178.86,183.0
178.92,182.0
178.98,178.0
179.05,171.0
179.11,173.0
179.17,179.0
179.23,174.0
179.3,157.0
179.36,169.0
179.42,167.0
179.49,179.0
179.55,178.0
179.61,169.0
179.68,174.0
179.74,160.0
179.8,182.0
179.86,181.0
179.93,176.0
179.99,178.0
180.05,164.0
180.12,143.0
180.18,143.0
180.24,154.0
180.31,146.0
180.37,159.0
180.43,143.0
180.49,159.0
180.56,158.0
180.62,141.0
180.68,146.0
180.75,159.0
180.81,144.0
180.87,126.0
180.94,149.0
181.0,145.0
181.06,122.0
181.12,114.0
181.19,109.0
181.25,152.0
181.31,154.0
181.38,139.0
181.44,162.0
181.5,153.0
181.57,107.0
181.63,84.0
181.69,86.0
181.75,95.0
181.82,89.0
181.88,81.0
181.94,69.0
182.01,37.0
182.07,71.0
182.13,66.0
182.2,89.0
182.26,70.0
182.32,78.0
182.38,68.0
182.45,79.0
182.51,84.0
182.57,79.0
182.64,81.0
182.7,69.0
182.76,79.0
182.83,72.0
182.89,61.0
182.95,70.0
183.01,80.0
183.08,77.0
183.14,74.0
183.2,58.0
183.27,66.0
183.33,49.0
183.39,45.0
183.46,70.0
183.52,66.0
183.58,62.0
183.64,61.0
183.71,63.0
183.77,85.0
183.83,100.0
183.9,94.0
183.96,100.0
184.02,88.0
184.09,88.0
184.15,72.0
184.21,84.0
184.27,94.0
184.34,89.0
184.4,91.0
184.46,83.0
184.53,81.0
184.59,70.0
184.65,67.0
184.72,97.0
184.78,100.0
184.84,101.0
184.9,96.0
184.97,76.0
185.03,72.0
185.09,75.0
185.16,91.0
185.22,82.0
185.28,83.0
185.35,96.0
185.41,80.0
185.47,81.0
185.53,96.0
185.6,100.0
185.66,98.0
185.72,112.0
185.79,113.0
185.85,120.0
185.91,143.0
185.98,110.0
186.04,117.0
186.1,106.0
186.16,106.0
186.23,115.0
186.29,114.0
186.35,127.0
186.42,130.0
186.48,130.0
186.54,115.0
186.61,110.0
186.67,100.0
186.73,85.0
186.79,84.0
186.86,92.0
186.92,97.0
186.98,93.0
187.05,111.0
187.11,101.0
187.17,89.0
187.24,67.0
187.3,72.0
187.36,85.0
187.42,87.0
187.49,108.0
187.55,85.0
187.61,93.0
187.68,92.0
187.74,92.0
187.8,94.0
187.87,94.0
187.93,102.0
187.99,88.0
188.05,76.0
188.12,103.0
188.18,91.0
188.24,77.0
188.31,81.0
188.37,108.0
188.43,95.0
188.5,95.0
188.56,91.0
188.62,84.0
188.68,101.0
188.75,88.0
188.81,74.0
188.87,60.0
188.94,78.0
189.0,79.0
189.06,56.0
189.13,78.0
189.19,82.0
189.25,72.0
189.31,52.0
189.38,64.0
189.44,48.0
189.5,63.0
189.57,66.0
189.63,42.0
189.69,47.0
189.76,44.0
189.82,41.0
189.88,52.0
189.94,53.0
190.01,66.0
190.07,66.0
190.13,80.0
190.2,47.0
190.26,73.0
190.32,65.0
190.39,58.0
190.45,75.0
190.51,49.0
190.57,54.0
190.64,49.0
190.7,45.0
190.76,35.0
190.83,41.0
190.89,55.0
190.95,64.0
191.02,75.0
191.08,64.0
191.14,70.0
191.2,89.0
191.27,99.0
191.33,90.0
191.39,95.0
191.46,92.0
191.52,87.0
191.58,86.0
191.65,70.0
191.71,99.0
191.77,97.0
191.83,103.0
191.9,88.0
191.96,77.0
192.02,95.0
192.09,76.0
192.15,108.0
192.21,106.0
192.28,109.0
192.34,96.0
192.4,91.0
192.46,102.0
192.53,94.0
192.59,94.0
192.65,102.0
192.72,110.0
192.78,95.0
192.84,94.0
192.91,87.0
192.97,85.0
193.03,106.0
193.09,104.0
193.16,99.0
193.22,92.0
193.28,94.0
193.35,88.0
193.41,80.0
193.47,81.0
193.54,87.0
193.6,74.0
193.66,66.0
193.72,58.0
193.79,77.0
193.85,94.0
193.91,82.0
193.98,71.0
194.04,81.0
194.1,97.0
194.17,95.0
194.23,90.0
194.29,96.0
194.35,90.0
194.42,93.0
194.48,94.0
194.54,85.0
194.61,99.0
194.67,114.0
194.73,122.0
194.8,82.0
194.86,128.0
194.92,109.0
194.98,97.0
195.05,108.0
195.11,103.0
195.17,124.0
195.24,119.0
195.3,130.0
195.36,116.0
195.43,121.0
195.49,129.0
195.55,123.0
195.61,118.0
195.68,124.0
195.74,131.0
195.8,98.0
195.87,132.0
195.93,135.0
195.99,119.0
196.06,122.0
196.12,111.0
196.18,108.0
196.24,126.0
196.31,117.0
196.37,129.0
196.43,126.0
196.5,110.0
196.56,92.0
196.62,99.0
196.69,134.0
196.75,94.0
196.81,101.0
196.87,107.0
196.94,95.0
197.0,84.0
197.06,77.0
197.13,74.0
197.19,84.0
197.25,94.0
197.32,105.0
197.38,89.0
197.44,70.0
197.5,62.0
197.57,62.0
197.63,71.0
197.69,67.0
197.76,66.0
197.82,76.0
197.88,69.0
197.95,76.0
198.01,74.0
198.07,56.0
198.13,66.0
198.2,63.0
198.26,39.0
198.32,53.0
198.39,56.0
198.45,61.0
198.51,61.0
198.58,64.0
198.64,54.0
198.7,44.0
198.76,56.0
198.83,66.0
198.89,59.0
198.95,32.0
199.02,50.0
199.08,50.0
199.14,33.0
199.21,47.0
199.27,39.0
199.33,30.0
199.39,52.0
199.46,57.0
199.52,70.0
199.58,41.0
199.65,41.0
199.71,46.0
199.77,42.0
199.84,39.0
199.9,24.0
199.96,50.0
200.02,63.0
200.09,73.0
200.15,78.0
200.21,62.0
200.28,64.0
200.34,84.0
200.4,83.0
200.47,95.0
200.53,85.0
200.59,59.0
200.65,67.0
200.72,61.0
200.78,75.0
200.84,79.0
200.91,73.0
200.97,90.0
201.03,80.0
201.1,48.0
201.16,27.0
201.22,27.0
201.28,51.0
201.35,51.0
201.41,42.0
201.47,41.0
201.54,54.0
201.6,52.0
201.66,63.0
201.73,64.0
201.79,70.0
201.85,81.0
201.91,89.0
201.98,87.0
202.04,74.0
202.1,80.0
202.17,80.0
202.23,61.0
202.29,56.0
202.36,69.0
202.42,66.0
202.48,60.0
202.54,81.0
202.61,58.0
202.67,66.0
202.73,85.0
202.8,61.0
202.86,55.0
202.92,70.0
202.99,60.0
203.05,81.0
203.11,70.0
203.17,60.0
203.24,56.0
203.3,55.0
203.36,73.0
203.43,75.0
203.49,70.0
203.55,92.0
203.62,101.0
203.68,86.0
203.74,73.0
203.8,85.0
203.87,83.0
203.93,80.0
203.99,84.0
204.06,86.0
204.12,63.0
204.18,60.0
204.25,60.0
204.31,80.0
204.37,69.0
204.43,64.0
204.5,73.0
204.56,66.0
204.62,62.0
204.69,75.0
204.75,94.0
204.81,83.0
204.88,77.0
204.94,75.0
205.0,87.0
205.06,85.0
205.13,74.0
205.19,81.0
205.25,70.0
205.32,55.0
205.38,66.0
205.44,74.0
205.51,82.0
205.57,72.0
205.63,38.0
205.69,31.0
205.76,43.0
205.82,28.0
205.88,18.0
205.95,35.0
206.01,24.0
206.07,42.0
206.14,33.0
206.2,36.0
206.26,41.0
206.32,27.0
206.39,8.0
206.45,18.0
206.51,12.0
206.58,23.0
206.64,8.0
206.7,15.0
206.77,46.0
206.83,41.0
206.89,30.0
206.95,50.0
207.02,74.0
207.08,62.0
207.14,61.0
207.21,94.0
207.27,71.0
207.33,73.0
207.4,63.0
207.46,63.0
207.52,68.0
207.58,86.0
207.65,85.0
207.71,77.0
207.77,67.0
207.84,70.0
207.9,75.0
207.96,70.0
208.03,94.0
208.09,89.0
208.15,59.0
208.21,63.0
208.28,81.0
208.34,99.0
208.4,122.0
208.47,94.0
208.53,99.0
208.59,116.0
208.66,105.0
208.72,103.0
208.78,117.0
208.84,134.0
208.91,120.0
208.97,112.0
209.03,92.0
209.1,108.0
209.16,111.0
209.22,106.0
209.29,121.0
209.35,121.0
209.41,118.0
209.47,118.0
209.54,133.0
209.6,126.0
209.66,127.0
209.73,121.0
209.79,116.0
209.85,106.0
209.92,104.0
209.98,121.0
210.04,122.0
210.1,114.0
210.17,135.0
210.23,135.0
210.29,138.0
210.36,122.0
210.42,141.0
210.48,121.0
210.55,130.0
210.61,157.0
210.67,150.0
210.73,151.0
210.8,145.0
210.86,163.0
210.92,151.0
210.99,144.0
211.05,151.0
211.11,171.0
211.18,165.0
211.24,167.0
211.3,138.0
211.36,133.0
211.43,131.0
211.49,137.0
211.55,135.0
211.62,140.0
211.68,139.0
211.74,140.0
211.81,146.0
211.87,141.0
211.93,148.0
211.99,160.0
212.06,146.0
212.12,143.0
212.18,158.0
212.25,144.0
212.31,125.0
212.37,113.0
212.44,141.0
212.5,147.0
212.56,142.0
212.62,147.0
212.69,147.0
212.75,157.0
212.81,151.0
212.88,147.0
212.94,163.0
213.0,147.0
213.07,147.0
213.13,132.0
213.19,133.0
213.25,147.0
213.32,131.0
213.38,113.0
213.44,116.0
213.51,108.0
213.57,106.0
213.63,128.0
213.7,122.0
213.76,129.0
213.82,143.0
213.88,123.0
213.95,128.0
214.01,110.0
214.07,99.0
214.14,111.0
214.2,83.0
214.26,89.0
214.33,105.0
214.39,103.0
214.45,96.0
214.51,118.0
214.58,108.0
214.64,111.0
214.7,121.0
214.77,95.0
214.83,113.0
214.89,94.0
214.96,97.0
215.02,82.0
215.08,64.0
215.14,75.0
215.21,77.0
215.27,59.0
215.33,66.0
215.4,72.0
215.46,74.0
215.52,92.0
215.59,80.0
215.65,60.0
215.71,57.0
215.77,56.0
215.84,58.0
215.9,45.0
215.96,46.0
216.03,52.0
216.09,54.0
216.15,37.0
216.22,38.0
216.28,31.0
216.34,27.0
216.4,46.0
216.47,57.0
216.53,41.0
216.59,48.0
216.66,43.0
216.72,30.0
216.78,37.0
216.85,42.0
216.91,22.0
216.97,45.0
217.03,48.0
217.1,22.0
217.16,17.0
217.22,17.0
217.29,19.0
217.35,4.0
217.41,34.0
217.48,42.0
217.54,44.0
217.6,61.0
217.66,47.0
217.73,40.0
217.79,44.0
217.85,37.0
217.92,39.0
217.98,66.0
218.04,28.0
218.11,29.0
218.17,45.0
218.23,45.0
218.29,70.0
218.36,63.0
218.42,33.0
218.48,45.0
218.55,48.0
218.61,43.0
218.67,47.0
218.74,33.0
218.8,59.0
218.86,64.0
218.92,75.0
218.99,58.0
219.05,62.0
219.11,52.0
219.18,44.0
219.24,57.0
219.3,51.0
219.37,66.0
219.43,71.0
219.49,62.0
219.55,27.0
219.62,61.0
219.68,51.0
219.74,44.0
219.81,39.0
219.87,52.0
219.93,59.0
220.0,40.0
220.06,52.0
220.12,55.0
220.18,47.0
220.25,41.0
220.31,50.0
220.37,58.0
220.44,65.0
220.5,58.0
220.56,56.0
220.63,65.0
220.69,55.0
220.75,70.0
220.81,66.0
220.88,87.0
220.94,88.0
221.0,66.0
221.07,76.0
221.13,73.0
221.19,37.0
221.26,39.0
221.32,63.0
221.38,43.0
221.44,67.0
221.51,47.0
221.57,70.0
221.63,63.0
221.7,51.0
221.76,52.0
221.82,50.0
221.89,45.0
221.95,23.0
222.01,29.0
222.07,29.0
222.14,47.0
222.2,38.0
222.26,52.0
222.33,47.0
222.39,40.0
222.45,64.0
222.52,63.0
222.58,52.0
222.64,56.0
222.7,54.0
222.77,45.0
222.83,29.0
222.89,59.0
222.96,39.0
223.02,37.0
223.08,30.0
223.15,45.0
223.21,42.0
223.27,30.0
223.33,65.0
223.4,72.0
223.46,41.0
223.52,43.0
223.59,26.0
223.65,33.0
223.71,50.0
223.78,53.0
223.84,21.0
223.9,33.0
223.96,52.0
224.03,33.0
224.09,57.0
224.15,55.0
224.22,47.0
224.28,12.0
224.34,41.0
224.41,46.0
224.47,46.0
224.53,89.0
224.59,84.0
224.66,65.0
224.72,74.0
224.78,61.0
224.85,47.0
224.91,52.0
224.97,63.0
225.04,78.0
225.1,81.0
225.16,81.0
225.22,68.0
225.29,82.0
225.35,66.0
225.41,81.0
225.48,83.0
225.54,83.0
225.6,97.0
225.67,108.0
225.73,105.0
225.79,110.0
225.85,99.0
225.92,97.0
225.98,119.0
226.04,102.0
226.11,89.0
226.17,102.0
226.23,104.0
226.3,119.0
226.36,118.0
226.42,109.0
226.48,111.0
226.55,124.0
226.61,118.0
226.67,105.0
226.74,106.0
226.8,118.0
226.86,111.0
226.93,107.0
226.99,106.0
227.05,88.0
227.11,88.0
227.18,97.0
227.24,95.0
227.3,90.0
227.37,83.0
227.43,74.0
227.49,103.0
227.56,107.0
227.62,95.0
227.68,81.0
227.74,98.0
227.81,81.0
227.87,84.0
227.93,76.0
228.0,69.0
228.06,112.0
228.12,118.0
228.19,118.0
228.25,102.0
228.31,104.0
228.37,88.0
228.44,123.0
228.5,111.0
228.56,98.0
228.63,102.0
228.69,122.0
228.75,110.0
228.82,104.0
228.88,106.0
228.94,96.0
229.0,100.0
229.07,80.0
229.13,95.0
229.19,103.0
229.26,88.0
229.32,93.0
229.38,134.0
229.45,124.0
229.51,106.0
229.57,113.0
229.63,103.0
229.7,100.0
229.76,89.0
229.82,103.0
229.89,110.0
229.95,130.0
230.01,138.0
230.08,130.0
230.14,110.0
230.2,120.0
230.26,116.0
230.33,106.0
230.39,100.0
230.45,105.0
230.52,114.0
230.58,113.0
230.64,99.0
230.71,95.0
230.77,106.0
230.83,100.0
230.89,96.0
230.96,81.0
231.02,91.0
231.08,99.0
231.15,78.0
231.21,99.0
231.27,107.0
231.34,101.0
231.4,85.0
231.46,99.0
231.52,87.0
231.59,84.0
231.65,89.0
231.71,97.0
231.78,103.0
231.84,106.0
231.9,70.0
231.97,101.0
232.03,84.0
232.09,69.0
232.15,69.0
232.22,92.0
232.28,93.0
232.34,91.0
232.41,92.0
232.47,91.0
232.53,72.0
232.6,72.0
232.66,89.0
232.72,53.0
232.78,68.0
232.85,89.0
232.91,88.0
232.97,94.0
233.04,84.0
233.1,100.0
233.16,91.0
233.23,82.0
233.29,98.0
233.35,84.0
233.41,99.0
233.48,73.0
233.54,73.0
233.6,62.0
233.67,62.0
233.73,84.0
233.79,75.0
233.86,65.0
233.92,63.0
233.98,84.0
234.04,72.0
234.11,77.0
234.17,81.0
234.23,69.0
234.3,50.0
234.36,37.0
234.42,34.0
234.49,77.0
234.55,94.0
234.61,75.0
234.67,64.0
234.74,75.0
234.8,63.0
234.86,43.0
234.93,69.0
234.99,70.0
235.05,40.0
235.12,52.0
235.18,75.0
235.24,59.0
235.3,70.0
235.37,60.0
235.43,50.0
235.49,59.0
235.56,71.0
235.62,70.0
235.68,58.0
235.75,58.0
235.81,44.0
235.87,55.0
235.93,59.0
236.0,52.0
236.06,59.0
236.12,53.0
236.19,66.0
236.25,70.0
236.31,58.0
236.38,86.0
236.44,77.0
236.5,56.0
236.56,84.0
236.63,86.0
236.69,106.0
236.75,101.0
236.82,103.0
236.88,91.0
236.94,79.0
237.01,80.0
237.07,69.0
237.13,88.0
237.19,101.0
237.26,99.0
237.32,99.0
237.38,104.0
237.45,88.0
237.51,101.0
237.57,90.0
237.64,120.0
237.7,112.0
237.76,116.0
237.82,135.0
237.89,104.0
237.95,95.0
238.01,95.0
238.08,79.0
238.14,93.0
238.2,103.0
238.27,103.0
238.33,83.0
238.39,74.0
238.45,81.0
238.52,78.0
238.58,85.0
238.64,84.0
238.71,88.0
238.77,77.0
238.83,88.0
238.9,103.0
238.96,80.0
239.02,81.0
239.08,74.0
239.15,81.0
239.21,77.0
239.27,82.0
239.34,97.0
239.4,103.0
239.46,97.0
239.53,126.0
239.59,110.0
239.65,95.0
239.71,121.0
239.78,91.0
239.84,78.0
239.9,99.0
239.97,96.0
240.03,86.0
240.09,90.0
240.16,88.0
240.22,66.0
240.28,81.0
240.34,73.0
240.41,68.0
240.47,86.0
240.53,83.0
240.6,63.0
240.66,89.0
240.72,77.0
240.79,97.0
240.85,85.0
240.91,104.0
240.97,114.0
241.04,95.0
241.1,99.0
241.16,85.0
241.23,101.0
241.29,103.0
241.35,105.0
241.42,107.0
241.48,119.0
241.54,133.0
241.6,73.0
241.67,96.0
241.73,103.0
241.79,83.0
241.86,116.0
241.92,99.0
241.98,94.0
242.05,110.0
242.11,100.0
242.17,113.0
242.23,90.0
242.3,124.0
242.36,106.0
242.42,92.0
242.49,92.0
242.55,106.0
242.61,108.0
242.68,100.0
242.74,100.0
242.8,102.0
242.86,126.0
242.93,107.0
242.99,128.0
243.05,133.0
243.12,138.0
243.18,112.0
243.24,129.0
243.31,124.0
243.37,136.0
243.43,129.0
243.49,100.0
243.56,130.0
243.62,103.0
243.68,112.0
243.75,123.0
243.81,105.0
243.87,103.0
243.94,80.0
244.0,84.0
244.06,75.0
244.12,87.0
244.19,76.0
244.25,96.0
244.31,73.0
244.38,84.0
244.44,93.0
244.5,84.0
244.57,103.0
244.63,106.0
244.69,81.0
244.75,86.0
244.82,92.0
244.88,102.0
244.94,132.0
245.01,124.0
245.07,138.0
245.13,152.0
245.2,132.0
245.26,132.0
245.32,141.0
245.38,114.0
245.45,122.0
245.51,129.0
245.57,127.0
245.64,145.0
245.7,130.0
245.76,110.0
245.83,109.0
245.89,108.0
245.95,112.0
246.01,133.0
246.08,104.0
246.14,118.0
246.2,123.0
246.27,107.0
246.33,119.0
246.39,102.0
246.46,108.0
246.52,114.0
246.58,82.0
246.64,66.0
246.71,88.0
246.77,101.0
246.83,110.0
246.9,104.0
246.96,110.0
247.02,94.0
247.09,75.0
247.15,76.0
247.21,92.0
247.27,74.0
247.34,59.0
247.4,46.0
247.46,76.0
247.53,70.0
247.59,80.0
247.65,68.0
247.72,85.0
247.78,92.0
247.84,113.0
247.9,106.0
247.97,89.0
248.03,106.0
248.09,121.0
248.16,114.0
248.22,105.0
248.28,104.0
248.35,77.0
248.41,65.0
248.47,62.0
248.53,70.0
248.6,85.0
248.66,74.0
248.72,90.0
248.79,99.0
248.85,88.0
248.91,72.0
248.98,65.0
249.04,82.0
249.1,87.0
249.16,88.0
249.23,59.0
249.29,67.0
249.35,67.0
249.42,38.0
249.48,44.0
249.54,62.0
249.61,58.0
249.67,51.0
249.73,39.0
249.79,59.0
249.86,86.0
249.92,62.0
249.98,62.0
250.05,50.0
250.11,51.0
250.17,62.0
250.24,66.0
250.3,55.0
250.36,40.0
250.42,32.0
250.49,36.0
250.55,36.0
250.61,49.0
250.68,60.0
250.74,31.0
250.8,42.0
250.87,59.0
250.93,47.0
250.99,44.0
251.05,32.0
251.12,30.0
251.18,44.0
251.24,59.0
251.31,69.0
251.37,74.0
251.43,81.0
251.5,56.0
251.56,61.0
251.62,56.0
251.68,48.0
251.75,62.0
251.81,63.0
251.87,77.0
251.94,84.0
252.0,88.0
252.06,84.0
252.13,100.0
252.19,101.0
252.25,93.0
252.31,109.0
252.38,100.0
252.44,97.0
252.5,119.0
252.57,117.0
252.63,122.0
252.69,117.0
252.76,105.0
252.82,108.0
252.88,91.0
252.94,87.0
253.01,79.0
253.07,77.0
253.13,88.0
253.2,85.0
253.26,81.0
253.32,73.0
253.39,95.0
253.45,92.0
253.51,86.0
253.57,89.0
253.64,66.0
253.7,43.0
253.76,64.0
253.83,55.0
253.89,58.0
253.95,53.0
254.02,31.0
254.08,47.0
254.14,69.0
254.2,51.0
254.27,55.0
254.33,56.0
254.39,53.0
254.46,54.0
254.52,53.0
254.58,63.0
254.65,73.0
254.71,82.0
254.77,80.0
254.83,85.0
254.9,82.0
254.96,91.0
255.02,83.0
255.09,75.0
255.15,81.0
255.21,73.0
255.28,67.0
255.34,55.0
255.4,59.0
255.46,72.0
255.53,70.0
255.59,67.0
255.65,70.0
255.72,78.0
255.78,45.0
255.84,36.0
255.91,41.0
255.97,42.0
256.03,51.0
256.09,62.0
256.16,65.0
256.22,71.0
256.28,77.0
256.35,75.0
256.41,83.0
256.47,59.0
256.54,60.0
256.6,61.0
256.66,69.0
256.72,62.0
256.79,72.0
256.85,67.0
256.91,64.0
256.98,65.0
257.04,80.0
257.1,89.0
257.17,93.0
257.23,84.0
257.29,82.0
257.35,96.0
257.42,92.0
257.48,96.0
257.54,79.0
257.61,100.0
257.67,110.0
257.73,83.0
257.8,96.0
257.86,108.0
257.92,114.0
257.98,102.0
258.05,94.0
258.11,91.0
258.17,91.0
258.24,127.0
258.3,121.0
258.36,124.0
258.43,142.0
258.49,122.0
258.55,113.0
258.61,121.0
258.68,130.0
258.74,150.0
258.8,113.0
258.87,89.0
258.93,74.0
258.99,103.0
259.06,103.0
259.12,93.0
259.18,99.0
259.24,108.0
259.31,115.0
259.37,103.0
259.43,105.0
259.5,100.0
259.56,110.0
259.62,124.0
259.69,106.0
259.75,116.0
259.81,122.0
259.87,137.0
259.94,108.0
260.0,108.0
260.06,129.0
260.13,136.0
260.19,125.0
260.25,137.0
260.32,137.0
260.38,140.0
260.44,114.0
260.5,113.0
260.57,126.0
260.63,129.0
260.69,143.0
260.76,126.0
260.82,121.0
260.88,135.0
260.95,134.0
261.01,100.0
261.07,127.0
261.13,128.0
261.2,132.0
261.26,122.0
261.32,125.0
261.39,122.0
261.45,135.0
261.51,119.0
261.58,108.0
261.64,103.0
261.7,110.0
261.76,124.0
261.83,129.0
261.89,113.0
261.95,120.0
262.02,141.0
262.08,110.0
262.14,165.0
262.21,157.0
262.27,161.0
262.33,151.0
262.39,149.0
262.46,152.0
262.52,163.0
262.58,154.0
262.65,168.0
262.71,170.0
262.77,151.0
262.84,166.0
262.9,138.0
262.96,158.0
263.02,167.0
263.09,141.0
263.15,140.0
263.21,143.0
263.28,149.0
263.34,148.0
263.4,137.0
263.47,144.0
263.53,132.0
263.59,129.0
263.65,125.0
263.72,129.0
263.78,144.0
263.84,161.0
263.91,130.0
263.97,117.0
264.03,139.0
264.1,135.0
264.16,139.0
264.22,139.0
264.28,140.0
264.35,146.0
264.41,127.0
264.47,129.0
264.54,133.0
264.6,122.0
264.66,125.0
264.73,134.0
264.79,131.0
264.85,118.0
264.91,131.0
264.98,132.0
265.04,137.0
265.1,136.0
265.17,136.0
265.23,134.0
265.29,138.0
265.36,118.0
265.42,128.0
265.48,123.0
265.54,135.0
265.61,114.0
265.67,107.0
265.73,118.0
265.8,109.0
265.86,96.0
265.92,96.0
265.99,89.0
266.05,99.0
266.11,105.0
266.17,92.0
266.24,103.0
266.3,113.0
266.36,105.0
266.43,117.0
266.49,114.0
266.55,98.0
266.62,94.0
266.68,84.0
266.74,84.0
266.8,99.0
266.87,95.0
266.93,118.0
266.99,103.0
267.06,103.0
267.12,88.0
267.18,93.0
267.25,81.0
267.31,80.0
267.37,90.0
267.43,102.0
267.5,112.0
267.56,128.0
267.62,113.0
267.69,94.0
267.75,114.0
267.81,80.0
267.88,60.0
267.94,74.0
268.0,91.0
268.06,88.0
268.13,63.0
268.19,79.0
268.25,59.0
268.32,59.0
268.38,76.0
268.44,63.0
268.51,53.0
268.57,58.0
268.63,52.0
268.69,18.0
268.76,27.0
268.82,47.0
268.88,17.0
268.95,43.0
269.01,39.0
269.07,36.0
269.14,43.0
269.2,44.0
269.26,45.0
269.32,51.0
269.39,72.0
269.45,80.0
269.51,63.0
269.58,84.0
269.64,66.0
269.7,47.0
269.77,47.0
269.83,60.0
269.89,62.0
269.95,54.0
270.02,59.0
270.08,63.0
270.14,59.0
270.21,82.0
270.27,63.0
270.33,61.0
270.4,51.0
270.46,63.0
270.52,34.0
270.58,46.0
270.65,48.0
270.71,53.0
270.77,44.0
270.84,50.0
270.9,42.0
270.96,31.0
271.03,36.0
271.09,4.0
271.15,16.0
271.21,43.0
271.28,37.0
271.34,53.0
271.4,44.0
271.47,48.0
271.53,23.0
271.59,33.0
271.66,41.0
271.72,52.0
271.78,42.0
271.84,36.0
271.91,55.0
271.97,69.0
272.03,51.0
272.1,36.0
272.16,40.0
272.22,59.0
272.29,59.0
272.35,55.0
272.41,67.0
272.47,49.0
272.54,57.0
272.6,38.0
272.66,48.0
272.73,48.0
272.79,52.0
272.85,50.0
272.92,52.0
272.98,63.0
273.04,55.0
273.1,66.0
273.17,64.0
273.23,59.0
273.29,62.0
273.36,58.0
273.42,55.0
273.48,53.0
273.55,67.0
273.61,70.0
273.67,63.0
273.73,70.0
273.8,91.0
273.86,70.0
273.92,66.0
273.99,67.0
274.05,96.0
274.11,81.0
274.18,62.0
274.24,70.0
274.3,40.0
274.36,31.0
274.43,62.0
274.49,69.0
274.55,56.0
274.62,66.0
274.68,65.0
274.74,61.0
274.81,69.0
274.87,56.0
274.93,58.0
274.99,46.0
275.06,55.0
275.12,53.0
275.18,60.0
275.25,49.0
275.31,52.0
275.37,56.0
275.44,56.0
275.5,37.0
275.56,44.0
275.62,57.0
275.69,47.0
275.75,42.0
275.81,40.0
275.88,40.0
275.94,48.0
276.0,70.0
276.07,83.0
276.13,70.0
276.19,46.0
276.25,58.0
276.32,52.0
276.38,41.0
276.44,42.0
276.51,52.0
276.57,35.0
276.63,34.0
276.7,45.0
276.76,48.0
276.82,48.0
276.88,55.0
276.95,60.0
277.01,42.0
277.07,26.0
277.14,26.0
277.2,23.0
277.26,22.0
277.33,4.0
277.39,29.0
277.45,33.0
277.51,61.0
277.58,78.0
277.64,80.0
277.7,58.0
277.77,51.0
277.83,47.0
277.89,50.0
277.96,47.0
278.02,45.0
278.08,79.0
278.14,53.0
278.21,56.0
278.27,51.0
278.33,57.0
278.4,81.0
278.46,73.0
278.52,77.0
278.59,67.0
278.65,62.0
278.71,64.0
278.77,74.0
278.84,72.0
278.9,71.0
278.96,76.0
279.03,74.0
279.09,58.0
279.15,53.0
279.22,80.0
279.28,70.0
279.34,56.0
279.4,70.0
279.47,84.0
279.53,98.0
279.59,84.0
279.66,76.0
279.72,99.0
279.78,91.0
279.85,76.0
279.91,66.0
279.97,73.0
280.03,64.0
280.1,59.0
280.16,75.0
280.22,92.0
280.29,66.0
280.35,63.0
280.41,51.0
280.48,80.0
280.54,65.0
280.6,39.0
280.66,57.0
280.73,57.0
280.79,55.0
280.85,58.0
280.92,61.0
280.98,86.0
281.04,72.0
281.11,70.0
281.17,81.0
281.23,55.0
281.29,62.0
281.36,58.0
281.42,69.0
281.48,78.0
281.55,80.0
281.61,77.0
281.67,96.0
281.74,102.0
281.8,98.0
281.86,96.0
281.92,98.0
281.99,100.0
282.05,108.0
282.11,111.0
282.18,88.0
282.24,113.0
282.3,128.0
282.37,112.0
282.43,104.0
282.49,106.0
282.55,96.0
282.62,91.0
282.68,111.0
282.74,94.0
282.81,58.0
282.87,99.0
282.93,114.0
283.0,76.0
283.06,84.0
283.12,89.0
283.18,88.0
283.25,78.0
283.31,90.0
283.37,82.0
283.44,92.0
283.5,95.0
283.56,88.0
283.63,102.0
283.69,103.0
283.75,80.0
283.81,80.0
283.88,62.0
283.94,63.0
284.0,83.0
284.07,93.0
284.13,59.0
284.19,59.0
284.26,82.0
284.32,51.0
284.38,62.0
284.44,63.0
284.51,75.0
284.57,77.0
284.63,72.0
284.7,77.0
284.76,77.0
284.82,88.0
284.89,88.0
284.95,95.0
285.01,108.0
285.07,88.0
285.14,88.0
285.2,102.0
285.26,96.0
285.33,111.0
285.39,104.0
285.45,80.0
285.52,88.0
285.58,94.0
285.64,110.0
285.7,89.0
285.77,88.0
285.83,68.0
285.89,60.0
285.96,59.0
286.02,86.0
286.08,55.0
286.15,49.0
286.21,44.0
286.27,68.0
286.33,57.0
286.4,53.0
286.46,39.0
286.52,53.0
286.59,78.0
286.65,50.0
286.71,61.0
286.78,81.0
286.84,44.0
286.9,45.0
286.96,60.0
287.03,50.0
287.09,44.0
287.15,63.0
287.22,64.0
287.28,74.0
287.34,66.0
287.41,37.0
287.47,57.0
287.53,59.0
287.59,40.0
287.66,45.0
287.72,61.0
287.78,88.0
287.85,77.0
287.91,52.0
287.97,71.0
288.04,59.0
288.1,62.0
288.16,81.0
288.22,89.0
288.29,79.0
288.35,69.0
288.41,75.0
288.48,77.0
288.54,89.0
288.6,101.0
288.67,100.0
288.73,108.0
288.79,109.0
288.85,87.0
288.92,84.0
288.98,77.0
289.04,66.0
289.11,81.0
289.17,84.0
289.23,65.0
289.3,64.0
289.36,60.0
289.42,43.0
289.48,51.0
289.55,51.0
289.61,48.0
289.67,29.0
289.74,36.0
289.8,59.0
289.86,55.0
289.93,56.0
289.99,55.0
290.05,88.0
290.11,55.0
290.18,54.0
290.24,56.0
290.3,52.0
290.37,67.0
290.43,56.0
290.49,70.0
290.56,57.0
290.62,69.0
290.68,56.0
290.74,66.0
290.81,74.0
290.87,75.0
290.93,56.0
291.0,58.0
291.06,65.0
291.12,56.0
291.19,72.0
291.25,87.0
291.31,81.0
291.37,81.0
291.44,69.0
291.5,55.0
291.56,67.0
291.63,59.0
291.69,60.0
291.75,64.0
291.82,67.0
291.88,57.0
291.94,72.0
292.0,66.0
292.07,69.0
292.13,58.0
292.19,65.0
292.26,66.0
292.32,31.0
292.38,15.0
292.45,35.0
292.51,37.0
292.57,44.0
292.63,58.0
292.7,47.0
292.76,50.0
292.82,64.0
292.89,65.0
292.95,88.0
293.01,97.0
293.08,78.0
293.14,73.0
293.2,63.0
293.26,40.0
293.33,22.0
293.39,53.0
293.45,65.0
293.52,78.0
293.58,74.0
293.64,62.0
293.71,65.0
293.77,61.0
293.83,49.0
293.89,74.0
293.96,85.0
294.02,64.0
294.08,51.0
294.15,44.0
294.21,64.0
294.27,95.0
294.34,81.0
294.4,59.0
294.46,96.0
294.52,92.0
294.59,106.0
294.65,99.0
294.71,103.0
294.78,119.0
294.84,115.0
294.9,109.0
294.97,90.0
295.03,95.0
295.09,100.0
295.15,110.0
295.22,96.0
295.28,95.0
295.34,72.0
295.41,76.0
295.47,93.0
295.53,82.0
295.6,102.0
295.66,96.0
295.72,72.0
295.78,83.0
295.85,93.0
295.91,97.0
295.97,85.0
296.04,64.0
296.1,80.0
296.16,67.0
296.23,80.0
296.29,72.0
296.35,91.0
296.41,99.0
296.48,110.0
296.54,117.0
296.6,116.0
296.67,136.0
296.73,143.0
296.79,132.0
296.86,147.0
296.92,148.0
296.98,147.0
297.04,125.0
297.11,129.0
297.17,132.0
297.23,136.0
297.3,138.0
297.36,114.0
297.42,125.0
297.49,111.0
297.55,114.0
297.61,115.0
297.67,108.0
297.74,139.0
297.8,110.0
297.86,117.0
297.93,119.0
297.99,117.0
298.05,108.0
298.12,107.0
298.18,102.0
298.24,103.0
298.3,90.0
298.37,91.0
298.43,83.0
298.49,78.0
298.56,71.0
298.62,72.0
298.68,100.0
298.75,116.0
298.81,104.0
298.87,122.0
298.93,111.0
299.0,113.0
299.06,93.0
299.12,115.0
299.19,111.0
299.25,112.0
299.31,118.0
299.38,109.0
299.44,96.0
299.5,73.0
299.56,84.0
299.63,99.0
299.69,97.0
299.75,104.0
299.82,92.0
299.88,82.0
299.94,85.0
300.01,66.0
300.07,80.0
300.13,95.0
300.19,96.0
300.26,99.0
300.32,100.0
300.38,88.0
300.45,76.0
300.51,73.0
300.57,85.0
300.64,66.0
300.7,80.0
300.76,89.0
300.82,63.0
300.89,73.0
300.95,80.0
301.01,68.0
301.08,63.0
301.14,88.0
301.2,77.0
301.27,73.0
301.33,77.0
301.39,76.0
301.45,62.0
301.52,89.0
301.58,86.0
301.64,76.0
301.71,65.0
301.77,56.0
301.83,28.0
301.9,39.0
301.96,69.0
302.02,83.0
302.08,82.0
302.15,61.0
302.21,62.0
302.27,72.0
302.34,81.0
302.4,90.0
302.46,88.0
302.53,81.0
302.59,59.0
302.65,66.0
302.71,48.0
302.78,48.0
302.84,59.0
302.9,92.0
302.97,69.0
303.03,48.0
303.09,45.0
303.16,45.0
303.22,69.0
303.28,53.0
303.34,75.0
303.41,70.0
303.47,61.0
303.53,60.0
303.6,49.0
303.66,41.0
303.72,48.0
303.79,43.0
303.85,45.0
303.91,44.0
303.97,21.0
304.04,34.0
304.1,30.0
304.16,39.0
304.23,27.0
304.29,25.0
304.35,34.0
304.42,13.0
304.48,32.0
304.54,8.0
304.6,13.0
304.67,26.0
304.73,35.0
304.79,21.0
304.86,19.0
304.92,28.0
304.98,35.0
305.05,37.0
305.11,47.0
305.17,65.0
305.23,59.0
305.3,69.0
305.36,63.0
305.42,47.0
305.49,51.0
305.55,64.0
305.61,61.0
305.68,49.0
305.74,58.0
305.8,55.0
305.86,41.0
305.93,55.0
305.99,54.0
306.05,37.0
306.12,49.0
306.18,29.0
306.24,34.0
306.31,50.0
306.37,61.0
306.43,51.0
306.49,48.0
306.56,50.0
306.62,37.0
306.68,33.0
306.75,50.0
306.81,38.0
306.87,29.0
306.94,30.0
307.0,31.0
307.06,20.0
307.12,19.0
307.19,41.0
307.25,24.0
307.31,11.0
307.38,22.0
307.44,25.0
307.5,19.0
307.57,27.0
307.63,31.0
307.69,33.0
307.75,59.0
307.82,56.0
307.88,63.0
307.94,53.0
308.01,52.0
308.07,47.0
308.13,63.0
308.2,54.0
308.26,48.0
308.32,70.0
308.38,48.0
308.45,59.0
308.51,70.0
308.57,81.0
308.64,75.0
308.7,51.0
308.76,67.0
308.83,75.0
308.89,53.0
308.95,67.0
309.01,69.0
309.08,41.0
309.14,52.0
309.2,55.0
309.27,68.0
309.33,72.0
309.39,71.0
309.46,62.0
309.52,38.0
309.58,77.0
309.64,53.0
309.71,39.0
309.77,49.0
309.83,64.0
309.9,73.0
309.96,67.0
310.02,66.0
310.09,79.0
310.15,69.0
310.21,66.0
310.27,60.0
310.34,62.0
310.4,85.0
310.46,77.0
310.53,95.0
310.59,73.0
310.65,71.0
310.72,61.0
310.78,74.0
310.84,75.0
310.9,61.0
310.97,99.0
311.03,60.0
311.09,67.0
311.16,82.0
311.22,84.0
311.28,80.0
311.35,81.0
311.41,99.0
311.47,106.0
311.53,85.0
311.6,106.0
311.66,108.0
311.72,86.0
311.79,88.0
311.85,83.0
311.91,87.0
311.98,103.0
312.04,102.0
312.1,78.0
312.16,84.0
312.23,117.0
312.29,85.0
312.35,94.0
312.42,85.0
312.48,93.0
312.54,104.0
312.61,113.0
312.67,88.0
312.73,87.0
312.79,111.0
312.86,107.0
312.92,110.0
312.98,121.0
313.05,113.0
313.11,132.0
313.17,137.0
313.24,112.0
313.3,125.0
313.36,133.0
313.42,141.0
313.49,133.0
313.55,132.0
313.61,139.0
313.68,147.0
313.74,123.0
313.8,145.0
313.87,130.0
313.93,143.0
313.99,153.0
314.05,141.0
314.12,150.0
314.18,144.0
314.24,143.0
314.31,144.0
314.37,162.0
314.43,162.0
314.5,154.0
314.56,168.0
314.62,151.0
314.68,143.0
314.75,139.0
314.81,154.0
314.87,141.0
314.94,129.0
315.0,144.0
315.06,149.0
315.13,125.0
315.19,114.0
315.25,122.0
315.31,114.0
315.38,127.0
315.44,135.0
315.5,107.0
315.57,94.0
315.63,94.0
315.69,135.0
315.76,130.0
315.82,119.0
315.88,131.0
315.94,128.0
316.01,105.0
316.07,121.0
316.13,114.0
316.2,132.0
316.26,134.0
316.32,135.0
316.39,116.0
316.45,106.0
316.51,107.0
316.57,92.0
316.64,88.0
316.7,110.0
316.76,107.0
316.83,88.0
316.89,91.0
316.95,91.0
317.02,72.0
317.08,76.0
317.14,74.0
317.2,81.0
317.27,75.0
317.33,64.0
317.39,92.0
317.46,84.0
317.52,83.0
317.58,86.0
317.65,67.0
317.71,96.0
317.77,99.0
317.83,94.0
317.9,78.0
317.96,97.0
318.02,106.0
318.09,107.0
318.15,105.0
318.21,89.0
318.28,100.0
318.34,107.0
318.4,94.0
318.46,121.0
318.53,98.0
318.59,80.0
318.65,72.0
318.72,80.0
318.78,84.0
318.84,72.0
318.91,81.0
318.97,78.0
319.03,67.0
319.09,75.0
319.16,86.0
319.22,85.0
319.28,97.0
319.35,109.0
319.41,121.0
319.47,133.0
319.54,99.0
319.6,113.0
319.66,98.0
319.72,99.0
319.79,107.0
319.85,95.0
319.91,114.0
319.98,104.0
320.04,95.0
320.1,107.0
320.17,109.0
320.23,102.0
320.29,100.0
320.35,96.0
320.42,88.0
320.48,76.0
320.54,84.0
320.61,69.0
320.67,81.0
320.73,74.0
320.8,72.0
320.86,61.0
320.92,45.0
320.98,49.0
321.05,49.0
321.11,45.0
321.17,38.0
321.24,38.0
321.3,64.0
321.36,55.0
321.43,37.0
321.49,37.0
321.55,52.0
321.61,50.0
321.68,37.0
321.74,21.0
321.8,28.0
321.87,-7.0
321.93,25.0
321.99,36.0
322.06,48.0
322.12,47.0
322.18,27.0
322.24,48.0
322.31,39.0
322.37,46.0
322.43,40.0
322.5,27.0
322.56,55.0
322.62,48.0
322.69,40.0
322.75,61.0
322.81,47.0
322.87,46.0
322.94,42.0
323.0,42.0
323.06,36.0
323.13,44.0
323.19,25.0
323.25,32.0
323.32,47.0
323.38,22.0
323.44,35.0
323.5,21.0
323.57,32.0
323.63,35.0
323.69,14.0
323.76,47.0
323.82,29.0
323.88,36.0
323.95,61.0
324.01,60.0
324.07,51.0
324.13,43.0
324.2,61.0
324.26,55.0
324.32,58.0
324.39,51.0
324.45,42.0
324.51,65.0
324.58,60.0
324.64,75.0
324.7,71.0
324.76,87.0
324.83,77.0
324.89,66.0
324.95,69.0
325.02,69.0
325.08,63.0
325.14,85.0
325.21,84.0
325.27,64.0
325.33,73.0
325.39,69.0
325.46,65.0
325.52,79.0
325.58,69.0
325.65,66.0
325.71,67.0
325.77,53.0
325.84,55.0
325.9,51.0
325.96,54.0
326.02,59.0
326.09,46.0
326.15,67.0
326.21,75.0
326.28,65.0
326.34,68.0
326.4,78.0
326.47,69.0
326.53,78.0
326.59,80.0
326.65,80.0
326.72,80.0
326.78,77.0
326.84,73.0
326.91,78.0
326.97,94.0
327.03,81.0
327.1,72.0
327.16,81.0
327.22,66.0
327.28,91.0
327.35,89.0
327.41,101.0
327.47,111.0
327.54,73.0
327.6,86.0
327.66,81.0
327.73,79.0
327.79,76.0
327.85,96.0
327.91,69.0
327.98,91.0
328.04,78.0
328.1,79.0
328.17,91.0
328.23,95.0
328.29,89.0
328.36,78.0
328.42,93.0
328.48,80.0
328.54,103.0
328.61,108.0
328.67,108.0
328.73,100.0
328.8,89.0
328.86,99.0
328.92,86.0
328.99,80.0
329.05,82.0
329.11,58.0
329.17,69.0
329.24,52.0
329.3,58.0
329.36,84.0
329.43,90.0
329.49,76.0
329.55,91.0
329.62,95.0
329.68,100.0
329.74,106.0
329.8,92.0
329.87,91.0
329.93,84.0
329.99,80.0
330.06,100.0
330.12,85.0
330.18,89.0
330.25,99.0
330.31,109.0
330.37,109.0
330.43,105.0
330.5,117.0
330.56,94.0
330.62,115.0
330.69,103.0
330.75,110.0
330.81,128.0
330.88,120.0
330.94,126.0
331.0,113.0
331.06,116.0
331.13,117.0
331.19,117.0
331.25,111.0
331.32,106.0
331.38,132.0
331.44,119.0
331.51,138.0
331.57,124.0
331.63,103.0
331.69,130.0
331.76,93.0
331.82,83.0
331.88,86.0
331.95,58.0
332.01,76.0
332.07,90.0
332.14,92.0
332.2,73.0
332.26,70.0
332.32,76.0
332.39,84.0
332.45,87.0
332.51,88.0
332.58,72.0
332.64,100.0
332.7,84.0
332.77,95.0
332.83,86.0
332.89,87.0
332.95,83.0
333.02,86.0
333.08,89.0
333.14,73.0
333.21,76.0
333.27,85.0
333.33,114.0
333.4,111.0
333.46,100.0
333.52,101.0
333.58,91.0
333.65,79.0
333.71,89.0
333.77,86.0
333.84,90.0
333.9,80.0
333.96,98.0
334.03,73.0
334.09,65.0
334.15,70.0
334.21,53.0
334.28,69.0
334.34,61.0
334.4,53.0
334.47,37.0
334.53,43.0
334.59,43.0
334.66,59.0
334.72,66.0
334.78,67.0
334.84,59.0
334.91,64.0
334.97,66.0
335.03,52.0
335.1,63.0
335.16,66.0
335.22,47.0
335.29,56.0
335.35,71.0
335.41,62.0
335.47,43.0
335.54,60.0
335.6,55.0
335.66,25.0
335.73,36.0
335.79,50.0
335.85,14.0
335.92,50.0
335.98,32.0
336.04,19.0
336.1,66.0
336.17,42.0
336.23,73.0
336.29,55.0
336.36,49.0
336.42,57.0
336.48,43.0
336.55,36.0
336.61,35.0
336.67,56.0
336.73,36.0
336.8,35.0
336.86,55.0
336.92,47.0
336.99,45.0
337.05,51.0
337.11,54.0
337.18,48.0
337.24,62.0
337.3,76.0
337.36,66.0
337.43,58.0
337.49,81.0
337.55,75.0
337.62,44.0
337.68,52.0
337.74,58.0
337.81,69.0
337.87,54.0
337.93,71.0
337.99,75.0
338.06,50.0
338.12,71.0
338.18,72.0
338.25,62.0
338.31,69.0
338.37,83.0
338.44,67.0
338.5,66.0
338.56,56.0
338.62,55.0
338.69,62.0
338.75,62.0
338.81,56.0
338.88,53.0
338.94,40.0
339.0,58.0
339.07,75.0
339.13,58.0
339.19,71.0
339.25,69.0
339.32,67.0
339.38,77.0
339.44,65.0
339.51,61.0
339.57,57.0
339.63,60.0
339.7,80.0
339.76,73.0
339.82,94.0
339.88,89.0
339.95,75.0
340.01,68.0
340.07,55.0
340.14,72.0
340.2,47.0
340.26,57.0
340.33,73.0
340.39,74.0
340.45,76.0
340.51,59.0
340.58,91.0
340.64,78.0
340.7,76.0
340.77,94.0
340.83,80.0
340.89,78.0
340.96,80.0
341.02,58.0
341.08,83.0
341.14,74.0
341.21,70.0
341.27,85.0
341.33,98.0
341.4,91.0
341.46,80.0
341.52,71.0
341.59,62.0
341.65,59.0
341.71,73.0
341.77,80.0
341.84,80.0
341.9,81.0
341.96,87.0
342.03,75.0
342.09,83.0
342.15,95.0
342.22,83.0
342.28,80.0
342.34,94.0
342.4,111.0
342.47,123.0
342.53,114.0
342.59,105.0
342.66,111.0
342.72,117.0
342.78,98.0
342.85,82.0
342.91,95.0
342.97,106.0
343.03,97.0
343.1,88.0
343.16,92.0
343.22,100.0
343.29,109.0
343.35,116.0
343.41,105.0
343.48,95.0
343.54,106.0
343.6,116.0
343.66,84.0
343.73,100.0
343.79,121.0
343.85,104.0
343.92,110.0
343.98,95.0
344.04,112.0
344.11,120.0
344.17,102.0
344.23,86.0
344.29,90.0
344.36,106.0
344.42,101.0
344.48,117.0
344.55,142.0
344.61,129.0
344.67,130.0
344.74,121.0
344.8,114.0
344.86,128.0
344.92,154.0
344.99,157.0
345.05,141.0
345.11,128.0
345.18,135.0
345.24,132.0
345.3,131.0
345.37,120.0
345.43,109.0
345.49,105.0
345.55,114.0
345.62,127.0
345.68,121.0
345.74,125.0
345.81,114.0
345.87,120.0
345.93,116.0
346.0,120.0
346.06,139.0
346.12,109.0
346.18,91.0
346.25,99.0
346.31,87.0
346.37,103.0
346.44,102.0
346.5,100.0
346.56,109.0
346.63,90.0
346.69,106.0
346.75,95.0
346.81,95.0
346.88,121.0
346.94,93.0
347.0,110.0
347.07,118.0
347.13,85.0
347.19,86.0
347.26,102.0
347.32,88.0
347.38,88.0
347.44,102.0
347.51,108.0
347.57,82.0
347.63,76.0
347.7,101.0
347.76,92.0
347.82,126.0
347.89,103.0
347.95,107.0
348.01,102.0
348.07,89.0
348.14,110.0
348.2,102.0
348.26,90.0
348.33,86.0
348.39,103.0
348.45,97.0
348.52,78.0
348.58,100.0
348.64,97.0
348.7,106.0
348.77,124.0
348.83,87.0
348.89,103.0
348.96,102.0
349.02,108.0
349.08,123.0
349.15,120.0
349.21,110.0
349.27,110.0
349.33,112.0
349.4,119.0
349.46,109.0
349.52,103.0
349.59,118.0
349.65,115.0
349.71,109.0
349.78,105.0
349.84,104.0
349.9,110.0
349.96,108.0
350.03,110.0
350.09,83.0
350.15,87.0
350.22,81.0
350.28,92.0
350.34,77.0
350.41,65.0
350.47,62.0
350.53,71.0
350.59,65.0
350.66,60.0
350.72,75.0
350.78,72.0
350.85,79.0
350.91,69.0
350.97,51.0
351.04,56.0
351.1,76.0
351.16,76.0
351.22,67.0
351.29,65.0
351.35,76.0
351.41,69.0
351.48,66.0
351.54,78.0
351.6,89.0
351.67,78.0
351.73,65.0
351.79,79.0
351.85,80.0
351.92,36.0
351.98,40.0
352.04,63.0
352.11,59.0
352.17,75.0
352.23,53.0
352.3,67.0
352.36,73.0
352.42,79.0
352.48,68.0
352.55,58.0
352.61,50.0
352.67,39.0
352.74,58.0
352.8,59.0
352.86,76.0
352.93,47.0
352.99,49.0
353.05,59.0
353.11,65.0
353.18,74.0
353.24,81.0
353.3,76.0
353.37,90.0
353.43,86.0
353.49,69.0
353.56,81.0
353.62,61.0
353.68,65.0
353.74,55.0
353.81,65.0
353.87,92.0
353.93,61.0
354.0,58.0
354.06,48.0
354.12,47.0
354.19,33.0
354.25,44.0
354.31,43.0
354.37,35.0
354.44,45.0
354.5,51.0
354.56,63.0
354.63,42.0
354.69,67.0
354.75,34.0
354.82,19.0
354.88,34.0
354.94,49.0
355.0,44.0
355.07,35.0
355.13,56.0
355.19,62.0
355.26,53.0
355.32,54.0
355.38,66.0
355.45,54.0
355.51,51.0
355.57,44.0
355.63,43.0
355.7,49.0
355.76,47.0
355.82,57.0
355.89,62.0
355.95,37.0
356.01,42.0
356.08,52.0
356.14,29.0
356.2,38.0
356.26,47.0
356.33,27.0
356.39,18.0
356.45,27.0
356.52,23.0
356.58,6.0
356.64,14.0
356.71,13.0
356.77,35.0
356.83,17.0
356.89,35.0
356.96,39.0
357.02,27.0
357.08,23.0
357.15,39.0
357.21,33.0
357.27,43.0
357.34,40.0
357.4,40.0
357.46,42.0
357.52,3.0
357.59,36.0
357.65,34.0
357.71,28.0
357.78,27.0
357.84,42.0
357.9,11.0
357.97,0.0
358.03,4.0
358.09,6.0
358.15,29.0
358.22,23.0
358.28,19.0
358.34,40.0
358.41,47.0
358.47,45.0
358.53,28.0
358.6,44.0
358.66,26.0
358.72,33.0
358.78,34.0
358.85,37.0
358.91,48.0
358.97,36.0
359.04,44.0
359.1,47.0
359.16,59.0
359.23,56.0
359.29,58.0
359.35,65.0
359.41,74.0
359.48,73.0
359.54,92.0
359.6,105.0
359.67,105.0
359.73,102.0
359.79,94.0
359.86,114.0
359.92,127.0
359.98,114.0
360.04,103.0
360.11,114.0
360.17,104.0
360.23,100.0
360.3,88.0
360.36,95.0
360.42,108.0
360.49,94.0
360.55,100.0
360.61,101.0
360.67,77.0
360.74,76.0
360.8,82.0
360.86,106.0
360.93,102.0
360.99,80.0
361.05,97.0
361.12,90.0
361.18,91.0
361.24,108.0
361.3,96.0
361.37,94.0
361.43,83.0
361.49,83.0
361.56,78.0
361.62,97.0
361.68,81.0
361.75,87.0
361.81,99.0
361.87,95.0
361.93,112.0
362.0,106.0
362.06,133.0
362.12,122.0
362.19,114.0
362.25,112.0
362.31,132.0
362.38,130.0
362.44,115.0
362.5,124.0
362.56,109.0
362.63,122.0
362.69,127.0
362.75,120.0
362.82,124.0
362.88,130.0
362.94,148.0
363.01,138.0
363.07,121.0
363.13,118.0
363.19,108.0
363.26,108.0
363.32,130.0
363.38,157.0
363.45,160.0
363.51,149.0
363.57,158.0
363.64,156.0
363.7,152.0
363.76,166.0
363.82,161.0
363.89,164.0
363.95,159.0
364.01,164.0
364.08,162.0
364.14,157.0
364.2,150.0
364.27,147.0
364.33,152.0
364.39,142.0
364.45,143.0
364.52,146.0
364.58,153.0
364.64,155.0
364.71,150.0
364.77,148.0
364.83,172.0
364.9,174.0
364.96,165.0
365.02,177.0
365.08,185.0
365.15,182.0
365.21,157.0
365.27,168.0
365.34,168.0
365.4,156.0
365.46,153.0
365.53,168.0
365.59,160.0
365.65,168.0
365.71,163.0
365.78,153.0
365.84,144.0
365.9,138.0
365.97,135.0
366.03,159.0
366.09,151.0
366.16,154.0
366.22,150.0
366.28,163.0
366.34,159.0
366.41,139.0
366.47,138.0
366.53,150.0
366.6,123.0
366.66,137.0
366.72,138.0
366.79,132.0
366.85,128.0
366.91,147.0
366.97,133.0
367.04,136.0
367.1,135.0
367.16,155.0
367.23,135.0
367.29,121.0
367.35,108.0
367.42,124.0
367.48,116.0
367.54,109.0
367.6,131.0
367.67,123.0
367.73,107.0
367.79,106.0
367.86,107.0
367.92,111.0
367.98,119.0
368.05,114.0
368.11,109.0
368.17,119.0
368.23,119.0
368.3,94.0
368.36,105.0
368.42,125.0
368.49,133.0
368.55,118.0
368.61,122.0
368.68,138.0
368.74,113.0
368.8,116.0
368.86,106.0
368.93,97.0
368.99,92.0
369.05,84.0
369.12,118.0
369.18,101.0
369.24,115.0
369.31,95.0
369.37,119.0
369.43,103.0
369.49,94.0
369.56,93.0
369.62,83.0
369.68,88.0
369.75,86.0
369.81,104.0
369.87,108.0
369.94,121.0
370.0,92.0
370.06,98.0
370.12,112.0
370.19,101.0
370.25,88.0
370.31,91.0
370.38,94.0
370.44,105.0
370.5,108.0
370.57,109.0
370.63,114.0
370.69,120.0
370.75,128.0
370.82,120.0
370.88,126.0
370.94,130.0
371.01,140.0
371.07,115.0
371.13,111.0
371.2,134.0
371.26,125.0
371.32,117.0
371.38,106.0
371.45,116.0
371.51,124.0
371.57,112.0
371.64,123.0
371.7,124.0
371.76,106.0
371.83,106.0
371.89,112.0
371.95,118.0
372.01,130.0
372.08,126.0
372.14,111.0
372.2,107.0
372.27,90.0
372.33,105.0
372.39,88.0
372.46,128.0
372.52,113.0
372.58,91.0
372.64,67.0
372.71,113.0
372.77,99.0
372.83,105.0
372.9,117.0
372.96,74.0
373.02,80.0
373.09,84.0
373.15,89.0
373.21,93.0
373.27,94.0
373.34,91.0
373.4,90.0
373.46,93.0
373.53,100.0
373.59,94.0
373.65,64.0
373.72,81.0
373.78,79.0
373.84,77.0
373.9,58.0
373.97,71.0
374.03,82.0
374.09,69.0
374.16,80.0
374.22,80.0
374.28,58.0
374.35,74.0
374.41,69.0
374.47,86.0
374.53,84.0
374.6,82.0
374.66,79.0
374.72,72.0
374.79,83.0
374.85,72.0
374.91,94.0
374.98,106.0
375.04,85.0
375.1,89.0
375.16,80.0
375.23,94.0
375.29,115.0
375.35,101.0
375.42,119.0
375.48,103.0
375.54,91.0
375.61,95.0
375.67,100.0
375.73,117.0
375.79,104.0
375.86,78.0
375.92,105.0
375.98,83.0
376.05,92.0
376.11,67.0
376.17,78.0
376.24,83.0
376.3,77.0
376.36,51.0
376.42,54.0
376.49,75.0
376.55,65.0
376.61,82.0
376.68,92.0
376.74,88.0
376.8,86.0
376.87,80.0
376.93,91.0
376.99,90.0
377.05,86.0
377.12,80.0
377.18,69.0
377.24,80.0
377.31,73.0
377.37,73.0
377.43,81.0
377.5,86.0
377.56,73.0
377.62,89.0
377.68,94.0
377.75,94.0
377.81,73.0
377.87,73.0
377.94,84.0
378.0,63.0
378.06,77.0
378.13,77.0
378.19,59.0
378.25,47.0
378.31,68.0
378.38,56.0
378.44,67.0
378.5,69.0
378.57,60.0
378.63,72.0
378.69,51.0
378.76,55.0
378.82,55.0
378.88,55.0
378.94,63.0
379.01,49.0
379.07,65.0
379.13,59.0
379.2,58.0
379.26,58.0
379.32,54.0
379.39,59.0
379.45,66.0
379.51,60.0
379.57,42.0
379.64,65.0
379.7,82.0
379.76,82.0
379.83,51.0
379.89,74.0
379.95,66.0
380.02,48.0
380.08,72.0
380.14,77.0
380.2,75.0
380.27,58.0
380.33,59.0
380.39,65.0
380.46,61.0
380.52,69.0
380.58,67.0
380.65,76.0
380.71,69.0
380.77,80.0
380.83,95.0
380.9,72.0
380.96,77.0
381.02,85.0
381.09,82.0
381.15,78.0
381.21,100.0
381.28,91.0
381.34,92.0
381.4,77.0
381.46,100.0
381.53,87.0
381.59,86.0
381.65,105.0
381.72,77.0
381.78,78.0
381.84,77.0
381.91,84.0
381.97,88.0
382.03,75.0
382.09,85.0
382.16,68.0
382.22,80.0
382.28,54.0
382.35,55.0
382.41,86.0
382.47,52.0
382.54,51.0
382.6,62.0
382.66,74.0
382.72,61.0
382.79,84.0
382.85,58.0
382.91,70.0
382.98,65.0
383.04,42.0
383.1,61.0
383.17,62.0
383.23,58.0
383.29,62.0
383.35,69.0
383.42,64.0
383.48,58.0
383.54,57.0
383.61,55.0
383.67,75.0
383.73,77.0
383.8,52.0
383.86,73.0
383.92,62.0
383.98,72.0
384.05,71.0
384.11,66.0
384.17,101.0
384.24,88.0
384.3,84.0
384.36,55.0
384.43,74.0
384.49,73.0
384.55,77.0
384.61,79.0
384.68,68.0
384.74,75.0
384.8,62.0
384.87,45.0
384.93,71.0
384.99,63.0
385.06,62.0
385.12,60.0
385.18,96.0
385.24,70.0
385.31,48.0
385.37,87.0
385.43,95.0
385.5,76.0
385.56,79.0
385.62,95.0
385.69,83.0
385.75,91.0
385.81,89.0
385.87,75.0
385.94,72.0
386.0,59.0
386.06,56.0
386.13,64.0
386.19,58.0
386.25,77.0
386.32,91.0
386.38,83.0
386.44,81.0
386.5,94.0
386.57,90.0
386.63,83.0
386.69,69.0
386.76,55.0
386.82,69.0
386.88,69.0
386.95,69.0
387.01,63.0
387.07,84.0
387.13,69.0
387.2,83.0
387.26,79.0
387.32,75.0
387.39,78.0
387.45,77.0
387.51,63.0
387.58,64.0
387.64,76.0
387.7,61.0
387.76,72.0
387.83,74.0
387.89,74.0
387.95,62.0
388.02,40.0
388.08,62.0
388.14,53.0
388.21,46.0
388.27,48.0
388.33,37.0
388.39,40.0
388.46,42.0
388.52,58.0
388.58,47.0
388.65,43.0
388.71,39.0
388.77,34.0
388.84,32.0
388.9,33.0
388.96,26.0
389.02,22.0
389.09,15.0
389.15,2.0
389.21,-18.0
389.28,1.0
389.34,-11.0
389.4,0.0
389.47,5.0
389.53,-2.0
389.59,8.0
389.65,16.0
389.72,24.0
389.78,32.0
389.84,7.0
389.91,27.0
389.97,23.0
390.03,26.0
390.1,31.0
390.16,21.0
390.22,16.0
390.28,23.0
390.35,31.0
390.41,41.0
390.47,55.0
390.54,60.0
390.6,53.0
390.66,64.0
390.73,48.0
390.79,54.0
390.85,35.0
390.91,17.0
390.98,20.0
391.04,9.0
391.1,20.0
391.17,24.0
391.23,13.0
391.29,31.0
391.36,30.0
391.42,29.0
391.48,45.0
391.54,27.0
391.61,18.0
391.67,36.0
391.73,41.0
391.8,44.0
391.86,58.0
391.92,45.0
391.99,67.0
392.05,67.0
392.11,52.0
392.17,61.0
392.24,59.0
392.3,67.0
392.36,65.0
392.43,50.0
392.49,46.0
392.55,50.0
392.62,30.0
392.68,47.0
392.74,45.0
392.8,56.0
392.87,51.0
392.93,37.0
392.99,65.0
393.06,65.0
393.12,65.0
393.18,79.0
393.25,76.0
393.31,65.0
393.37,60.0
393.43,57.0
393.5,87.0
393.56,47.0
393.62,57.0
393.69,63.0
393.75,49.0
393.81,69.0
393.88,74.0
393.94,71.0
394.0,53.0
394.06,61.0
394.13,43.0
394.19,46.0
394.25,63.0
394.32,47.0
394.38,63.0
394.44,60.0
394.51,49.0
394.57,51.0
394.63,53.0
394.69,60.0
394.76,75.0
394.82,54.0
394.88,46.0
394.95,54.0
395.01,46.0
395.07,47.0
395.14,53.0
395.2,64.0
395.26,67.0
395.32,77.0
395.39,75.0
395.45,83.0
395.51,79.0
395.58,93.0
395.64,88.0
395.7,79.0
395.77,71.0
395.83,85.0
395.89,89.0
395.95,86.0
396.02,104.0
396.08,90.0
396.14,79.0
396.21,75.0
396.27,87.0
396.33,112.0
396.4,135.0
396.46,123.0
396.52,95.0
396.58,115.0
396.65,131.0
396.71,119.0
396.77,117.0
396.84,96.0
396.9,125.0
396.96,130.0
397.03,108.0
397.09,126.0
397.15,122.0
397.21,114.0
397.28,133.0
397.34,134.0
397.4,112.0
397.47,117.0
397.53,96.0
397.59,119.0
397.66,119.0
397.72,111.0
397.78,148.0
397.84,126.0
397.91,121.0
397.97,112.0
398.03,99.0
398.1,107.0
398.16,115.0
398.22,125.0
398.29,122.0
398.35,133.0
398.41,121.0
398.47,136.0
398.54,159.0
398.6,141.0
398.66,133.0
398.73,130.0
398.79,133.0
398.85,133.0
398.92,130.0
398.98,135.0
399.04,123.0
399.1,117.0
399.17,114.0
399.23,97.0
399.29,116.0
399.36,118.0
399.42,103.0
399.48,95.0
399.55,83.0
399.61,83.0
399.67,90.0
399.73,103.0
399.8,115.0
399.86,125.0
399.92,118.0
399.99,108.0
400.05,115.0
400.11,96.0
400.18,110.0
400.24,86.0
400.3,92.0
400.36,127.0
400.43,117.0
400.49,94.0
400.55,98.0
400.62,93.0
400.68,98.0
400.74,114.0
400.81,120.0
400.87,143.0
400.93,128.0
400.99,137.0
401.06,120.0
401.12,111.0
401.18,100.0
401.25,88.0
401.31,92.0
401.37,96.0
401.44,105.0
401.5,96.0
401.56,106.0
401.62,84.0
401.69,111.0
401.75,122.0
401.81,113.0
401.88,118.0
401.94,106.0
402.0,129.0
402.07,137.0
402.13,128.0
402.19,124.0
402.25,139.0
402.32,126.0
402.38,135.0
402.44,127.0
402.51,148.0
402.57,144.0
402.63,142.0
402.7,151.0
402.76,134.0
402.82,147.0
402.88,170.0
402.95,151.0
403.01,123.0
403.07,147.0
403.14,144.0
403.2,150.0
403.26,158.0
403.33,147.0
403.39,133.0
403.45,128.0
403.51,133.0
403.58,115.0
403.64,115.0
403.7,103.0
403.77,117.0
403.83,103.0
403.89,94.0
403.96,95.0
404.02,91.0
404.08,96.0
404.14,93.0
404.21,100.0
404.27,101.0
404.33,96.0
404.4,81.0
404.46,74.0
404.52,83.0
404.59,67.0
404.65,68.0
404.71,63.0
404.77,75.0
404.84,81.0
404.9,62.0
404.96,51.0
405.03,39.0
405.09,49.0
405.15,31.0
405.22,40.0
405.28,38.0
405.34,45.0
405.4,24.0
405.47,36.0
405.53,52.0
405.59,31.0
405.66,13.0
405.72,16.0
405.78,34.0
405.85,29.0
405.91,10.0
405.97,38.0
406.03,5.0
406.1,14.0
406.16,16.0
406.22,16.0
406.29,19.0
406.35,20.0
406.41,31.0
406.48,6.0
406.54,-4.0
406.6,9.0
406.66,19.0
406.73,19.0
406.79,18.0
406.85,20.0
406.92,29.0
406.98,34.0
407.04,26.0
407.11,10.0
407.17,35.0
407.23,23.0
407.29,-1.0
407.36,24.0
407.42,33.0
407.48,20.0
407.55,14.0
407.61,28.0
407.67,35.0
407.74,26.0
407.8,32.0
407.86,20.0
407.92,11.0
407.99,39.0
408.05,24.0
408.11,24.0
408.18,37.0
408.24,33.0
408.3,32.0
408.37,16.0
408.43,39.0
408.49,59.0
408.55,51.0
408.62,50.0
408.68,40.0
408.74,60.0
408.81,77.0
408.87,56.0
408.93,62.0
409.0,71.0
409.06,78.0
409.12,91.0
409.18,110.0
409.25,84.0
409.31,95.0
409.37,95.0
409.44,85.0
409.5,65.0
409.56,54.0
409.63,82.0
409.69,81.0
409.75,99.0
409.81,106.0
409.88,105.0
409.94,102.0
410.0,104.0
410.07,107.0
410.13,84.0
410.19,106.0
410.26,110.0
410.32,135.0
410.38,102.0
410.44,95.0
410.51,117.0
410.57,92.0
410.63,119.0
410.7,116.0
410.76,113.0
410.82,121.0
410.89,124.0
410.95,124.0
411.01,123.0
411.07,136.0
411.14,131.0
411.2,132.0
411.26,133.0
411.33,115.0
411.39,118.0
411.45,116.0
411.52,114.0
411.58,111.0
411.64,103.0
411.7,121.0
411.77,109.0
411.83,106.0
411.89,117.0
411.96,126.0
412.02,125.0
412.08,103.0
412.15,99.0
412.21,98.0
412.27,88.0
412.33,89.0
412.4,95.0
412.46,95.0
412.52,85.0
412.59,96.0
412.65,100.0
412.71,90.0
412.78,111.0
412.84,81.0
412.9,92.0
412.96,97.0
413.03,96.0
413.09,78.0
413.15,83.0
413.22,102.0
413.28,106.0
413.34,99.0
413.41,104.0
413.47,115.0
413.53,103.0
413.59,99.0
413.66,98.0
413.72,101.0
413.78,87.0
413.85,98.0
413.91,87.0
413.97,93.0
414.04,87.0
414.1,84.0
414.16,84.0
414.22,90.0
414.29,84.0
414.35,88.0
414.41,100.0
414.48,99.0
414.54,98.0
414.6,92.0
414.67,106.0
414.73,110.0
414.79,88.0
414.85,77.0
414.92,97.0
414.98,98.0
415.04,82.0
415.11,90.0
415.17,91.0
415.23,96.0
415.3,99.0
415.36,113.0
415.42,104.0
415.48,110.0
415.55,99.0
415.61,100.0
415.67,83.0
415.74,91.0
415.8,90.0
415.86,109.0
415.93,90.0
415.99,102.0
416.05,107.0
416.11,99.0
416.18,102.0
416.24,79.0
416.3,73.0
416.37,80.0
416.43,73.0
416.49,66.0
416.56,67.0
416.62,65.0
416.68,64.0
416.74,65.0
416.81,58.0
416.87,74.0
416.93,82.0
417.0,80.0
417.06,84.0
417.12,68.0
417.19,75.0
417.25,77.0
417.31,60.0
417.37,74.0
417.44,86.0
417.5,77.0
417.56,65.0
417.63,100.0
417.69,93.0
417.75,109.0
417.82,126.0
417.88,121.0
417.94,125.0
418.0,122.0
418.07,99.0
418.13,101.0
418.19,128.0
418.26,130.0
418.32,133.0
418.38,134.0
418.45,140.0
418.51,128.0
418.57,129.0
418.63,123.0
418.7,115.0
418.76,129.0
418.82,132.0
418.89,120.0
418.95,131.0
419.01,131.0
419.08,113.0
419.14,110.0
419.2,113.0
419.26,113.0
419.33,119.0
419.39,103.0
419.45,109.0
419.52,107.0
419.58,122.0
419.64,117.0
419.71,99.0
419.77,107.0
419.83,121.0
419.89,86.0
419.96,87.0
420.02,97.0
420.08,102.0
420.15,110.0
420.21,91.0
420.27,98.0
420.34,100.0
420.4,82.0
420.46,99.0
420.52,82.0
420.59,81.0
420.65,99.0
420.71,100.0
420.78,95.0
420.84,102.0
420.9,99.0
420.97,95.0
421.03,104.0
421.09,88.0
421.15,99.0
421.22,87.0
421.28,84.0
421.34,76.0
421.41,64.0
421.47,77.0
421.53,76.0
421.6,81.0
421.66,69.0
421.72,69.0
421.78,60.0
421.85,61.0
421.91,55.0
421.97,54.0
422.04,63.0
422.1,54.0
422.16,57.0
422.23,66.0
422.29,77.0
422.35,91.0
422.41,72.0
422.48,75.0
422.54,66.0
422.6,62.0
422.67,64.0
422.73,77.0
422.79,94.0
422.86,55.0
422.92,75.0
422.98,70.0
423.04,60.0
423.11,73.0
423.17,74.0
423.23,91.0
423.3,84.0
423.36,103.0
423.42,99.0
423.49,101.0
423.55,106.0
423.61,114.0
423.67,116.0
423.74,114.0
423.8,106.0
423.86,99.0
423.93,93.0
423.99,86.0
424.05,91.0
424.12,103.0
424.18,94.0
424.24,74.0
424.3,71.0
424.37,68.0
424.43,40.0
424.49,40.0
424.56,47.0
424.62,46.0
424.68,32.0
424.75,47.0
424.81,25.0
424.87,39.0
424.93,43.0
425.0,42.0
425.06,44.0
425.12,23.0
425.19,39.0
425.25,35.0
425.31,27.0
425.38,40.0
425.44,47.0
425.5,35.0
425.56,20.0
425.63,37.0
425.69,40.0
425.75,48.0
425.82,48.0
425.88,69.0
425.94,91.0
426.01,73.0
426.07,81.0
426.13,77.0
426.19,84.0
426.26,74.0
426.32,63.0
426.38,70.0
426.45,92.0
426.51,91.0
426.57,98.0
426.64,108.0
426.7,89.0
426.76,87.0
426.82,102.0
426.89,107.0
426.95,90.0
427.01,104.0
427.08,93.0
427.14,96.0
427.2,84.0
427.27,98.0
427.33,112.0
427.39,117.0
427.45,117.0
427.52,96.0
427.58,128.0
427.64,132.0
427.71,109.0
427.77,100.0
427.83,125.0
427.9,121.0
427.96,96.0
428.02,88.0
428.08,112.0
428.15,99.0
428.21,121.0
428.27,110.0
428.34,99.0
428.4,85.0
428.46,97.0
428.53,121.0
428.59,106.0
428.65,116.0
428.71,104.0
428.78,92.0
428.84,99.0
428.9,99.0
428.97,105.0
429.03,121.0
429.09,110.0
429.16,92.0
429.22,96.0
429.28,110.0
429.34,92.0
429.41,102.0
429.47,94.0
429.53,101.0
429.6,88.0
429.66,88.0
429.72,106.0
429.79,85.0
429.85,84.0
429.91,96.0
429.97,98.0
430.04,85.0
430.1,74.0
430.16,54.0
430.23,74.0
430.29,52.0
430.35,71.0
430.42,81.0
430.48,82.0
430.54,62.0
430.6,76.0
430.67,79.0
430.73,76.0
430.79,86.0
430.86,78.0
430.92,94.0
430.98,85.0
431.05,77.0
431.11,92.0
431.17,95.0
431.23,78.0
431.3,105.0
431.36,94.0
431.42,76.0
431.49,78.0
431.55,100.0
431.61,105.0
431.68,95.0
431.74,102.0
431.8,87.0
431.86,84.0
431.93,101.0
431.99,85.0
432.05,94.0
432.12,94.0
432.18,94.0
432.24,83.0
432.31,96.0
432.37,78.0
432.43,65.0
432.49,94.0
432.56,74.0
432.62,95.0
432.68,86.0
432.75,90.0
432.81,101.0
432.87,98.0
432.94,97.0
433.0,78.0
433.06,83.0
433.12,109.0
433.19,98.0
433.25,99.0
433.31,95.0
433.38,88.0
433.44,87.0
433.5,83.0
433.57,81.0
433.63,75.0
433.69,69.0
433.75,75.0
433.82,95.0
433.88,91.0
433.94,87.0
434.01,92.0
434.07,104.0
434.13,101.0
434.2,99.0
434.26,88.0
434.32,106.0
434.38,101.0
434.45,98.0
434.51,114.0
434.57,110.0
434.64,98.0
434.7,101.0
434.76,117.0
434.83,110.0
434.89,107.0
434.95,106.0
435.01,91.0
435.08,98.0
435.14,90.0
435.2,91.0
435.27,88.0
435.33,91.0
435.39,99.0
435.46,70.0
435.52,69.0
435.58,92.0
435.64,94.0
435.71,93.0
435.77,99.0
435.83,109.0
435.9,91.0
435.96,88.0
436.02,91.0
436.09,101.0
436.15,117.0
436.21,97.0
436.27,106.0
436.34,116.0
436.4,112.0
436.46,131.0
436.53,129.0
436.59,96.0
436.65,109.0
436.72,96.0
436.78,82.0
436.84,101.0
436.9,93.0
436.97,77.0
437.03,71.0
437.09,77.0
437.16,83.0
437.22,64.0
437.28,64.0
437.35,82.0
437.41,87.0
437.47,88.0
437.53,85.0
437.6,92.0
437.66,96.0
437.72,98.0
437.79,76.0
437.85,86.0
437.91,73.0
437.98,86.0
438.04,83.0
438.1,91.0
438.16,91.0
438.23,76.0
438.29,76.0
438.35,68.0
438.42,55.0
438.48,75.0
438.54,70.0
438.61,77.0
438.67,69.0
438.73,55.0
438.79,76.0
438.86,82.0
438.92,79.0
438.98,53.0
439.05,47.0
439.11,38.0
439.17,47.0
439.24,57.0
439.3,52.0
439.36,57.0
439.42,71.0
439.49,59.0
439.55,53.0
439.61,60.0
439.68,54.0
439.74,32.0
439.8,25.0
439.87,20.0
439.93,46.0
439.99,47.0
440.05,24.0
440.12,29.0
440.18,18.0
440.24,25.0
440.31,30.0
440.37,14.0
440.43,16.0
440.5,25.0
440.56,19.0
440.62,16.0
440.68,22.0
440.75,29.0
440.81,18.0
440.87,14.0
440.94,11.0
441.0,16.0
441.06,22.0
441.13,12.0
441.19,4.0
441.25,-17.0
441.31,0.0
441.38,-4.0
441.44,-2.0
441.5,-2.0
441.57,-24.0
441.63,-7.0
441.69,-11.0
441.76,-26.0
441.82,-27.0
441.88,-7.0
441.94,-18.0
442.01,-16.0
442.07,-48.0
442.13,-17.0
442.2,-4.0
442.26,-40.0
442.32,-42.0
442.39,-18.0
442.45,-8.0
442.51,13.0
442.57,10.0
442.64,-6.0
442.7,25.0
442.76,38.0
442.83,33.0
442.89,52.0
442.95,62.0
443.02,42.0
443.08,27.0
443.14,24.0
443.2,25.0
443.27,35.0
443.33,24.0
443.39,29.0
443.46,53.0
443.52,59.0
443.58,57.0
443.65,64.0
443.71,47.0
443.77,56.0
443.83,63.0
443.9,72.0
443.96,52.0
444.02,31.0
444.09,28.0
444.15,24.0
444.21,31.0
444.28,34.0
444.34,46.0
444.4,37.0
444.46,32.0
444.53,23.0
444.59,15.0
444.65,48.0
444.72,45.0
444.78,31.0
444.84,35.0
444.91,61.0
444.97,38.0
445.03,58.0
445.09,62.0
445.16,66.0
445.22,57.0
445.28,53.0
445.35,64.0
445.41,79.0
445.47,62.0
445.54,48.0
445.6,78.0
445.66,71.0
445.72,75.0
445.79,87.0
445.85,67.0
445.91,73.0
445.98,63.0
446.04,74.0
446.1,41.0
446.17,56.0
446.23,57.0
446.29,56.0
446.35,67.0
446.42,63.0
446.48,74.0
446.54,82.0
446.61,75.0
446.67,63.0
446.73,45.0
446.8,69.0
446.86,74.0
446.92,79.0
446.98,82.0
447.05,92.0
447.11,79.0
447.17,88.0
447.24,78.0
447.3,74.0
447.36,89.0
447.43,78.0
447.49,76.0
447.55,98.0
447.61,78.0
447.68,93.0
447.74,85.0
447.8,79.0
447.87,87.0
447.93,74.0
447.99,75.0
448.06,74.0
448.12,85.0
448.18,67.0
448.24,84.0
448.31,71.0
448.37,68.0
448.43,85.0
448.5,99.0
448.56,88.0
448.62,90.0
448.69,90.0
448.75,86.0
448.81,90.0
448.87,98.0
448.94,116.0
449.0,111.0
449.06,120.0
449.13,90.0
449.19,63.0
449.25,74.0
449.32,74.0
449.38,79.0
449.44,60.0
449.5,50.0
449.57,52.0
449.63,53.0
449.69,67.0
449.76,76.0
449.82,86.0
449.88,85.0
449.95,92.0
450.01,99.0
450.07,75.0
450.13,73.0
450.2,64.0
450.26,74.0
450.32,116.0
450.39,91.0
450.45,85.0
450.51,78.0
450.58,64.0
450.64,78.0
450.7,82.0
450.76,75.0
450.83,67.0
450.89,67.0
450.95,57.0
451.02,62.0
451.08,72.0
451.14,69.0
451.21,70.0
451.27,75.0
451.33,78.0
451.39,101.0
451.46,95.0
451.52,92.0
451.58,75.0
451.65,81.0
451.71,102.0
451.77,106.0
451.84,111.0
451.9,104.0
451.96,129.0
452.02,136.0
452.09,134.0
452.15,141.0
452.21,119.0
452.28,122.0
452.34,129.0
452.4,115.0
452.47,115.0
452.53,126.0
452.59,118.0
452.65,130.0
452.72,129.0
452.78,103.0
452.84,122.0
452.91,113.0
452.97,117.0
453.03,119.0
453.1,134.0
453.16,133.0
453.22,134.0
453.28,133.0
453.35,133.0
453.41,136.0
453.47,140.0
453.54,137.0
453.6,141.0
453.66,159.0
453.73,148.0
453.79,153.0
453.85,150.0
453.91,151.0
453.98,154.0
454.04,153.0
454.1,145.0
454.17,161.0
454.23,159.0
454.29,139.0
454.36,162.0
454.42,165.0
454.48,159.0
454.54,129.0
454.61,121.0
454.67,126.0
454.73,141.0
454.8,134.0
454.86,138.0
454.92,119.0
454.99,101.0
455.05,105.0
455.11,86.0
455.17,89.0
455.24,92.0
455.3,85.0
455.36,106.0
455.43,94.0
455.49,86.0
455.55,78.0
455.62,78.0
455.68,96.0
455.74,96.0
455.8,94.0
455.87,98.0
455.93,86.0
455.99,73.0
456.06,78.0
456.12,83.0
456.18,81.0
456.25,78.0
456.31,68.0
456.37,79.0
456.43,82.0
456.5,73.0
456.56,61.0
456.62,63.0
456.69,60.0
456.75,35.0
456.81,45.0
456.88,54.0
456.94,40.0
457.0,46.0
457.06,47.0
457.13,30.0
457.19,31.0
457.25,30.0
457.32,38.0
457.38,21.0
457.44,21.0
457.51,32.0
457.57,27.0
457.63,20.0
457.69,14.0
457.76,10.0
457.82,33.0
457.88,18.0
457.95,24.0
458.01,36.0
458.07,23.0
458.14,4.0
458.2,-3.0
458.26,-7.0
458.32,4.0
458.39,6.0
458.45,7.0
458.51,2.0
458.58,4.0
458.64,1.0
458.7,14.0
458.77,16.0
458.83,14.0
458.89,27.0
458.95,18.0
459.02,17.0
459.08,13.0
459.14,23.0
459.21,22.0
459.27,22.0
459.33,13.0
459.4,26.0
459.46,33.0
459.52,21.0
459.58,36.0
459.65,47.0
459.71,58.0
459.77,44.0
459.84,19.0
459.9,23.0
459.96,30.0
460.03,20.0
460.09,41.0
460.15,51.0
460.21,43.0
460.28,55.0
460.34,55.0
460.4,55.0
460.47,56.0
460.53,55.0
460.59,61.0
460.66,57.0
460.72,63.0
460.78,68.0
460.84,63.0
460.91,60.0
460.97,66.0
461.03,73.0
461.1,56.0
461.16,46.0
461.22,73.0
461.29,82.0
461.35,57.0
461.41,83.0
461.47,67.0
461.54,70.0
461.6,51.0
461.66,36.0
461.73,36.0
461.79,63.0
461.85,59.0
461.92,65.0
461.98,95.0
462.04,91.0
462.1,92.0
462.17,86.0
462.23,103.0
462.29,103.0
462.36,93.0
462.42,94.0
462.48,93.0
462.55,122.0
462.61,132.0
462.67,118.0
462.73,123.0
462.8,118.0
462.86,106.0
462.92,114.0
462.99,131.0
463.05,119.0
463.11,124.0
463.18,143.0
463.24,126.0
463.3,147.0
463.36,156.0
463.43,143.0
463.49,139.0
463.55,139.0
463.62,134.0
463.68,139.0
463.74,124.0
463.81,128.0
463.87,125.0
463.93,118.0
463.99,115.0
464.06,135.0
464.12,142.0
464.18,131.0
464.25,127.0
464.31,129.0
464.37,151.0
464.44,157.0
464.5,150.0
464.56,135.0
464.62,126.0
464.69,136.0
464.75,141.0
464.81,138.0
464.88,150.0
464.94,136.0
465.0,110.0
465.07,122.0
465.13,107.0
465.19,133.0
465.25,145.0
465.32,133.0
465.38,134.0
465.44,125.0
465.51,147.0
465.57,126.0
465.63,125.0
465.7,123.0
465.76,113.0
465.82,98.0
465.88,99.0
465.95,120.0
466.01,107.0
466.07,112.0
466.14,132.0
466.2,110.0
466.26,115.0
466.33,101.0
466.39,84.0
466.45,87.0
466.51,100.0
466.58,77.0
466.64,82.0
466.7,71.0
466.77,48.0
466.83,88.0
466.89,82.0
466.96,76.0
467.02,96.0
467.08,118.0
467.14,114.0
467.21,116.0
467.27,106.0
467.33,99.0
467.4,104.0
467.46,95.0
467.52,121.0
467.59,98.0
467.65,88.0
467.71,84.0
467.77,98.0
467.84,84.0
467.9,80.0
467.96,106.0
468.03,89.0
468.09,90.0
468.15,93.0
468.22,95.0
468.28,103.0
468.34,112.0
468.4,117.0
468.47,107.0
468.53,117.0
468.59,126.0
468.66,129.0
468.72,158.0
468.78,144.0
468.85,134.0
468.91,149.0
468.97,124.0
469.03,141.0
469.1,142.0
469.16,126.0
469.22,125.0
469.29,119.0
469.35,111.0
469.41,124.0
469.48,139.0
469.54,153.0
469.6,153.0
469.66,138.0
469.73,129.0
469.79,123.0
469.85,107.0
469.92,125.0
469.98,132.0
470.04,143.0
470.11,143.0
470.17,132.0
470.23,143.0
470.29,155.0
470.36,133.0
470.42,148.0
470.48,153.0
470.55,132.0
470.61,135.0
470.67,118.0
470.74,133.0
470.8,141.0
470.86,130.0
470.92,117.0
470.99,120.0
471.05,103.0
471.11,104.0
471.18,96.0
471.24,99.0
471.3,120.0
471.37,106.0
471.43,121.0
471.49,109.0
471.55,122.0
471.62,122.0
471.68,109.0
471.74,129.0
471.81,128.0
471.87,125.0
471.93,133.0
472.0,123.0
472.06,120.0
472.12,120.0
472.18,138.0
472.25,136.0
472.31,113.0
472.37,108.0
472.44,134.0
472.5,110.0
472.56,95.0
472.63,91.0
472.69,93.0
472.75,104.0
472.81,95.0
472.88,98.0
472.94,121.0
473.0,96.0
473.07,95.0
473.13,128.0
473.19,120.0
473.26,93.0
473.32,83.0
473.38,77.0
473.44,67.0
473.51,82.0
473.57,81.0
473.63,60.0
473.7,71.0
473.76,62.0
473.82,75.0
473.89,55.0
473.95,63.0
474.01,60.0
474.07,57.0
474.14,68.0
474.2,49.0
474.26,73.0
474.33,81.0
474.39,73.0
474.45,73.0
474.52,92.0
474.58,62.0
474.64,84.0
474.7,93.0
474.77,70.0
474.83,77.0
474.89,88.0
474.96,69.0
475.02,44.0
475.08,60.0
475.15,54.0
475.21,35.0
475.27,71.0
475.33,62.0
475.4,56.0
475.46,57.0
475.52,73.0
475.59,92.0
475.65,94.0
475.71,91.0
475.78,65.0
475.84,61.0
475.9,52.0
475.96,44.0
476.03,44.0
476.09,49.0
476.15,40.0
476.22,40.0
476.28,46.0
476.34,55.0
476.41,45.0
476.47,52.0
476.53,71.0
476.59,51.0
476.66,30.0
476.72,28.0
476.78,30.0
476.85,45.0
476.91,38.0
476.97,35.0
477.04,38.0
477.1,44.0
477.16,46.0
477.22,35.0
477.29,44.0
477.35,19.0
477.41,27.0
477.48,18.0
477.54,46.0
477.6,59.0
477.67,60.0
477.73,60.0
477.79,44.0
477.85,58.0
477.92,64.0
477.98,75.0
478.04,57.0
478.11,66.0
478.17,70.0
478.23,59.0
478.3,59.0
478.36,66.0
478.42,71.0
478.48,77.0
478.55,81.0
478.61,51.0
478.67,74.0
478.74,85.0
478.8,74.0
478.86,77.0
478.93,81.0
478.99,74.0
479.05,85.0
479.11,104.0
479.18,81.0
479.24,109.0
479.3,113.0
479.37,108.0
479.43,115.0
479.49,103.0
479.56,113.0
479.62,90.0
479.68,122.0
479.74,126.0
479.81,133.0
479.87,123.0
479.93,102.0
480.0,119.0
480.06,128.0
480.12,132.0
480.19,117.0
480.25,110.0
480.31,105.0
480.37,101.0
480.44,93.0
480.5,90.0
480.56,84.0
480.63,93.0
480.69,102.0
480.75,108.0
480.82,110.0
480.88,99.0
480.94,106.0
481.0,98.0
481.07,128.0
481.13,137.0
481.19,112.0
481.26,126.0
481.32,142.0
481.38,132.0
481.45,133.0
481.51,132.0
481.57,142.0
481.63,161.0
481.7,131.0
481.76,117.0
481.82,137.0
481.89,112.0
481.95,93.0
482.01,92.0
482.08,95.0
482.14,91.0
482.2,84.0
482.26,97.0
482.33,96.0
482.39,97.0
482.45,85.0
482.52,77.0
482.58,90.0
482.64,102.0
482.71,90.0
482.77,82.0
482.83,66.0
482.89,77.0
482.96,82.0
483.02,73.0
483.08,70.0
483.15,84.0
483.21,77.0
483.27,71.0
483.34,92.0
483.4,88.0
483.46,93.0
483.52,99.0
483.59,90.0
483.65,128.0
483.71,113.0
483.78,78.0
483.84,85.0
483.9,92.0
483.97,90.0
484.03,109.0
484.09,119.0
484.15,114.0
484.22,91.0
484.28,102.0
484.34,102.0
484.41,90.0
484.47,107.0
484.53,91.0
484.6,110.0
484.66,119.0
484.72,125.0
484.78,103.0
484.85,127.0
484.91,128.0
484.97,117.0
485.04,112.0
485.1,104.0
485.16,108.0
485.23,107.0
485.29,98.0
485.35,105.0
485.41,121.0
485.48,124.0
485.54,131.0
485.6,129.0
485.67,115.0
485.73,122.0
485.79,124.0
485.86,136.0
485.92,127.0
485.98,124.0
486.04,121.0
486.11,116.0
486.17,98.0
486.23,102.0
486.3,122.0
486.36,113.0
486.42,100.0
486.49,98.0
486.55,131.0
486.61,138.0
486.67,128.0
486.74,129.0
486.8,146.0
486.86,123.0
486.93,123.0
486.99,130.0
487.05,132.0
487.12,142.0
487.18,143.0
487.24,128.0
487.3,126.0
487.37,136.0
487.43,130.0
487.49,130.0
487.56,117.0
487.62,134.0
487.68,129.0
487.75,137.0
487.81,139.0
487.87,132.0
487.93,136.0
488.0,114.0
488.06,128.0
488.12,137.0
488.19,109.0
488.25,125.0
488.31,119.0
488.38,114.0
488.44,110.0
488.5,105.0
488.56,122.0
488.63,128.0
488.69,114.0
488.75,102.0
488.82,101.0
488.88,115.0
488.94,97.0
489.01,107.0
489.07,96.0
489.13,103.0
489.19,109.0
489.26,90.0
489.32,101.0
489.38,104.0
489.45,106.0
489.51,84.0
489.57,70.0
489.64,73.0
489.7,87.0
489.76,101.0
489.82,91.0
489.89,112.0
489.95,89.0
490.01,92.0
490.08,85.0
490.14,68.0
490.2,69.0
490.27,67.0
490.33,80.0
490.39,80.0
490.45,54.0
490.52,50.0
490.58,56.0
490.64,33.0
490.71,31.0
490.77,29.0
490.83,38.0
490.9,43.0
490.96,40.0
491.02,26.0
491.08,29.0
491.15,43.0
491.21,29.0
491.27,29.0
491.34,29.0
491.4,26.0
491.46,10.0
491.53,-10.0
491.59,-5.0
491.65,2.0
491.71,7.0
491.78,-12.0
491.84,5.0
491.9,14.0
491.97,17.0
492.03,14.0
492.09,22.0
492.16,7.0
492.22,4.0
492.28,13.0
492.34,20.0
492.41,9.0
492.47,7.0
492.53,-5.0
492.6,8.0
492.66,18.0
492.72,19.0
492.79,40.0
492.85,58.0
492.91,44.0
492.97,72.0
493.04,67.0
493.1,65.0
493.16,48.0
493.23,70.0
493.29,52.0
493.35,37.0
493.42,34.0
493.48,33.0
493.54,51.0
493.6,53.0
493.67,43.0
493.73,44.0
493.79,48.0
493.86,52.0
493.92,45.0
493.98,51.0
494.05,64.0
494.11,39.0
494.17,42.0
494.23,36.0
494.3,20.0
494.36,52.0
494.42,50.0
494.49,52.0
494.55,52.0
494.61,64.0
494.68,59.0
494.74,60.0
494.8,69.0
494.86,67.0
494.93,69.0
494.99,60.0
495.05,72.0
495.12,63.0
495.18,67.0
495.24,74.0
495.31,86.0
495.37,74.0
495.43,84.0
495.49,99.0
495.56,110.0
495.62,97.0
495.68,124.0
495.75,115.0
495.81,89.0
495.87,100.0
495.94,94.0
496.0,74.0
496.06,89.0
496.12,96.0
496.19,82.0
496.25,104.0
496.31,81.0
496.38,78.0
496.44,77.0
496.5,85.0
496.57,92.0
496.63,71.0
496.69,64.0
496.75,67.0
496.82,45.0
496.88,58.0
496.94,74.0
497.01,80.0
497.07,80.0
497.13,92.0
497.2,78.0
497.26,79.0
497.32,67.0
497.38,85.0
497.45,95.0
497.51,92.0
497.57,93.0
497.64,107.0
497.7,89.0
497.76,81.0
497.83,99.0
497.89,101.0
497.95,108.0
498.01,98.0
498.08,93.0
498.14,91.0
498.2,99.0
498.27,114.0
498.33,103.0
498.39,88.0
498.46,104.0
498.52,104.0
498.58,100.0
498.64,107.0
498.71,96.0
498.77,104.0
498.83,98.0
498.9,107.0
498.96,100.0
499.02,107.0
499.09,116.0
499.15,90.0
499.21,85.0
499.27,72.0
499.34,79.0
499.4,80.0
499.46,81.0
499.53,77.0
499.59,69.0
499.65,78.0
499.72,64.0
499.78,52.0
499.84,63.0
499.9,56.0
499.97,42.0
500.03,20.0
500.09,36.0
500.16,45.0
500.22,52.0
500.28,56.0
500.35,28.0
500.41,41.0
500.47,27.0
500.53,36.0
500.6,42.0
500.66,34.0
500.72,50.0
500.79,38.0
500.85,56.0
500.91,63.0
500.98,45.0
501.04,65.0
501.1,58.0
501.16,65.0
501.23,83.0
501.29,91.0
501.35,90.0
501.42,99.0
501.48,104.0
501.54,105.0
501.61,92.0
501.67,74.0
501.73,80.0
501.79,85.0
501.86,97.0
501.92,115.0
501.98,96.0
502.05,98.0
502.11,100.0
502.17,104.0
502.24,106.0
502.3,101.0
502.36,93.0
502.42,91.0
502.49,111.0
502.55,93.0
502.61,92.0
502.68,107.0
502.74,108.0
502.8,89.0
502.87,97.0
502.93,105.0
502.99,105.0
503.05,106.0
503.12,110.0
503.18,106.0
503.24,116.0
503.31,129.0
503.37,105.0
503.43,119.0
503.5,135.0
503.56,130.0
503.62,137.0
503.68,130.0
503.75,140.0
503.81,158.0
503.87,143.0
503.94,159.0
504.0,138.0
504.06,145.0
504.13,146.0
504.19,165.0
504.25,162.0
504.31,143.0
504.38,139.0
504.44,149.0
504.5,163.0
504.57,173.0
504.63,148.0
504.69,169.0
504.76,173.0
504.82,159.0
504.88,148.0
504.94,143.0
505.01,143.0
505.07,143.0
505.13,140.0
505.2,138.0
505.26,151.0
505.32,169.0
505.39,172.0
505.45,178.0
505.51,179.0
505.57,195.0
505.64,188.0
505.7,190.0
505.76,173.0
505.83,169.0
505.89,159.0
505.95,140.0
506.02,140.0
506.08,130.0
506.14,129.0
506.2,144.0
506.27,135.0
506.33,127.0
506.39,129.0
506.46,133.0
506.52,113.0
506.58,113.0
506.65,128.0
506.71,109.0
506.77,106.0
506.83,114.0
506.9,110.0
506.96,107.0
507.02,117.0
507.09,112.0
507.15,108.0
507.21,88.0
507.28,82.0
507.34,107.0
507.4,97.0
507.46,113.0
507.53,85.0
507.59,92.0
507.65,96.0
507.72,102.0
507.78,90.0
507.84,83.0
507.91,100.0
507.97,88.0
508.03,87.0
508.09,75.0
508.16,72.0
508.22,78.0
508.28,87.0
508.35,61.0
508.41,58.0
508.47,55.0
508.54,50.0
508.6,48.0
508.66,50.0
508.72,72.0
508.79,71.0
508.85,59.0
508.91,40.0
508.98,67.0
509.04,64.0
509.1,56.0
509.17,57.0
509.23,84.0
509.29,77.0
509.35,51.0
509.42,64.0
509.48,66.0
509.54,53.0
509.61,63.0
509.67,61.0
509.73,54.0
509.8,71.0
509.86,76.0
509.92,78.0
509.98,63.0
510.05,86.0
510.11,103.0
510.17,74.0
510.24,66.0
510.3,70.0
510.36,85.0
510.43,80.0
510.49,85.0
510.55,61.0
510.61,61.0
510.68,74.0
510.74,65.0
510.8,60.0
510.87,63.0
510.93,64.0
510.99,81.0
511.06,63.0
511.12,56.0
511.18,55.0
511.24,75.0
511.31,78.0
511.37,78.0
511.43,89.0
511.5,61.0
511.56,62.0
511.62,70.0
511.69,72.0
511.75,78.0
511.81,107.0
511.87,77.0
511.94,90.0
512.0,86.0
512.06,100.0
512.13,94.0
512.19,82.0
512.25,83.0
512.32,71.0
512.38,68.0
512.44,81.0
512.5,89.0
512.57,74.0
512.63,77.0
512.69,92.0
512.76,99.0
512.82,88.0
512.88,97.0
512.95,94.0
513.01,75.0
513.07,77.0
513.13,85.0
513.2,79.0
513.26,84.0
513.32,93.0
513.39,63.0
513.45,74.0
513.51,74.0
513.58,89.0
513.64,111.0
513.7,96.0
513.76,75.0
513.83,74.0
513.89,83.0
513.95,70.0
514.02,79.0
514.08,79.0
514.14,85.0
514.21,75.0
514.27,81.0
514.33,76.0
514.39,88.0
514.46,87.0
514.52,94.0
514.58,105.0
514.65,84.0
514.71,69.0
514.77,69.0
514.84,76.0
514.9,77.0
514.96,63.0
515.02,84.0
515.09,79.0
515.15,58.0
515.21,77.0
515.28,63.0
515.34,74.0
515.4,70.0
515.47,58.0
515.53,75.0
515.59,57.0
515.65,73.0
515.72,63.0
515.78,52.0
515.84,33.0
515.91,42.0
515.97,45.0
516.03,51.0
516.1,58.0
516.16,32.0
516.22,45.0
516.28,19.0
516.35,15.0
516.41,26.0
516.47,2.0
516.54,15.0
516.6,18.0
516.66,22.0
516.73,21.0
516.79,23.0
516.85,34.0
516.91,32.0
516.98,23.0
517.04,12.0
517.1,36.0
517.17,36.0
517.23,36.0
517.29,59.0
517.36,33.0
517.42,49.0
517.48,59.0
517.54,66.0
517.61,78.0
517.67,64.0
517.73,60.0
517.8,58.0
517.86,65.0
517.92,60.0
517.99,53.0
518.05,60.0
518.11,55.0
518.17,80.0
518.24,67.0
518.3,67.0
518.36,86.0
518.43,82.0
518.49,90.0
518.55,86.0
518.62,111.0
518.68,118.0
518.74,118.0
518.8,102.0
518.87,102.0
518.93,111.0
518.99,124.0
519.06,108.0
519.12,109.0
519.18,125.0
519.25,114.0
519.31,108.0
519.37,124.0
519.43,130.0
519.5,126.0
519.56,122.0
519.62,105.0
519.69,137.0
519.75,140.0
519.81,141.0
519.88,146.0
519.94,133.0
520.0,122.0
520.06,138.0
520.13,145.0
520.19,133.0
520.25,151.0
520.32,138.0
520.38,147.0
520.44,157.0
520.51,170.0
520.57,168.0
520.63,170.0
520.69,164.0
520.76,170.0
520.82,173.0
520.88,187.0
520.95,184.0
521.01,164.0
521.07,155.0
521.14,153.0
521.2,157.0
521.26,145.0
521.32,138.0
521.39,154.0
521.45,134.0
521.51,142.0
521.58,127.0
521.64,129.0
521.7,119.0
521.77,128.0
521.83,123.0
521.89,117.0
521.95,118.0
522.02,120.0
522.08,118.0
522.14,115.0
522.21,133.0
522.27,151.0
522.33,149.0
522.4,140.0
522.46,149.0
522.52,146.0
522.58,156.0
522.65,158.0
522.71,161.0
522.77,160.0
522.84,143.0
522.9,156.0
522.96,129.0
523.03,143.0
523.09,148.0
523.15,114.0
523.21,129.0
523.28,124.0
523.34,131.0
523.4,110.0
523.47,100.0
523.53,135.0
523.59,125.0
523.66,105.0
523.72,111.0
523.78,85.0
523.84,94.0
523.91,55.0
523.97,71.0
524.03,82.0
524.1,77.0
524.16,84.0
524.22,87.0
524.29,89.0
524.35,96.0
524.41,93.0
524.47,90.0
524.54,86.0
524.6,72.0
524.66,89.0
524.73,83.0
524.79,89.0
524.85,87.0
524.92,86.0
524.98,88.0
525.04,93.0
525.1,82.0
525.17,82.0
525.23,76.0
525.29,72.0
525.36,67.0
525.42,46.0
525.48,62.0
525.55,70.0
525.61,55.0
525.67,55.0
525.73,42.0
525.8,66.0
525.86,62.0
525.92,70.0
525.99,63.0
526.05,38.0
526.11,49.0
526.18,43.0
526.24,27.0
526.3,36.0
526.36,58.0
526.43,58.0
526.49,74.0
526.55,78.0
526.62,70.0
526.68,70.0
526.74,72.0
526.81,83.0
526.87,80.0
526.93,86.0
526.99,93.0
527.06,85.0
527.12,83.0
527.18,86.0
527.25,106.0
527.31,92.0
527.37,82.0
527.44,64.0
527.5,78.0
527.56,87.0
527.62,64.0
527.69,99.0
527.75,91.0
527.81,82.0
527.88,88.0
527.94,92.0
528.0,86.0
528.07,104.0
528.13,120.0
528.19,103.0
528.25,88.0
528.32,105.0
528.38,117.0
528.44,114.0
528.51,124.0
528.57,114.0
528.63,108.0
528.7,119.0
528.76,114.0
528.82,112.0
528.88,108.0
528.95,119.0
529.01,109.0
529.07,120.0
529.14,122.0
529.2,118.0
529.26,131.0
529.33,147.0
529.39,140.0
529.45,121.0
529.51,126.0
529.58,127.0
529.64,124.0
529.7,129.0
529.77,123.0
529.83,110.0
529.89,126.0
529.96,132.0
530.02,121.0
530.08,136.0
530.14,144.0
530.21,140.0
530.27,127.0
530.33,154.0
530.4,150.0
530.46,157.0
530.52,163.0
530.59,135.0
530.65,138.0
530.71,143.0
530.77,159.0
530.84,151.0
530.9,145.0
530.96,151.0
531.03,139.0
531.09,128.0
531.15,141.0
531.22,136.0
531.28,144.0
531.34,134.0
531.4,145.0
531.47,142.0
531.53,144.0
531.59,154.0
531.66,158.0
531.72,154.0
531.78,142.0
531.85,140.0
531.91,127.0
531.97,131.0
532.03,130.0
532.1,98.0
532.16,111.0
532.22,100.0
532.29,99.0
532.35,98.0
532.41,99.0
532.48,81.0
532.54,77.0
532.6,78.0
532.66,65.0
532.73,87.0
532.79,66.0
532.85,64.0
532.92,79.0
532.98,53.0
533.04,62.0
533.11,64.0
533.17,52.0
533.23,39.0
533.29,36.0
533.36,43.0
533.42,52.0
533.48,59.0
533.55,44.0
533.61,49.0
533.67,69.0
533.74,86.0
533.8,69.0
533.86,62.0
533.92,48.0
533.99,73.0
534.05,84.0
534.11,57.0
534.18,56.0
534.24,51.0
534.3,47.0
534.37,53.0
534.43,50.0
534.49,45.0
534.55,47.0
534.62,54.0
534.68,39.0
534.74,42.0
534.81,52.0
534.87,61.0
534.93,85.0
535.0,70.0
535.06,68.0
535.12,63.0
535.18,63.0
535.25,58.0
535.31,56.0
535.37,68.0
535.44,82.0
535.5,96.0
535.56,83.0
535.63,91.0
535.69,88.0
535.75,82.0
535.81,78.0
535.88,81.0
535.94,86.0
536.0,85.0
536.07,88.0
536.13,81.0
536.19,86.0
536.26,88.0
536.32,108.0
536.38,91.0
536.44,113.0
536.51,125.0
536.57,103.0
536.63,110.0
536.7,114.0
536.76,126.0
536.82,122.0
536.89,105.0
536.95,113.0
537.01,116.0
537.07,110.0
537.14,132.0
537.2,124.0
537.26,124.0
537.33,136.0
537.39,131.0
537.45,127.0
537.52,118.0
537.58,117.0
537.64,119.0
537.7,132.0
537.77,115.0
537.83,98.0
537.89,85.0
537.96,92.0
538.02,113.0
538.08,115.0
538.15,112.0
538.21,131.0
538.27,129.0
538.33,130.0
538.4,114.0
538.46,126.0
538.52,116.0
538.59,109.0
538.65,117.0
538.71,144.0
538.78,122.0
538.84,109.0
538.9,126.0
538.96,123.0
539.03,115.0
539.09,114.0
539.15,111.0
539.22,116.0
539.28,104.0
539.34,110.0
539.41,85.0
539.47,97.0
539.53,106.0
539.59,90.0
539.66,89.0
539.72,83.0
539.78,110.0
539.85,97.0
539.91,96.0
539.97,89.0
540.04,74.0
540.1,63.0
540.16,80.0
540.22,81.0
540.29,85.0
540.35,77.0
540.41,92.0
540.48,76.0
540.54,67.0
540.6,49.0
540.67,50.0
540.73,44.0
540.79,34.0
540.85,50.0
540.92,56.0
540.98,42.0
541.04,26.0
541.11,19.0
541.17,25.0
541.23,42.0
541.3,34.0
541.36,37.0
541.42,9.0
541.48,28.0
541.55,23.0
541.61,13.0
541.67,22.0
541.74,11.0
541.8,16.0
541.86,18.0
541.93,17.0
541.99,19.0
542.05,16.0
542.11,8.0
542.18,-20.0
542.24,-18.0
542.3,-19.0
542.37,-4.0
542.43,-5.0
542.49,-12.0
542.56,-2.0
542.62,-18.0
542.68,-8.0
542.74,6.0
542.81,-18.0
542.87,-6.0
542.93,-6.0
543.0,-13.0
543.06,9.0
543.12,2.0
543.19,9.0
543.25,2.0
543.31,3.0
543.37,1.0
543.44,4.0
543.5,10.0
543.56,3.0
543.63,7.0
543.69,-5.0
543.75,10.0
543.82,3.0
543.88,11.0
543.94,-2.0
544.0,-12.0
544.07,13.0
544.13,31.0
544.19,27.0
544.26,22.0
544.32,22.0
544.38,27.0
544.45,4.0
544.51,29.0
544.57,36.0
544.63,37.0
544.7,40.0
544.76,40.0
544.82,52.0
544.89,54.0
544.95,67.0
545.01,49.0
545.08,60.0
545.14,51.0
545.2,45.0
545.26,46.0
545.33,60.0
545.39,78.0
545.45,92.0
545.52,96.0
545.58,104.0
545.64,96.0
545.71,101.0
545.77,81.0
545.83,98.0
545.89,94.0
545.96,101.0
546.02,99.0
546.08,123.0
546.15,129.0
546.21,123.0
546.27,135.0
546.34,140.0
546.4,120.0
546.46,125.0
546.52,125.0
546.59,126.0
546.65,103.0
546.71,117.0
546.78,117.0
546.84,99.0
546.9,95.0
546.97,100.0
547.03,102.0
547.09,81.0
547.15,103.0
547.22,106.0
547.28,88.0
547.34,120.0
547.41,107.0
547.47,123.0
547.53,116.0
547.6,116.0
547.66,123.0
547.72,111.0
547.78,104.0
547.85,94.0
547.91,94.0
547.97,93.0
548.04,110.0
548.1,123.0
548.16,117.0
548.23,124.0
548.29,136.0
548.35,137.0
548.41,128.0
548.48,132.0
548.54,139.0
548.6,140.0
548.67,143.0
548.73,129.0
548.79,116.0
548.86,115.0
548.92,98.0
548.98,93.0
549.04,94.0
549.11,98.0
549.17,119.0
549.23,144.0
549.3,125.0
549.36,100.0
549.42,103.0
549.49,84.0
549.55,72.0
549.61,84.0
549.67,82.0
549.74,94.0
549.8,82.0
549.86,79.0
549.93,84.0
549.99,73.0
550.05,71.0
550.12,55.0
550.18,75.0
550.24,73.0
550.3,48.0
550.37,64.0
550.43,85.0
550.49,86.0
550.56,84.0
550.62,68.0
550.68,74.0
550.75,79.0
550.81,62.0
550.87,81.0
550.93,74.0
551.0,82.0
551.06,93.0
551.12,82.0
551.19,62.0
551.25,71.0
551.31,74.0
551.38,93.0
551.44,118.0
551.5,98.0
551.56,104.0
551.63,98.0
551.69,82.0
551.75,107.0
551.82,98.0
551.88,82.0
551.94,93.0
552.01,85.0
552.07,74.0
552.13,85.0
552.19,98.0
552.26,104.0
552.32,97.0
552.38,109.0
552.45,87.0
552.51,71.0
552.57,97.0
552.64,115.0
552.7,126.0
552.76,120.0
552.82,112.0
552.89,136.0
552.95,145.0
553.01,151.0
553.08,147.0
553.14,159.0
553.2,148.0
553.27,148.0
553.33,152.0
553.39,155.0
553.45,154.0
553.52,167.0
553.58,169.0
553.64,162.0
553.71,181.0
553.77,186.0
553.83,170.0
553.9,164.0
553.96,177.0
554.02,186.0
554.08,156.0
554.15,166.0
554.21,148.0
554.27,153.0
554.34,152.0
554.4,169.0
554.46,164.0
554.53,169.0
554.59,141.0
554.65,153.0
554.71,146.0
554.78,159.0
554.84,184.0
554.9,192.0
554.97,170.0
555.03,186.0
555.09,178.0
555.16,185.0
555.22,195.0
555.28,177.0
555.34,197.0
555.41,183.0
555.47,196.0
555.53,162.0
555.6,152.0
555.66,163.0
555.72,172.0
555.79,171.0
555.85,160.0
555.91,174.0
555.97,180.0
556.04,171.0
556.1,134.0
556.16,149.0
556.23,138.0
556.29,146.0
556.35,148.0
556.42,142.0
556.48,166.0
556.54,166.0
556.6,141.0
556.67,120.0
556.73,126.0
556.79,136.0
556.86,157.0
556.92,151.0
556.98,136.0
557.05,155.0
557.11,156.0
557.17,159.0
557.23,150.0
557.3,133.0
557.36,153.0
557.42,165.0
557.49,168.0
557.55,169.0
557.61,144.0
557.68,144.0
557.74,131.0
557.8,119.0
557.86,125.0
557.93,112.0
557.99,117.0
558.05,101.0
558.12,102.0
558.18,98.0
558.24,104.0
558.31,91.0
558.37,82.0
558.43,84.0
558.49,91.0
558.56,67.0
558.62,70.0
558.68,57.0
558.75,43.0
558.81,44.0
558.87,60.0
558.94,58.0
559.0,60.0
559.06,44.0
559.12,46.0
559.19,45.0
559.25,26.0
559.31,53.0
559.38,41.0
559.44,36.0
559.5,32.0
559.57,49.0
559.63,62.0
559.69,56.0
559.75,32.0
559.82,40.0
559.88,32.0
559.94,31.0
560.01,41.0
560.07,36.0
560.13,52.0
560.2,56.0
560.26,54.0
560.32,44.0
560.38,43.0
560.45,32.0
560.51,27.0
560.57,12.0
560.64,28.0
560.7,13.0
560.76,20.0
560.83,26.0
560.89,31.0
560.95,30.0
561.01,45.0
561.08,48.0
561.14,45.0
561.2,60.0
561.27,60.0
561.33,67.0
561.39,82.0
561.46,85.0
561.52,101.0
561.58,80.0
561.64,92.0
561.71,107.0
561.77,85.0
561.83,89.0
561.9,94.0
561.96,101.0
562.02,82.0
562.09,95.0
562.15,117.0
562.21,110.0
562.27,96.0
562.34,78.0
562.4,73.0
562.46,84.0
562.53,96.0
562.59,88.0
562.65,82.0
562.72,69.0
562.78,53.0
562.84,60.0
562.9,56.0
562.97,87.0
563.03,83.0
563.09,87.0
563.16,87.0
563.22,82.0
563.28,87.0
563.35,87.0
563.41,76.0
563.47,95.0
563.53,108.0
563.6,105.0
563.66,114.0
563.72,122.0
563.79,109.0
563.85,105.0
563.91,103.0
563.98,99.0
564.04,106.0
564.1,114.0
564.16,126.0
564.23,117.0
564.29,117.0
564.35,116.0
564.42,128.0
564.48,111.0
564.54,89.0
564.61,99.0
564.67,98.0
564.73,91.0
564.79,74.0
564.86,96.0
564.92,103.0
564.98,107.0
565.05,93.0
565.11,104.0
565.17,126.0
565.24,119.0
565.3,109.0
565.36,116.0
565.42,105.0
565.49,118.0
565.55,113.0
565.61,94.0
565.68,100.0
565.74,115.0
565.8,93.0
565.87,87.0
565.93,89.0
565.99,72.0
566.05,77.0
566.12,85.0
566.18,77.0
566.24,93.0
566.31,96.0
566.37,93.0
566.43,78.0
566.5,89.0
566.56,77.0
566.62,83.0
566.68,82.0
566.75,78.0
566.81,52.0
566.87,62.0
566.94,45.0
567.0,54.0
567.06,67.0
567.13,54.0
567.19,77.0
567.25,68.0
567.31,63.0
567.38,60.0
567.44,76.0
567.5,75.0
567.57,61.0
567.63,70.0
567.69,65.0
567.76,49.0
567.82,51.0
567.88,60.0
567.94,54.0
568.01,69.0
568.07,74.0
568.13,65.0
568.2,49.0
568.26,47.0
568.32,40.0
568.39,54.0
568.45,63.0
568.51,62.0
568.57,82.0
568.64,68.0
568.7,75.0
568.76,70.0
568.83,106.0
568.89,93.0
568.95,85.0
569.02,112.0
569.08,115.0
569.14,115.0
569.2,106.0
569.27,105.0
569.33,88.0
569.39,100.0
569.46,93.0
569.52,91.0
569.58,104.0
569.65,99.0
569.71,112.0
569.77,124.0
569.83,110.0
569.9,111.0
569.96,119.0
570.02,141.0
570.09,105.0
570.15,78.0
570.21,100.0
570.28,112.0
570.34,116.0
570.4,124.0
570.46,130.0
570.53,150.0
570.59,151.0
570.65,154.0
570.72,144.0
570.78,152.0
570.84,134.0
570.91,151.0
570.97,185.0
571.03,170.0
571.09,162.0
571.16,157.0
571.22,175.0
571.28,181.0
571.35,169.0
571.41,194.0
571.47,205.0
571.54,205.0
571.6,199.0
571.66,187.0
571.72,199.0
571.79,190.0
571.85,179.0
571.91,185.0
571.98,163.0
572.04,173.0
572.1,162.0
572.17,161.0
572.23,169.0
572.29,152.0
572.35,159.0
572.42,162.0
572.48,172.0
572.54,159.0
572.61,162.0
572.67,159.0
572.73,142.0
572.8,164.0
572.86,163.0
572.92,159.0
572.98,167.0
573.05,161.0
573.11,166.0
573.17,180.0
573.24,164.0
573.3,159.0
573.36,162.0
573.43,151.0
573.49,159.0
573.55,164.0
573.61,130.0
573.68,144.0
573.74,151.0
573.8,157.0
573.87,166.0
573.93,163.0
573.99,146.0
574.06,138.0
574.12,103.0
574.18,126.0
574.24,121.0
574.31,101.0
574.37,108.0
574.43,95.0
574.5,106.0
574.56,105.0
574.62,111.0
574.69,103.0
574.75,100.0
574.81,106.0
574.87,99.0
574.94,100.0
575.0,128.0
575.06,108.0
575.13,106.0
575.19,125.0
575.25,110.0
575.32,112.0
575.38,115.0
575.44,124.0
575.5,123.0
575.57,91.0
575.63,134.0
575.69,130.0
575.76,123.0
575.82,100.0
575.88,115.0
575.95,103.0
576.01,114.0
576.07,117.0
576.13,101.0
576.2,113.0
576.26,98.0
576.32,103.0
576.39,89.0
576.45,85.0
576.51,94.0
576.58,90.0
576.64,102.0
576.7,112.0
576.76,93.0
576.83,106.0
576.89,108.0
576.95,103.0
577.02,100.0
577.08,116.0
577.14,103.0
577.21,108.0
577.27,118.0
577.33,107.0
577.39,107.0
577.46,95.0
577.52,94.0
577.58,105.0
577.65,115.0
577.71,121.0
577.77,119.0
577.84,84.0
577.9,101.0
577.96,118.0
578.02,128.0
578.09,113.0
578.15,96.0
578.21,108.0
578.28,100.0
578.34,108.0
578.4,116.0
578.47,131.0
578.53,108.0
578.59,126.0
578.65,124.0
578.72,106.0
578.78,92.0
578.84,100.0
578.91,92.0
578.97,90.0
579.03,72.0
579.1,100.0
579.16,91.0
579.22,98.0
579.28,104.0
579.35,80.0
579.41,104.0
579.47,113.0
579.54,97.0
579.6,77.0
579.66,85.0
579.73,86.0
579.79,93.0
579.85,89.0
579.91,110.0
579.98,121.0
580.04,92.0
580.1,129.0
580.17,107.0
580.23,93.0
580.29,122.0
580.36,108.0
580.42,116.0
580.48,125.0
580.54,112.0
580.61,118.0
580.67,116.0
580.73,102.0
580.8,90.0
580.86,86.0
580.92,97.0
580.99,92.0
581.05,108.0
581.11,76.0
581.17,85.0
581.24,104.0
581.3,96.0
581.36,99.0
581.43,115.0
581.49,97.0
581.55,108.0
581.62,108.0
581.68,93.0
581.74,107.0
581.8,107.0
581.87,111.0
581.93,118.0
581.99,103.0
582.06,93.0
582.12,94.0
582.18,112.0
582.25,113.0
582.31,114.0
582.37,104.0
582.43,104.0
582.5,95.0
582.56,89.0
582.62,86.0
582.69,83.0
582.75,88.0
582.81,81.0
582.88,86.0
582.94,75.0
583.0,41.0
583.06,45.0
583.13,54.0
583.19,60.0
583.25,46.0
583.32,52.0
583.38,66.0
583.44,65.0
583.51,46.0
583.57,37.0
583.63,37.0
583.69,44.0
583.76,29.0
583.82,16.0
583.88,42.0
583.95,46.0
584.01,67.0
584.07,41.0
584.14,1.0
584.2,21.0
584.26,21.0
584.32,9.0
584.39,41.0
584.45,38.0
584.51,26.0
584.58,45.0
584.64,46.0
584.7,34.0
584.77,15.0
584.83,24.0
584.89,34.0
584.95,26.0
585.02,38.0
585.08,31.0
585.14,6.0
585.21,23.0
585.27,10.0
585.33,27.0
585.4,14.0
585.46,13.0
585.52,-1.0
585.58,21.0
585.65,4.0
585.71,5.0
585.77,27.0
585.84,21.0
585.9,16.0
585.96,54.0
586.03,52.0
586.09,39.0
586.15,54.0
586.21,61.0
586.28,52.0
586.34,49.0
586.4,41.0
586.47,31.0
586.53,27.0
586.59,28.0
586.66,28.0
586.72,43.0
586.78,68.0
586.84,65.0
586.91,64.0
586.97,73.0
587.03,93.0
587.1,101.0
587.16,94.0
587.22,107.0
587.29,98.0
587.35,95.0
587.41,138.0
587.47,151.0
587.54,136.0
587.6,123.0
587.66,133.0
587.73,129.0
587.79,120.0
587.85,120.0
587.92,129.0
587.98,140.0
588.04,121.0
588.1,114.0
588.17,128.0
588.23,134.0
588.29,118.0
588.36,129.0
588.42,121.0
588.48,118.0
588.55,146.0
588.61,140.0
588.67,125.0
588.73,147.0
588.8,135.0
588.86,124.0
588.92,122.0
588.99,119.0
589.05,118.0
589.11,114.0
589.18,114.0
589.24,125.0
589.3,126.0
589.36,132.0
589.43,142.0
589.49,102.0
589.55,135.0
589.62,118.0
589.68,104.0
589.74,109.0
589.81,98.0
589.87,121.0
589.93,125.0
589.99,123.0
590.06,99.0
590.12,103.0
590.18,111.0
590.25,95.0
590.31,92.0
590.37,101.0
590.44,104.0
590.5,91.0
590.56,96.0
590.62,91.0
590.69,80.0
590.75,76.0
590.81,101.0
590.88,93.0
590.94,81.0
591.0,95.0
591.07,87.0
591.13,70.0
591.19,76.0
591.25,63.0
591.32,54.0
591.38,64.0
591.44,71.0
591.51,80.0
591.57,58.0
591.63,76.0
591.7,86.0
591.76,79.0
591.82,77.0
591.88,82.0
591.95,81.0
592.01,73.0
592.07,45.0
592.14,56.0
592.2,67.0
592.26,61.0
592.33,70.0
592.39,69.0
592.45,81.0
592.51,62.0
592.58,59.0
592.64,46.0
592.7,53.0
592.77,59.0
592.83,54.0
592.89,58.0
592.96,57.0
593.02,32.0
593.08,31.0
593.14,45.0
593.21,45.0
593.27,40.0
593.33,45.0
593.4,49.0
593.46,54.0
593.52,48.0
593.59,44.0
593.65,53.0
593.71,30.0
593.77,35.0
593.84,55.0
593.9,43.0
593.96,44.0
594.03,59.0
594.09,31.0
594.15,39.0
594.22,71.0
594.28,52.0
594.34,33.0
594.4,30.0
594.47,35.0
594.53,18.0
594.59,30.0
594.66,48.0
594.72,26.0
594.78,20.0
594.85,27.0
594.91,22.0
594.97,18.0
595.03,26.0
595.1,35.0
595.16,42.0
595.22,39.0
595.29,37.0
595.35,36.0
595.41,52.0
595.48,50.0
595.54,55.0
595.6,62.0
595.66,54.0
595.73,36.0
595.79,32.0
595.85,26.0
595.92,37.0
595.98,41.0
596.04,41.0
596.11,35.0
596.17,31.0
596.23,34.0
596.29,53.0
596.36,50.0
596.42,54.0
596.48,70.0
596.55,59.0
596.61,45.0
596.67,53.0
596.74,62.0
596.8,63.0
596.86,50.0
596.92,47.0
596.99,49.0
597.05,58.0
597.11,60.0
597.18,60.0
597.24,86.0
597.3,76.0
597.37,101.0
597.43,85.0
597.49,83.0
597.55,82.0
597.62,87.0
597.68,98.0
597.74,111.0
597.81,99.0
597.87,119.0
597.93,126.0
598.0,95.0
598.06,120.0
598.12,110.0
598.18,128.0
598.25,136.0
598.31,131.0
598.37,133.0
598.44,163.0
598.5,142.0
598.56,144.0
598.63,125.0
598.69,126.0
598.75,133.0
598.81,130.0
598.88,112.0
598.94,124.0
599.0,117.0
599.07,98.0
599.13,119.0
599.19,133.0
599.26,113.0
599.32,123.0
599.38,112.0
599.44,109.0
599.51,128.0
599.57,114.0
599.63,97.0
599.7,111.0
599.76,107.0
599.82,107.0
599.89,107.0
599.95,107.0
600.01,101.0
600.07,92.0
600.14,96.0
600.2,87.0
600.26,103.0
600.33,95.0
600.39,107.0
600.45,110.0
600.52,105.0
600.58,94.0
600.64,96.0
600.7,103.0
600.77,90.0
600.83,103.0
600.89,102.0
600.96,95.0
601.02,84.0
601.08,85.0
601.15,69.0
601.21,83.0
601.27,99.0
601.33,79.0
601.4,67.0
601.46,88.0
601.52,92.0
601.59,109.0
601.65,97.0
601.71,84.0
601.78,86.0
601.84,99.0
601.9,98.0
601.96,80.0
602.03,92.0
602.09,96.0
602.15,59.0
602.22,99.0
602.28,80.0
602.34,91.0
602.41,92.0
602.47,98.0
602.53,106.0
602.59,105.0
602.66,107.0
602.72,133.0
602.78,137.0
602.85,122.0
602.91,119.0
602.97,120.0
603.04,133.0
603.1,124.0
603.16,142.0
603.22,157.0
603.29,140.0
603.35,151.0
603.41,175.0
603.48,140.0
603.54,136.0
603.6,151.0
603.67,158.0
603.73,153.0
603.79,163.0
603.85,166.0
603.92,154.0
603.98,162.0
604.04,169.0
604.11,166.0
604.17,154.0
604.23,189.0
604.3,173.0
604.36,155.0
604.42,175.0
604.48,167.0
604.55,171.0
604.61,165.0
604.67,157.0
604.74,162.0
604.8,146.0
604.86,157.0
604.93,152.0
604.99,148.0
605.05,163.0
605.11,157.0
605.18,153.0
605.24,163.0
605.3,152.0
605.37,148.0
605.43,157.0
605.49,150.0
605.56,139.0
605.62,148.0
605.68,151.0
605.74,158.0
605.81,143.0
605.87,140.0
605.93,121.0
606.0,127.0
606.06,127.0
606.12,142.0
606.19,149.0
606.25,166.0
606.31,148.0
606.37,142.0
606.44,144.0
606.5,150.0
606.56,143.0
606.63,134.0
606.69,139.0
606.75,128.0
606.82,141.0
606.88,137.0
606.94,128.0
607.0,123.0
607.07,103.0
607.13,111.0
607.19,127.0
607.26,103.0
607.32,113.0
607.38,96.0
607.45,100.0
607.51,110.0
607.57,89.0
607.63,84.0
607.7,95.0
607.76,89.0
607.82,90.0
607.89,109.0
607.95,93.0
608.01,98.0
608.08,92.0
608.14,94.0
608.2,84.0
608.26,62.0
608.33,75.0
608.39,70.0
608.45,66.0
608.52,58.0
608.58,80.0
608.64,73.0
608.71,57.0
608.77,62.0
608.83,49.0
608.89,71.0
608.96,84.0
609.02,72.0
609.08,65.0
609.15,48.0
609.21,59.0
609.27,55.0
609.34,48.0
609.4,52.0
609.46,36.0
609.52,40.0
609.59,38.0
609.65,42.0
609.71,24.0
609.78,41.0
609.84,29.0
609.9,36.0
609.97,37.0
610.03,44.0
610.09,38.0
610.15,38.0
610.22,26.0
610.28,34.0
610.34,33.0
610.41,16.0
610.47,19.0
610.53,30.0
610.6,10.0
610.66,-7.0
610.72,5.0
610.78,24.0
610.85,37.0
610.91,31.0
610.97,7.0
611.04,17.0
611.1,22.0
611.16,18.0
611.23,36.0
611.29,22.0
611.35,26.0
611.41,40.0
611.48,51.0
611.54,46.0
611.6,44.0
611.67,45.0
611.73,55.0
611.79,63.0
611.86,67.0
611.92,81.0
611.98,84.0
612.04,80.0
612.11,70.0
612.17,68.0
612.23,70.0
612.3,60.0
612.36,62.0
612.42,41.0
612.49,39.0
612.55,38.0
612.61,55.0
612.67,60.0
612.74,57.0
612.8,76.0
612.86,69.0
612.93,47.0
612.99,54.0
613.05,58.0
613.12,55.0
613.18,39.0
613.24,52.0
613.3,56.0
613.37,45.0
613.43,60.0
613.49,62.0
613.56,65.0
613.62,64.0
613.68,59.0
613.75,69.0
613.81,76.0
613.87,72.0
613.93,80.0
614.0,75.0
614.06,83.0
614.12,92.0
614.19,91.0
614.25,81.0
614.31,80.0
614.38,66.0
614.44,63.0
614.5,82.0
614.56,82.0
614.63,82.0
614.69,106.0
614.75,95.0
614.82,78.0
614.88,100.0
614.94,101.0
615.01,100.0
615.07,104.0
615.13,115.0
615.19,115.0
615.26,76.0
615.32,82.0
615.38,90.0
615.45,103.0
615.51,99.0
615.57,106.0
615.64,98.0
615.7,100.0
615.76,110.0
615.82,114.0
615.89,103.0
615.95,104.0
616.01,108.0
616.08,104.0
616.14,114.0
616.2,95.0
616.27,69.0
616.33,82.0
616.39,66.0
616.45,54.0
616.52,54.0
616.58,44.0
616.64,60.0
616.71,64.0
616.77,61.0
616.83,40.0
616.9,66.0
616.96,49.0
617.02,53.0
617.08,40.0
617.15,58.0
617.21,73.0
617.27,59.0
617.34,67.0
617.4,63.0
617.46,53.0
617.53,52.0
617.59,48.0
617.65,58.0
617.71,59.0
617.78,41.0
617.84,64.0
617.9,60.0
617.97,50.0
618.03,63.0
618.09,66.0
618.16,66.0
618.22,59.0
618.28,67.0
618.34,66.0
618.41,56.0
618.47,63.0
618.53,64.0
618.6,69.0
618.66,77.0
618.72,65.0
618.79,46.0
618.85,61.0
618.91,38.0
618.97,52.0
619.04,62.0
619.1,88.0
619.16,75.0
619.23,99.0
619.29,85.0
619.35,57.0
619.42,69.0
619.48,78.0
619.54,84.0
619.6,71.0
619.67,79.0
619.73,77.0
619.79,64.0
619.86,65.0
619.92,110.0
619.98,87.0
620.05,76.0
620.11,85.0
620.17,93.0
620.23,101.0
620.3,90.0
620.36,115.0
620.42,132.0
620.49,122.0
620.55,118.0
620.61,115.0
620.68,134.0
620.74,110.0
620.8,139.0
620.86,149.0
620.93,150.0
620.99,156.0
621.05,163.0
621.12,161.0
621.18,151.0
621.24,165.0
621.31,164.0
621.37,181.0
621.43,184.0
621.49,166.0
621.56,176.0
621.62,173.0
621.68,181.0
621.75,167.0
621.81,152.0
621.87,163.0
621.94,170.0
622.0,161.0
622.06,150.0
622.12,137.0
622.19,173.0
622.25,153.0
622.31,147.0
622.38,158.0
622.44,156.0
622.5,168.0
622.57,158.0
622.63,142.0
622.69,162.0
622.75,147.0
622.82,157.0
622.88,166.0
622.94,179.0
623.01,173.0
623.07,153.0
623.13,160.0
623.2,157.0
623.26,160.0
623.32,153.0
623.38,154.0
623.45,161.0
623.51,139.0
623.57,127.0
623.64,133.0
623.7,122.0
623.76,141.0
623.83,129.0
623.89,140.0
623.95,131.0
624.01,144.0
624.08,118.0
624.14,113.0
624.2,120.0
624.27,146.0
624.33,143.0
624.39,133.0
624.46,148.0
624.52,148.0
624.58,165.0
624.64,134.0
624.71,131.0
624.77,131.0
624.83,120.0
624.9,121.0
624.96,132.0
625.02,125.0
625.09,114.0
625.15,128.0
625.21,128.0
625.27,120.0
625.34,122.0
625.4,123.0
625.46,116.0
625.53,111.0
625.59,106.0
625.65,118.0
625.72,99.0
625.78,107.0
625.84,105.0
625.9,74.0
625.97,65.0
626.03,77.0
626.09,87.0
626.16,107.0
626.22,108.0
626.28,84.0
626.35,82.0
626.41,88.0
626.47,100.0
626.53,106.0
626.6,101.0
626.66,99.0
626.72,106.0
626.79,117.0
626.85,120.0
626.91,98.0
626.98,83.0
627.04,100.0
627.1,111.0
627.16,120.0
627.23,124.0
627.29,111.0
627.35,117.0
627.42,121.0
627.48,128.0
627.54,113.0
627.61,118.0
627.67,132.0
627.73,102.0
627.79,95.0
627.86,97.0
627.92,95.0
627.98,106.0
628.05,67.0
628.11,69.0
628.17,77.0
628.24,71.0
628.3,63.0
628.36,64.0
628.42,62.0
628.49,77.0
628.55,62.0
628.61,63.0
628.68,73.0
628.74,56.0
628.8,61.0
628.87,70.0
628.93,94.0
628.99,75.0
629.05,88.0
629.12,98.0
629.18,95.0
629.24,85.0
629.31,90.0
629.37,97.0
629.43,99.0
629.5,82.0
629.56,83.0
629.62,77.0
629.68,56.0
629.75,58.0
629.81,55.0
629.87,64.0
629.94,59.0
630.0,55.0
630.06,76.0
630.13,58.0
630.19,77.0
630.25,87.0
630.31,71.0
630.38,81.0
630.44,71.0
630.5,62.0
630.57,65.0
630.63,65.0
630.69,53.0
630.76,55.0
630.82,74.0
630.88,65.0
630.94,66.0
631.01,63.0
631.07,79.0
631.13,77.0
631.2,77.0
631.26,98.0
631.32,80.0
631.39,107.0
631.45,84.0
631.51,81.0
631.57,102.0
631.64,91.0
631.7,93.0
631.76,84.0
631.83,103.0
631.89,92.0
631.95,86.0
632.02,81.0
632.08,81.0
632.14,83.0
632.2,91.0
632.27,85.0
632.33,92.0
632.39,83.0
632.46,87.0
632.52,100.0
632.58,90.0
632.65,80.0
632.71,88.0
632.77,70.0
632.83,67.0
632.9,71.0
632.96,55.0
633.02,89.0
633.09,65.0
633.15,52.0
633.21,77.0
633.28,46.0
633.34,65.0
633.4,68.0
633.46,55.0
633.53,66.0
633.59,57.0
633.65,71.0
633.72,51.0
633.78,41.0
633.84,32.0
633.91,45.0
633.97,41.0
634.03,44.0
634.09,63.0
634.16,44.0
634.22,31.0
634.28,31.0
634.35,29.0
634.41,47.0
634.47,34.0
634.54,32.0
634.6,40.0
634.66,35.0
634.72,31.0
634.79,22.0
634.85,36.0
634.91,28.0
634.98,45.0
635.04,43.0
635.1,44.0
635.17,31.0
635.23,22.0
635.29,30.0
635.35,20.0
635.42,27.0
635.48,11.0
635.54,13.0
635.61,6.0
635.67,17.0
635.73,19.0
635.8,0.0
635.86,-14.0
635.92,1.0
635.98,3.0
636.05,-4.0
636.11,-6.0
636.17,-8.0
636.24,1.0
636.3,5.0
636.36,9.0
636.43,14.0
636.49,-3.0
636.55,-2.0
636.61,4.0
636.68,12.0
636.74,29.0
636.8,18.0
636.87,14.0
636.93,38.0
636.99,32.0
637.06,50.0
637.12,48.0
637.18,47.0
637.24,65.0
637.31,56.0
637.37,53.0
637.43,87.0
637.5,78.0
637.56,87.0
637.62,78.0
637.69,88.0
637.75,118.0
637.81,107.0
637.87,108.0
637.94,102.0
638.0,100.0
638.06,117.0
638.13,114.0
638.19,123.0
638.25,132.0
638.32,134.0
638.38,141.0
638.44,157.0
638.5,153.0
638.57,146.0
638.63,164.0
638.69,138.0
638.76,129.0
638.82,131.0
638.88,138.0
638.95,147.0
639.01,138.0
639.07,131.0
639.13,137.0
639.2,165.0
639.26,155.0
639.32,122.0
639.39,131.0
639.45,135.0
639.51,126.0
639.58,138.0
639.64,129.0
639.7,147.0
639.76,132.0
639.83,118.0
639.89,148.0
639.95,151.0
640.02,118.0
640.08,156.0
640.14,157.0
640.21,147.0
640.27,157.0
640.33,122.0
640.39,142.0
640.46,168.0
640.52,140.0
640.58,146.0
640.65,157.0
640.71,150.0
640.77,135.0
640.84,142.0
640.9,152.0
640.96,138.0
641.02,146.0
641.09,142.0
641.15,132.0
641.21,124.0
641.28,138.0
641.34,123.0
641.4,124.0
641.47,117.0
641.53,136.0
641.59,148.0
641.65,130.0
641.72,146.0
641.78,124.0
641.84,117.0
641.91,124.0
641.97,115.0
642.03,128.0
642.1,117.0
642.16,122.0
642.22,128.0
642.28,117.0
642.35,139.0
642.41,135.0
642.47,127.0
642.54,142.0
642.6,123.0
642.66,105.0
642.73,101.0
642.79,89.0
642.85,94.0
642.91,91.0
642.98,102.0
643.04,103.0
643.1,99.0
643.17,78.0
643.23,84.0
643.29,83.0
643.36,91.0
643.42,84.0
643.48,96.0
643.54,110.0
643.61,86.0
643.67,114.0
643.73,114.0
643.8,101.0
643.86,108.0
643.92,103.0
643.99,93.0
644.05,98.0
644.11,95.0
644.17,88.0
644.24,95.0
644.3,84.0
644.36,80.0
644.43,86.0
644.49,62.0
644.55,51.0
644.62,52.0
644.68,46.0
644.74,47.0
644.8,47.0
644.87,46.0
644.93,45.0
644.99,27.0
645.06,37.0
645.12,57.0
645.18,55.0
645.25,34.0
645.31,32.0
645.37,45.0
645.43,46.0
645.5,44.0
645.56,75.0
645.62,50.0
645.69,66.0
645.75,61.0
645.81,61.0
645.88,58.0
645.94,82.0
646.0,76.0
646.06,59.0
646.13,69.0
646.19,48.0
646.25,68.0
646.32,78.0
646.38,69.0
646.44,76.0
646.51,70.0
646.57,83.0
646.63,79.0
646.69,72.0
646.76,64.0
646.82,70.0
646.88,56.0
646.95,64.0
647.01,64.0
647.07,44.0
647.14,61.0
647.2,40.0
647.26,54.0
647.32,64.0
647.39,65.0
647.45,80.0
647.51,79.0
647.58,84.0
647.64,91.0
647.7,73.0
647.77,66.0
647.83,68.0
647.89,78.0
647.95,75.0
648.02,66.0
648.08,77.0
648.14,83.0
648.21,64.0
648.27,85.0
648.33,80.0
648.4,89.0
648.46,106.0
648.52,86.0
648.58,87.0
648.65,85.0
648.71,85.0
648.77,89.0
648.84,109.0
648.9,99.0
648.96,86.0
649.03,109.0
649.09,99.0
649.15,103.0
649.21,105.0
649.28,100.0
649.34,95.0
649.4,75.0
649.47,78.0
649.53,56.0
649.59,78.0
649.66,86.0
649.72,91.0
649.78,73.0
649.84,78.0
649.91,58.0
649.97,73.0
650.03,83.0
650.1,54.0
650.16,66.0
650.22,59.0
650.29,68.0
650.35,44.0
650.41,55.0
650.47,67.0
650.54,88.0
650.6,77.0
650.66,78.0
650.73,76.0
650.79,59.0
650.85,62.0
650.92,98.0
650.98,88.0
651.04,80.0
651.1,71.0
651.17,60.0
651.23,64.0
651.29,44.0
651.36,47.0
651.42,40.0
651.48,23.0
651.55,34.0
651.61,26.0
651.67,35.0
651.73,27.0
651.8,21.0
651.86,13.0
651.92,18.0
651.99,59.0
652.05,40.0
652.11,38.0
652.18,42.0
652.24,39.0
652.3,40.0
652.36,47.0
652.43,43.0
652.49,53.0
652.55,22.0
652.62,42.0
652.68,51.0
652.74,50.0
652.81,62.0
652.87,59.0
652.93,41.0
652.99,57.0
653.06,69.0
653.12,76.0
653.18,71.0
653.25,61.0
653.31,62.0
653.37,67.0
653.44,78.0
653.5,80.0
653.56,84.0
653.62,75.0
653.69,91.0
653.75,79.0
653.81,79.0
653.88,86.0
653.94,89.0
654.0,115.0
654.07,101.0
654.13,121.0
654.19,119.0
654.25,113.0
654.32,141.0
654.38,132.0
654.44,133.0
654.51,118.0
654.57,111.0
654.63,131.0
654.7,142.0
654.76,110.0
654.82,107.0
654.88,138.0
654.95,126.0
655.01,123.0
655.07,113.0
655.14,120.0
655.2,135.0
655.26,135.0
655.33,132.0
655.39,121.0
655.45,124.0
655.51,120.0
655.58,135.0
655.64,117.0
655.7,125.0
655.77,112.0
655.83,110.0
655.89,98.0
655.96,82.0
656.02,104.0
656.08,103.0
656.14,108.0
656.21,122.0
656.27,111.0
656.33,109.0
656.4,136.0
656.46,133.0
656.52,124.0
656.59,122.0
656.65,123.0
656.71,127.0
656.77,110.0
656.84,128.0
656.9,142.0
656.96,133.0
657.03,148.0
657.09,141.0
657.15,146.0
657.22,151.0
657.28,148.0
657.34,143.0
657.4,147.0
657.47,143.0
657.53,154.0
657.59,169.0
657.66,164.0
657.72,161.0
657.78,139.0
657.85,147.0
657.91,181.0
657.97,175.0
658.03,163.0
658.1,136.0
658.16,126.0
658.22,141.0
658.29,123.0
658.35,124.0
658.41,109.0
658.48,111.0
658.54,111.0
658.6,117.0
658.66,98.0
658.73,124.0
658.79,118.0
658.85,119.0
658.92,129.0
658.98,128.0
659.04,129.0
659.11,99.0
659.17,111.0
659.23,111.0
659.29,114.0
659.36,127.0
659.42,113.0
659.48,133.0
659.55,131.0
659.61,137.0
659.67,118.0
659.74,119.0
659.8,128.0
659.86,117.0
659.92,128.0
659.99,125.0
660.05,120.0
660.11,119.0
660.18,124.0
660.24,121.0
660.3,130.0
660.37,126.0
660.43,113.0
660.49,114.0
660.55,110.0
660.62,78.0
660.68,84.0
660.74,95.0
660.81,91.0
660.87,89.0
660.93,76.0
661.0,87.0
661.06,94.0
661.12,73.0
661.18,62.0
661.25,70.0
661.31,77.0
661.37,77.0
661.44,78.0
661.5,87.0
661.56,61.0
661.63,61.0
661.69,69.0
661.75,81.0
661.81,61.0
661.88,66.0
661.94,79.0
662.0,67.0
662.07,58.0
662.13,42.0
662.19,23.0
662.26,26.0
662.32,33.0
662.38,32.0
662.44,41.0
662.51,61.0
662.57,37.0
662.63,39.0
662.7,57.0
662.76,45.0
662.82,44.0
662.89,28.0
662.95,4.0
663.01,11.0
663.07,3.0
663.14,39.0
663.2,40.0
663.26,48.0
663.33,21.0
663.39,34.0
663.45,29.0
663.52,41.0
663.58,48.0
663.64,28.0
663.7,47.0
663.77,40.0
663.83,51.0
663.89,43.0
663.96,45.0
664.02,56.0
664.08,50.0
664.15,83.0
664.21,75.0
664.27,74.0
664.33,77.0
664.4,77.0
664.46,54.0
664.52,71.0
664.59,102.0
664.65,107.0
664.71,81.0
664.78,100.0
664.84,105.0
664.9,102.0
664.96,91.0
665.03,84.0
665.09,108.0
665.15,94.0
665.22,103.0
665.28,86.0
665.34,97.0
665.41,97.0
665.47,99.0
665.53,97.0
665.59,105.0
665.66,112.0
665.72,99.0
665.78,115.0
665.85,126.0
665.91,113.0
665.97,116.0
666.04,117.0
666.1,99.0
666.16,107.0
666.22,99.0
666.29,100.0
666.35,103.0
666.41,94.0
666.48,100.0
666.54,124.0
666.6,94.0
666.67,81.0
666.73,80.0
666.79,73.0
666.85,67.0
666.92,69.0
666.98,73.0
667.04,89.0
667.11,67.0
667.17,72.0
667.23,73.0
667.3,66.0
667.36,73.0
667.42,83.0
667.48,82.0
667.55,62.0
667.61,51.0
667.67,53.0
667.74,65.0
667.8,52.0
667.86,57.0
667.93,56.0
667.99,55.0
668.05,50.0
668.11,47.0
668.18,43.0
668.24,34.0
668.3,26.0
668.37,21.0
668.43,23.0
668.49,38.0
668.56,25.0
668.62,55.0
668.68,59.0
668.74,37.0
668.81,49.0
668.87,31.0
668.93,32.0
669.0,32.0
669.06,25.0
669.12,32.0
669.19,33.0
669.25,22.0
669.31,31.0
669.37,40.0
669.44,42.0
669.5,56.0
669.56,42.0
669.63,46.0
669.69,35.0
669.75,60.0
669.82,55.0
669.88,63.0
669.94,61.0
670.0,84.0
670.07,70.0
670.13,61.0
670.19,66.0
670.26,77.0
670.32,71.0
670.38,99.0
670.45,104.0
670.51,103.0
670.57,88.0
670.63,102.0
670.7,84.0
670.76,77.0
670.82,101.0
670.89,103.0
670.95,115.0
671.01,113.0
671.08,110.0
671.14,109.0
671.2,91.0
671.26,93.0
671.33,106.0
671.39,105.0
671.45,100.0
671.52,106.0
671.58,116.0
671.64,135.0
671.71,117.0
671.77,100.0
671.83,109.0
671.89,119.0
671.96,130.0
672.02,120.0
672.08,119.0
672.15,113.0
672.21,116.0
672.27,117.0
672.34,110.0
672.4,109.0
672.46,119.0
672.52,121.0
672.59,128.0
672.65,118.0
672.71,132.0
672.78,147.0
672.84,135.0
672.9,133.0
672.97,120.0
673.03,114.0
673.09,125.0
673.15,144.0
673.22,123.0
673.28,121.0
673.34,139.0
673.41,123.0
673.47,133.0
673.53,135.0
673.6,113.0
673.66,132.0
673.72,120.0
673.78,122.0
673.85,139.0
673.91,145.0
673.97,153.0
674.04,151.0
674.1,144.0
674.16,138.0
674.23,146.0
674.29,162.0
674.35,154.0
674.41,153.0
674.48,131.0
674.54,159.0
674.6,149.0
674.67,171.0
674.73,173.0
674.79,163.0
674.86,175.0
674.92,146.0
674.98,165.0
675.04,164.0
675.11,158.0
675.17,165.0
675.23,167.0
675.3,179.0
675.36,191.0
675.42,170.0
675.49,157.0
675.55,152.0
675.61,155.0
675.67,169.0
675.74,163.0
675.8,158.0
675.86,161.0
675.93,155.0
675.99,156.0
676.05,166.0
676.12,162.0
676.18,166.0
676.24,164.0
676.3,147.0
676.37,136.0
676.43,135.0
676.49,150.0
676.56,146.0
676.62,139.0
676.68,136.0
676.75,147.0
676.81,155.0
676.87,126.0
676.93,113.0
677.0,130.0
677.06,119.0
677.12,116.0
677.19,114.0
677.25,116.0
677.31,103.0
677.38,108.0
677.44,99.0
677.5,110.0
677.56,80.0
677.63,80.0
677.69,86.0
677.75,84.0
677.82,93.0
677.88,102.0
677.94,119.0
678.01,113.0
678.07,110.0
678.13,83.0
678.19,90.0
678.26,97.0
678.32,73.0
678.38,97.0
678.45,76.0
678.51,76.0
678.57,63.0
678.64,89.0
678.7,85.0
678.76,80.0
678.82,74.0
678.89,99.0
678.95,93.0
679.01,102.0
679.08,95.0
679.14,75.0
679.2,62.0
679.27,73.0
679.33,77.0
679.39,81.0
679.45,83.0
679.52,93.0
679.58,100.0
679.64,84.0
679.71,95.0
679.77,91.0
679.83,84.0
679.9,88.0
679.96,84.0
680.02,79.0
680.08,89.0
680.15,80.0
680.21,97.0
680.27,89.0
680.34,114.0
680.4,116.0
680.46,94.0
680.53,97.0
680.59,94.0
680.65,91.0
680.71,82.0
680.78,77.0
680.84,76.0
680.9,98.0
680.97,90.0
681.03,82.0
681.09,89.0
681.16,73.0
681.22,80.0
681.28,53.0
681.34,51.0
681.41,50.0
681.47,50.0
681.53,51.0
681.6,61.0
681.66,76.0
681.72,62.0
681.79,44.0
681.85,51.0
681.91,49.0
681.97,54.0
682.04,54.0
682.1,60.0
682.16,36.0
682.23,56.0
682.29,73.0
682.35,86.0
682.42,86.0
682.48,71.0
682.54,73.0
682.6,72.0
682.67,78.0
682.73,79.0
682.79,89.0
682.86,78.0
682.92,85.0
682.98,78.0
683.05,75.0
683.11,74.0
683.17,53.0
683.23,78.0
683.3,72.0
683.36,66.0
683.42,84.0
683.49,76.0
683.55,70.0
683.61,64.0
683.68,77.0
683.74,40.0
683.8,43.0
683.86,50.0
683.93,40.0
683.99,47.0
684.05,51.0
684.12,70.0
684.18,67.0
684.24,59.0
684.31,56.0
684.37,60.0
684.43,58.0
684.49,47.0
684.56,58.0
684.62,37.0
684.68,59.0
684.75,64.0
684.81,51.0
684.87,57.0
684.94,68.0
685.0,63.0
685.06,43.0
685.12,45.0
685.19,64.0
685.25,27.0
685.31,25.0
685.38,50.0
685.44,22.0
685.5,34.0
685.57,33.0
685.63,25.0
685.69,30.0
685.75,31.0
685.82,42.0
685.88,47.0
685.94,46.0
686.01,53.0
686.07,56.0
686.13,40.0
686.2,52.0
686.26,66.0
686.32,61.0
686.38,52.0
686.45,75.0
686.51,78.0
686.57,64.0
686.64,75.0
686.7,92.0
686.76,105.0
686.83,87.0
686.89,88.0
686.95,94.0
687.01,94.0
687.08,78.0
687.14,79.0
687.2,88.0
687.27,87.0
687.33,79.0
687.39,95.0
687.46,94.0
687.52,92.0
687.58,86.0
687.64,111.0
687.71,97.0
687.77,95.0
687.83,102.0
687.9,97.0
687.96,95.0
688.02,117.0
688.09,109.0
688.15,115.0
688.21,112.0
688.27,105.0
688.34,103.0
688.4,124.0
688.46,104.0
688.53,131.0
688.59,139.0
688.65,142.0
688.72,130.0
688.78,128.0
688.84,122.0
688.9,119.0
688.97,124.0
689.03,131.0
689.09,124.0
689.16,115.0
689.22,113.0
689.28,104.0
689.35,87.0
689.41,85.0
689.47,116.0
689.53,113.0
689.6,135.0
689.66,142.0
689.72,113.0
689.79,144.0
689.85,126.0
689.91,133.0
689.98,129.0
690.04,151.0
690.1,164.0
690.16,142.0
690.23,130.0
690.29,145.0
690.35,162.0
690.42,172.0
690.48,154.0
690.54,157.0
690.61,165.0
690.67,152.0
690.73,147.0
690.79,154.0
690.86,152.0
690.92,150.0
690.98,152.0
691.05,133.0
691.11,157.0
691.17,154.0
691.24,164.0
691.3,180.0
691.36,149.0
691.42,160.0
691.49,171.0
691.55,153.0
691.61,157.0
691.68,165.0
691.74,159.0
691.8,172.0
691.87,163.0
691.93,155.0
691.99,168.0
692.05,148.0
692.12,123.0
692.18,132.0
692.24,146.0
692.31,118.0
692.37,139.0
692.43,138.0
692.5,136.0
692.56,133.0
692.62,125.0
692.68,132.0
692.75,131.0
692.81,117.0
692.87,137.0
692.94,120.0
693.0,122.0
693.06,118.0
693.13,102.0
693.19,94.0
693.25,91.0
693.31,84.0
693.38,80.0
693.44,98.0
693.5,88.0
693.57,109.0
693.63,86.0
693.69,87.0
693.76,72.0
693.82,88.0
693.88,60.0
693.94,68.0
694.01,78.0
694.07,76.0
694.13,53.0
694.2,65.0
694.26,80.0
694.32,69.0
694.39,65.0
694.45,79.0
694.51,83.0
694.57,95.0
694.64,81.0
694.7,59.0
694.76,58.0
694.83,64.0
694.89,77.0
694.95,71.0
695.02,91.0
695.08,95.0
695.14,104.0
695.2,93.0
695.27,94.0
695.33,76.0
695.39,95.0
695.46,106.0
695.52,101.0
695.58,97.0
695.65,101.0
695.71,94.0
695.77,100.0
695.83,94.0
695.9,108.0
695.96,65.0
696.02,75.0
696.09,78.0
696.15,66.0
696.21,73.0
696.28,75.0
696.34,65.0
696.4,73.0
696.46,86.0
696.53,75.0
696.59,69.0
696.65,77.0
696.72,65.0
696.78,84.0
696.84,102.0
696.91,103.0
696.97,104.0
697.03,98.0
697.09,100.0
697.16,103.0
697.22,92.0
697.28,91.0
697.35,55.0
697.41,56.0
697.47,70.0
697.54,61.0
697.6,64.0
697.66,56.0
697.72,48.0
697.79,48.0
697.85,40.0
697.91,37.0
697.98,51.0
698.04,53.0
698.1,63.0
698.17,73.0
698.23,71.0
698.29,83.0
698.35,101.0
698.42,71.0
698.48,69.0
698.54,58.0
698.61,61.0
698.67,65.0
698.73,62.0
698.8,61.0
698.86,80.0
698.92,73.0
698.98,76.0
699.05,72.0
699.11,75.0
699.17,67.0
699.24,77.0
699.3,97.0
699.36,82.0
699.43,98.0
699.49,90.0
699.55,78.0
699.61,86.0
699.68,77.0
699.74,69.0
699.8,47.0
699.87,51.0
699.93,61.0
699.99,49.0
700.06,43.0
700.12,64.0
700.18,59.0
700.24,47.0
700.31,39.0
700.37,47.0
700.43,49.0
700.5,43.0
700.56,47.0
700.62,59.0
700.69,48.0
700.75,59.0
700.81,53.0
700.87,74.0
700.94,54.0
701.0,50.0
701.06,58.0
701.13,49.0
701.19,57.0
701.25,54.0
701.32,58.0
701.38,40.0
701.44,26.0
701.5,31.0
701.57,37.0
701.63,36.0
701.69,40.0
701.76,30.0
701.82,36.0
701.88,36.0
701.95,49.0
702.01,34.0
702.07,43.0
702.13,33.0
702.2,29.0
702.26,18.0
702.32,45.0
702.39,37.0
702.45,29.0
702.51,20.0
702.58,-2.0
702.64,16.0
702.7,5.0
702.76,35.0
702.83,46.0
702.89,22.0
702.95,21.0
703.02,31.0
703.08,22.0
703.14,16.0
703.21,20.0
703.27,43.0
703.33,53.0
703.39,45.0
703.46,42.0
703.52,59.0
703.58,64.0
703.65,56.0
703.71,58.0
703.77,76.0
703.84,73.0
703.9,75.0
703.96,72.0
704.02,60.0
704.09,64.0
704.15,71.0
704.21,78.0
704.28,80.0
704.34,69.0
704.4,98.0
704.47,90.0
704.53,94.0
704.59,109.0
704.65,101.0
704.72,101.0
704.78,100.0
704.84,124.0
704.91,110.0
704.97,111.0
705.03,122.0
705.1,130.0
705.16,127.0
705.22,144.0
705.28,145.0
705.35,130.0
705.41,123.0
705.47,127.0
705.54,123.0
705.6,127.0
705.66,130.0
705.73,135.0
705.79,116.0
705.85,123.0
705.91,131.0
705.98,134.0
706.04,142.0
706.1,139.0
706.17,133.0
706.23,130.0
706.29,131.0
706.36,120.0
706.42,111.0
706.48,133.0
706.54,138.0
706.61,134.0
706.67,123.0
706.73,143.0
706.8,142.0
706.86,142.0
706.92,127.0
706.99,137.0
707.05,127.0
707.11,151.0
707.17,141.0
707.24,134.0
707.3,156.0
707.36,140.0
707.43,135.0
707.49,135.0
707.55,133.0
707.62,152.0
707.68,147.0
707.74,136.0
707.8,138.0
707.87,116.0
707.93,124.0
707.99,157.0
708.06,141.0
708.12,114.0
708.18,124.0
708.25,122.0
708.31,105.0
708.37,103.0
708.43,111.0
708.5,106.0
708.56,113.0
708.62,139.0
708.69,129.0
708.75,98.0
708.81,96.0
708.88,102.0
708.94,102.0
709.0,104.0
709.06,107.0
709.13,116.0
709.19,114.0
709.25,110.0
709.32,120.0
709.38,113.0
709.44,99.0
709.51,102.0
709.57,103.0
709.63,99.0
709.69,111.0
709.76,119.0
709.82,109.0
709.88,112.0
709.95,107.0
710.01,112.0
710.07,102.0
710.14,107.0
710.2,98.0
710.26,97.0
710.32,93.0
710.39,108.0
710.45,104.0
710.51,91.0
710.58,83.0
710.64,81.0
710.7,87.0
710.77,96.0
710.83,79.0
710.89,97.0
710.95,91.0
711.02,95.0
711.08,102.0
711.14,89.0
711.21,98.0
711.27,102.0
711.33,98.0
711.4,105.0
711.46,110.0
711.52,106.0
711.58,87.0
711.65,100.0
711.71,92.0
711.77,104.0
711.84,103.0
711.9,92.0
711.96,89.0
712.03,87.0
712.09,84.0
712.15,83.0
712.21,87.0
712.28,94.0
712.34,94.0
712.4,103.0
712.47,116.0
712.53,84.0
712.59,87.0
712.66,98.0
712.72,92.0
712.78,99.0
712.84,71.0
712.91,78.0
712.97,82.0
713.03,90.0
713.1,101.0
713.16,112.0
713.22,106.0
713.29,94.0
713.35,90.0
713.41,91.0
713.47,100.0
713.54,100.0
713.6,111.0
713.66,126.0
713.73,118.0
713.79,108.0
713.85,122.0
713.92,114.0
713.98,118.0
714.04,112.0
714.1,99.0
714.17,115.0
714.23,118.0
714.29,125.0
714.36,118.0
714.42,123.0
714.48,122.0
714.55,125.0
714.61,142.0
714.67,128.0
714.73,114.0
714.8,144.0
714.86,144.0
714.92,139.0
714.99,145.0
715.05,154.0
715.11,152.0
715.18,132.0
715.24,131.0
715.3,120.0
715.36,123.0
715.43,128.0
715.49,160.0
715.55,141.0
715.62,122.0
715.68,117.0
715.74,126.0
715.81,113.0
715.87,105.0
715.93,119.0
715.99,119.0
716.06,127.0
716.12,131.0
716.18,135.0
716.25,128.0
716.31,133.0
716.37,127.0
716.44,110.0
716.5,103.0
716.56,105.0
716.62,97.0
716.69,103.0
716.75,87.0
716.81,96.0
716.88,89.0
716.94,88.0
717.0,94.0
717.07,78.0
717.13,86.0
717.19,88.0
717.25,67.0
717.32,79.0
717.38,69.0
717.44,73.0
717.51,63.0
717.57,53.0
717.63,40.0
717.7,55.0
717.76,68.0
717.82,55.0
717.88,49.0
717.95,45.0
718.01,50.0
718.07,61.0
718.14,50.0
718.2,59.0
718.26,44.0
718.33,46.0
718.39,69.0
718.45,76.0
718.51,81.0
718.58,79.0
718.64,78.0
718.7,79.0
718.77,100.0
718.83,105.0
718.89,116.0
718.96,111.0
719.02,99.0
719.08,90.0
719.14,91.0
719.21,87.0
719.27,72.0
719.33,81.0
719.4,96.0
719.46,71.0
719.52,73.0
719.59,54.0
719.65,50.0
719.71,61.0
719.77,64.0
719.84,64.0
719.9,64.0
719.96,68.0
720.03,72.0
720.09,77.0
720.15,86.0
720.22,83.0
720.28,106.0
720.34,108.0
720.4,101.0
720.47,102.0
720.53,109.0
720.59,109.0
720.66,95.0
720.72,99.0
720.78,104.0
720.85,105.0
720.91,108.0
720.97,116.0
721.03,120.0
721.1,115.0
721.16,109.0
721.22,115.0
721.29,129.0
721.35,133.0
721.41,110.0
721.48,120.0
721.54,125.0
721.6,113.0
721.66,124.0
721.73,136.0
721.79,142.0
721.85,113.0
721.92,115.0
721.98,119.0
722.04,120.0
722.11,130.0
722.17,148.0
722.23,154.0
722.29,160.0
722.36,142.0
722.42,138.0
722.48,136.0
722.55,150.0
722.61,157.0
722.67,131.0
722.74,149.0
722.8,142.0
722.86,137.0
722.92,125.0
722.99,124.0
723.05,138.0
723.11,143.0
723.18,164.0
723.24,149.0
723.3,138.0
723.37,132.0
723.43,127.0
723.49,124.0
723.55,137.0
723.62,144.0
723.68,127.0
723.74,122.0
723.81,124.0
723.87,111.0
723.93,116.0
724.0,113.0
724.06,138.0
724.12,125.0
724.18,117.0
724.25,128.0
724.31,131.0
724.37,133.0
724.44,138.0
724.5,152.0
724.56,155.0
724.63,141.0
724.69,130.0
724.75,134.0
724.81,131.0
724.88,130.0
724.94,126.0
725.0,112.0
725.07,113.0
725.13,145.0
725.19,145.0
725.26,138.0
725.32,153.0
725.38,127.0
725.44,138.0
725.51,149.0
725.57,149.0
725.63,155.0
725.7,166.0
725.76,152.0
725.82,171.0
725.89,160.0
725.95,169.0
726.01,166.0
726.07,142.0
726.14,146.0
726.2,158.0
726.26,151.0
726.33,158.0
726.39,179.0
726.45,181.0
726.52,175.0
726.58,189.0
726.64,158.0
726.7,172.0
726.77,194.0
726.83,169.0
726.89,169.0
726.96,164.0
727.02,161.0
727.08,163.0
727.15,160.0
727.21,166.0
727.27,164.0
727.33,168.0
727.4,180.0
727.46,173.0
727.52,178.0
727.59,180.0
727.65,148.0
727.71,155.0
727.78,161.0
727.84,142.0
727.9,139.0
727.96,125.0
728.03,117.0
728.09,132.0
728.15,146.0
728.22,140.0
728.28,123.0
728.34,125.0
728.41,125.0
728.47,145.0
728.53,132.0
728.59,125.0
728.66,143.0
728.72,120.0
728.78,109.0
728.85,120.0
728.91,139.0
728.97,133.0
729.04,127.0
729.1,114.0
729.16,113.0
729.22,122.0
729.29,104.0
729.35,101.0
729.41,111.0
729.48,114.0
729.54,116.0
729.6,125.0
729.67,126.0
729.73,129.0
729.79,124.0
729.85,142.0
729.92,152.0
729.98,119.0
730.04,121.0
730.11,140.0
730.17,132.0
730.23,116.0
730.3,110.0
730.36,147.0
730.42,138.0
730.48,130.0
730.55,135.0
730.61,149.0
730.67,143.0
730.74,127.0
730.8,106.0
730.86,129.0
730.93,135.0
730.99,123.0
731.05,138.0
731.11,145.0
731.18,133.0
731.24,136.0
731.3,135.0
731.37,130.0
731.43,132.0
731.49,115.0
731.56,120.0
731.62,118.0
731.68,106.0
731.74,102.0
731.81,128.0
731.87,116.0
731.93,98.0
732.0,70.0
732.06,90.0
732.12,110.0
732.19,90.0
732.25,79.0
732.31,83.0
732.37,81.0
732.44,66.0
732.5,105.0
732.56,83.0
732.63,86.0
732.69,113.0
732.75,97.0
732.82,94.0
732.88,100.0
732.94,82.0
733.0,76.0
733.07,74.0
733.13,81.0
733.19,98.0
733.26,73.0
733.32,65.0
733.38,64.0
733.45,58.0
733.51,74.0
733.57,73.0
733.63,64.0
733.7,59.0
733.76,74.0
733.82,65.0
733.89,51.0
733.95,32.0
734.01,40.0
734.08,16.0
734.14,30.0
734.2,30.0
734.26,32.0
734.33,24.0
734.39,19.0
734.45,31.0
734.52,37.0
734.58,41.0
734.64,51.0
734.71,59.0
734.77,53.0
734.83,78.0
734.89,69.0
734.96,55.0
735.02,65.0
735.08,43.0
735.15,56.0
735.21,64.0
735.27,58.0
735.34,80.0
735.4,56.0
735.46,74.0
735.52,100.0
735.59,73.0
735.65,54.0
735.71,61.0
735.78,72.0
735.84,60.0
735.9,29.0
735.97,25.0
736.03,50.0
736.09,37.0
736.15,39.0
736.22,39.0
736.28,35.0
736.34,24.0
736.41,37.0
736.47,11.0
736.53,22.0
736.6,32.0
736.66,26.0
736.72,37.0
736.78,37.0
736.85,50.0
736.91,64.0
736.97,47.0
737.04,47.0
737.1,45.0
737.16,32.0
737.23,44.0
737.29,47.0
737.35,47.0
737.41,65.0
737.48,87.0
737.54,78.0
737.6,59.0
737.67,54.0
737.73,61.0
737.79,69.0
737.86,60.0
737.92,82.0
737.98,80.0
738.04,57.0
738.11,91.0
738.17,92.0
738.23,76.0
738.3,70.0
738.36,88.0
738.42,82.0
738.49,74.0
738.55,91.0
738.61,80.0
738.67,96.0
738.74,86.0
738.8,96.0
738.86,111.0
738.93,111.0
738.99,97.0
739.05,87.0
739.12,98.0
739.18,82.0
739.24,68.0
739.3,56.0
739.37,73.0
739.43,101.0
739.49,87.0
739.56,95.0
739.62,79.0
739.68,76.0
739.75,85.0
739.81,77.0
739.87,83.0
739.93,85.0
740.0,70.0
740.06,57.0
740.12,65.0
740.19,68.0
740.25,75.0
740.31,70.0
740.38,73.0
740.44,65.0
740.5,79.0
740.56,74.0
740.63,86.0
740.69,89.0
740.75,84.0
740.82,83.0
740.88,104.0
740.94,109.0
741.01,98.0
741.07,76.0
741.13,92.0
741.19,100.0
741.26,122.0
741.32,116.0
741.38,97.0
741.45,105.0
741.51,103.0
741.57,105.0
741.64,98.0
741.7,108.0
741.76,98.0
741.82,90.0
741.89,99.0
741.95,124.0
742.01,98.0
742.08,93.0
742.14,112.0
742.2,117.0
742.27,113.0
742.33,112.0
742.39,103.0
742.45,96.0
742.52,100.0
742.58,98.0
742.64,111.0
742.71,112.0
742.77,127.0
742.83,127.0
742.9,118.0
742.96,135.0
743.02,121.0
743.08,114.0
743.15,106.0
743.21,120.0
743.27,120.0
743.34,137.0
743.4,126.0
743.46,131.0
743.53,150.0
743.59,136.0
743.65,126.0
743.71,119.0
743.78,131.0
743.84,128.0
743.9,116.0
743.97,121.0
744.03,109.0
744.09,101.0
744.16,103.0
744.22,105.0
744.28,107.0
744.34,116.0
744.41,119.0
744.47,108.0
744.53,124.0
744.6,136.0
744.66,134.0
744.72,109.0
744.79,105.0
744.85,84.0
744.91,91.0
744.97,94.0
745.04,81.0
745.1,76.0
745.16,71.0
745.23,72.0
745.29,70.0
745.35,80.0
745.42,72.0
745.48,77.0
745.54,62.0
745.6,71.0
745.67,77.0
745.73,72.0
745.79,78.0
745.86,89.0
745.92,75.0
745.98,76.0
746.05,74.0
746.11,83.0
746.17,90.0
746.23,77.0
746.3,89.0
746.36,72.0
746.42,81.0
746.49,86.0
746.55,94.0
746.61,82.0
746.68,101.0
746.74,100.0
746.8,78.0
746.86,97.0
746.93,97.0
746.99,73.0
747.05,83.0
747.12,94.0
747.18,91.0
747.24,98.0
747.31,91.0
747.37,88.0
747.43,102.0
747.49,68.0
747.56,68.0
747.62,78.0
747.68,84.0
747.75,106.0
747.81,84.0
747.87,105.0
747.94,103.0
748.0,70.0
748.06,90.0
748.12,102.0
748.19,87.0
748.25,98.0
748.31,94.0
748.38,92.0
748.44,83.0
748.5,92.0
748.57,98.0
748.63,94.0
748.69,94.0
748.75,73.0
748.82,94.0
748.88,92.0
748.94,95.0
749.01,95.0
749.07,102.0
749.13,92.0
749.2,88.0
749.26,86.0
749.32,102.0
749.38,98.0
749.45,97.0
749.51,91.0
749.57,72.0
749.64,80.0
749.7,74.0
749.76,72.0
749.83,95.0
749.89,101.0
749.95,87.0
750.01,80.0
750.08,91.0
750.14,75.0
750.2,92.0
750.27,90.0
750.33,86.0
750.39,74.0
750.46,54.0
750.52,76.0
750.58,76.0
750.64,81.0
750.71,74.0
750.77,69.0
750.83,76.0
750.9,83.0
750.96,62.0
751.02,58.0
751.09,72.0
751.15,74.0
751.21,82.0
751.27,66.0
751.34,62.0
751.4,71.0
751.46,76.0
751.53,42.0
751.59,50.0
751.65,47.0
751.72,43.0
751.78,64.0
751.84,62.0
751.9,57.0
751.97,60.0
752.03,49.0
752.09,41.0
752.16,53.0
752.22,57.0
752.28,42.0
752.35,70.0
752.41,69.0
752.47,78.0
752.53,64.0
752.6,48.0
752.66,59.0
752.72,45.0
752.79,45.0
752.85,54.0
752.91,78.0
752.98,72.0
753.04,53.0
753.1,49.0
753.16,36.0
753.23,59.0
753.29,51.0
753.35,60.0
753.42,54.0
753.48,47.0
753.54,45.0
753.61,62.0
753.67,72.0
753.73,79.0
753.79,58.0
753.86,71.0
753.92,55.0
753.98,55.0
754.05,69.0
754.11,55.0
754.17,61.0
754.24,43.0
754.3,50.0
754.36,52.0
754.42,72.0
754.49,78.0
754.55,70.0
754.61,68.0
754.68,61.0
754.74,68.0
754.8,65.0
754.87,61.0
754.93,62.0
754.99,83.0
755.05,65.0
755.12,72.0
755.18,57.0
755.24,65.0
755.31,67.0
755.37,70.0
755.43,54.0
755.5,64.0
755.56,70.0
755.62,51.0
755.68,74.0
755.75,97.0
755.81,90.0
755.87,74.0
755.94,72.0
756.0,87.0
756.06,89.0
756.13,107.0
756.19,95.0
756.25,96.0
756.31,100.0
756.38,109.0
756.44,111.0
756.5,87.0
756.57,109.0
756.63,97.0
756.69,94.0
756.76,74.0
756.82,89.0
756.88,89.0
756.94,86.0
757.01,82.0
757.07,88.0
757.13,97.0
757.2,90.0
757.26,90.0
757.32,89.0
757.39,87.0
757.45,94.0
757.51,93.0
757.57,81.0
757.64,86.0
757.7,87.0
757.76,86.0
757.83,103.0
757.89,95.0
757.95,90.0
758.02,92.0
758.08,94.0
758.14,96.0
758.2,78.0
758.27,84.0
758.33,104.0
758.39,91.0
758.46,87.0
758.52,70.0
758.58,76.0
758.65,72.0
758.71,90.0
758.77,93.0
758.83,100.0
758.9,104.0
758.96,106.0
759.02,106.0
759.09,111.0
759.15,123.0
759.21,113.0
759.28,120.0
759.34,112.0
759.4,141.0
759.46,127.0
759.53,135.0
759.59,134.0
759.65,125.0
759.72,132.0
759.78,142.0
759.84,134.0
759.91,118.0
759.97,125.0
760.03,124.0
760.09,140.0
760.16,124.0
760.22,125.0
760.28,106.0
760.35,98.0
760.41,118.0
760.47,105.0
760.54,113.0
760.6,131.0
760.66,140.0
760.72,113.0
760.79,98.0
760.85,85.0
760.91,95.0
760.98,98.0
761.04,116.0
761.1,124.0
761.17,117.0
761.23,127.0
761.29,133.0
761.35,123.0
761.42,101.0
761.48,121.0
761.54,104.0
761.61,103.0
761.67,108.0
761.73,89.0
761.8,105.0
761.86,136.0
761.92,105.0
761.98,108.0
762.05,111.0
762.11,118.0
762.17,95.0
762.24,102.0
762.3,98.0
762.36,101.0
762.43,102.0
762.49,68.0
762.55,98.0
762.61,102.0
762.68,100.0
762.74,84.0
762.8,76.0
762.87,75.0
762.93,81.0
762.99,69.0
763.06,65.0
763.12,83.0
763.18,74.0
763.24,81.0
763.31,80.0
763.37,77.0
763.43,94.0
763.5,104.0
763.56,100.0
763.62,91.0
763.69,98.0
763.75,94.0
763.81,62.0
763.87,63.0
763.94,58.0
764.0,61.0
764.06,69.0
764.13,83.0
764.19,83.0
764.25,88.0
764.32,74.0
764.38,91.0
764.44,87.0
764.5,61.0
764.57,72.0
764.63,59.0
764.69,87.0
764.76,84.0
764.82,76.0
764.88,89.0
764.95,89.0
765.01,89.0
765.07,95.0
765.13,95.0
765.2,79.0
765.26,65.0
765.32,73.0
765.39,61.0
765.45,54.0
765.51,65.0
765.58,67.0
765.64,76.0
765.7,78.0
765.76,63.0
765.83,70.0
765.89,70.0
765.95,53.0
766.02,63.0
766.08,64.0
766.14,86.0
766.21,69.0
766.27,79.0
766.33,78.0
766.39,88.0
766.46,98.0
766.52,97.0
766.58,79.0
766.65,84.0
766.71,82.0
766.77,72.0
766.84,74.0
766.9,66.0
766.96,69.0
767.02,73.0
767.09,78.0
767.15,67.0
767.21,81.0
767.28,75.0
767.34,56.0
767.4,94.0
767.47,82.0
767.53,83.0
767.59,91.0
767.65,71.0
767.72,83.0
767.78,70.0
767.84,80.0
767.91,103.0
767.97,93.0
768.03,102.0
768.1,86.0
768.16,85.0
768.22,75.0
768.28,70.0
768.35,65.0
768.41,65.0
768.47,63.0
768.54,63.0
768.6,54.0
768.66,53.0
768.73,74.0
768.79,64.0
768.85,48.0
768.91,61.0
768.98,40.0
769.04,41.0
769.1,23.0
769.17,37.0
769.23,40.0
769.29,54.0
769.36,70.0
769.42,57.0
769.48,53.0
769.54,50.0
769.61,53.0
769.67,48.0
769.73,45.0
769.8,58.0
769.86,39.0
769.92,67.0
769.99,56.0
770.05,48.0
770.11,53.0
770.17,51.0
770.24,40.0
770.3,47.0
770.36,56.0
770.43,56.0
770.49,65.0
770.55,61.0
770.62,71.0
770.68,50.0
770.74,59.0
770.8,57.0
770.87,53.0
770.93,52.0
770.99,48.0
771.06,52.0
771.12,56.0
771.18,79.0
771.25,70.0
771.31,66.0
771.37,58.0
771.43,82.0
771.5,70.0
771.56,77.0
771.62,80.0
771.69,80.0
771.75,94.0
771.81,94.0
771.88,84.0
771.94,91.0
772.0,102.0
772.06,93.0
772.13,103.0
772.19,93.0
772.25,119.0
772.32,117.0
772.38,113.0
772.44,112.0
772.51,109.0
772.57,121.0
772.63,124.0
772.69,96.0
772.76,101.0
772.82,116.0
772.88,76.0
772.95,84.0
773.01,107.0
773.07,97.0
773.14,106.0
773.2,91.0
773.26,105.0
773.32,105.0
773.39,94.0
773.45,84.0
773.51,91.0
773.58,70.0
773.64,77.0
773.7,67.0
773.77,85.0
773.83,91.0
773.89,94.0
773.95,114.0
774.02,88.0
774.08,103.0
774.14,110.0
774.21,112.0
774.27,104.0
774.33,127.0
774.4,125.0
774.46,131.0
774.52,140.0
774.58,129.0
774.65,131.0
774.71,133.0
774.77,133.0
774.84,135.0
774.9,138.0
774.96,130.0
775.03,136.0
775.09,116.0
775.15,127.0
775.21,109.0
775.28,118.0
775.34,125.0
775.4,131.0
775.47,153.0
775.53,145.0
775.59,123.0
775.66,153.0
775.72,147.0
775.78,128.0
775.84,128.0
775.91,136.0
775.97,165.0
776.03,171.0
776.1,149.0
776.16,123.0
776.22,126.0
776.29,122.0
776.35,140.0
776.41,127.0
776.47,147.0
776.54,135.0
776.6,109.0
776.66,120.0
776.73,145.0
776.79,149.0
776.85,105.0
776.92,107.0
776.98,112.0
777.04,106.0
777.1,121.0
777.17,137.0
777.23,112.0
777.29,113.0
777.36,116.0
777.42,109.0
777.48,115.0
777.55,103.0
777.61,124.0
777.67,111.0
777.73,120.0
777.8,119.0
777.86,112.0
777.92,109.0
777.99,116.0
778.05,113.0
778.11,126.0
778.18,109.0
778.24,124.0
778.3,120.0
778.36,114.0
778.43,124.0
778.49,127.0
778.55,151.0
778.62,142.0
778.68,144.0
778.74,147.0
778.81,120.0
778.87,109.0
778.93,124.0
778.99,111.0
779.06,107.0
779.12,106.0
779.18,110.0
779.25,88.0
779.31,84.0
779.37,102.0
779.44,82.0
779.5,86.0
779.56,95.0
779.62,90.0
779.69,92.0
779.75,97.0
779.81,116.0
779.88,93.0
779.94,80.0
780.0,81.0
780.07,80.0
780.13,72.0
780.19,84.0
780.25,86.0
780.32,79.0
780.38,83.0
780.44,61.0
780.51,70.0
780.57,81.0
780.63,84.0
780.7,88.0
780.76,87.0
780.82,85.0
780.88,87.0
780.95,71.0
781.01,69.0
781.07,106.0
781.14,92.0
781.2,92.0
781.26,81.0
781.33,86.0
781.39,80.0
781.45,76.0
781.51,83.0
781.58,95.0
781.64,97.0
781.7,79.0
781.77,68.0
781.83,79.0
781.89,85.0
781.96,96.0
782.02,96.0
782.08,98.0
782.14,89.0
782.21,104.0
782.27,94.0
782.33,103.0
782.4,102.0
782.46,116.0
782.52,111.0
782.59,114.0
782.65,102.0
782.71,95.0
782.77,97.0
782.84,99.0
782.9,101.0
782.96,105.0
783.03,105.0
783.09,109.0
783.15,131.0
783.22,125.0
783.28,106.0
783.34,117.0
783.4,120.0
783.47,101.0
783.53,86.0
783.59,81.0
783.66,80.0
783.72,74.0
783.78,84.0
783.85,92.0
783.91,89.0
783.97,55.0
784.03,69.0
784.1,73.0
784.16,81.0
784.22,91.0
784.29,101.0
784.35,79.0
784.41,76.0
784.48,92.0
784.54,78.0
784.6,91.0
784.66,83.0
784.73,71.0
784.79,73.0
784.85,76.0
784.92,76.0
784.98,55.0
785.04,85.0
785.11,78.0
785.17,68.0
785.23,72.0
785.29,65.0
785.36,64.0
785.42,76.0
785.48,72.0
785.55,51.0
785.61,54.0
785.67,77.0
785.74,81.0
785.8,77.0
785.86,76.0
785.92,66.0
785.99,57.0
786.05,58.0
786.11,57.0
786.18,70.0
786.24,87.0
786.3,81.0
786.37,86.0
786.43,67.0
786.49,69.0
786.55,73.0
786.62,59.0
786.68,86.0
786.74,61.0
786.81,88.0
786.87,95.0
786.93,98.0
787.0,95.0
787.06,97.0
787.12,93.0
787.18,92.0
787.25,100.0
787.31,79.0
787.37,89.0
787.44,102.0
787.5,110.0
787.56,130.0
787.63,128.0
787.69,131.0
787.75,114.0
787.81,123.0
787.88,129.0
787.94,119.0
788.0,132.0
788.07,135.0
788.13,133.0
788.19,133.0
788.26,138.0
788.32,135.0
788.38,147.0
788.44,144.0
788.51,142.0
788.57,167.0
788.63,157.0
788.7,125.0
788.76,147.0
788.82,140.0
788.89,122.0
788.95,141.0
789.01,146.0
789.07,147.0
789.14,155.0
789.2,133.0
789.26,127.0
789.33,172.0
789.39,171.0
789.45,164.0
789.52,149.0
789.58,155.0
789.64,152.0
789.7,158.0
789.77,157.0
789.83,166.0
789.89,173.0
789.96,150.0
790.02,137.0
790.08,134.0
790.15,152.0
790.21,158.0
790.27,155.0
790.33,145.0
790.4,153.0
790.46,147.0
790.52,149.0
790.59,150.0
790.65,131.0
790.71,155.0
790.78,168.0
790.84,153.0
790.9,142.0
790.96,152.0
791.03,153.0
791.09,141.0
791.15,149.0
791.22,153.0
791.28,142.0
791.34,131.0
791.41,132.0
791.47,141.0
791.53,145.0
791.59,158.0
791.66,166.0
791.72,163.0
791.78,142.0
791.85,161.0
791.91,163.0
791.97,166.0
792.04,166.0
792.1,165.0
792.16,166.0
792.22,157.0
792.29,171.0
792.35,187.0
792.41,173.0
792.48,182.0
792.54,202.0
792.6,179.0
792.67,178.0
792.73,185.0
792.79,184.0
792.85,162.0
792.92,168.0
792.98,158.0
793.04,138.0
793.11,151.0
793.17,150.0
793.23,175.0
793.3,179.0
793.36,162.0
793.42,160.0
793.48,168.0
793.55,161.0
793.61,139.0
793.67,139.0
793.74,152.0
793.8,153.0
793.86,161.0
793.93,165.0
793.99,169.0
794.05,179.0
794.11,173.0
794.18,171.0
794.24,178.0
794.3,184.0
794.37,171.0
794.43,158.0
794.49,166.0
794.56,165.0
794.62,158.0
794.68,153.0
794.74,145.0
794.81,155.0
794.87,147.0
794.93,153.0
795.0,136.0
795.06,125.0
795.12,123.0
795.19,98.0
795.25,101.0
795.31,98.0
795.37,97.0
795.44,83.0
795.5,95.0
795.56,95.0
795.63,109.0
795.69,87.0
795.75,104.0
795.82,125.0
795.88,102.0
795.94,108.0
796.0,103.0
796.07,85.0
796.13,94.0
796.19,78.0
796.26,92.0
796.32,105.0
796.38,78.0
796.45,87.0
796.51,108.0
796.57,103.0
796.63,130.0
796.7,110.0
796.76,92.0
796.82,104.0
796.89,110.0
796.95,101.0
797.01,108.0
797.08,111.0
797.14,103.0
797.2,96.0
797.26,89.0
797.33,90.0
797.39,94.0
797.45,106.0
797.52,93.0
797.58,102.0
797.64,119.0
797.71,103.0
797.77,75.0
797.83,98.0
797.89,120.0
797.96,115.0
798.02,90.0
798.08,72.0
798.15,62.0
798.21,100.0
798.27,98.0
798.34,105.0
798.4,87.0
798.46,80.0
798.52,76.0
798.59,97.0
798.65,81.0
798.71,56.0
798.78,49.0
798.84,71.0
798.9,81.0
798.97,68.0
799.03,64.0
799.09,83.0
799.15,77.0
799.22,76.0
799.28,57.0
799.34,54.0
799.41,47.0
799.47,58.0
799.53,61.0
799.6,81.0
799.66,57.0
799.72,57.0
799.78,45.0
799.85,56.0
799.91,73.0
799.97,79.0
800.04,81.0
800.1,69.0
800.16,65.0
800.23,40.0
800.29,43.0
800.35,36.0
800.41,41.0
800.48,30.0
800.54,28.0
800.6,12.0
800.67,33.0
800.73,22.0
800.79,0.0
800.86,19.0
800.92,26.0
800.98,15.0
801.04,7.0
801.11,28.0
801.17,21.0
801.23,10.0
801.3,8.0
801.36,6.0
801.42,11.0
801.49,13.0
801.55,-9.0
801.61,-3.0
801.67,5.0
801.74,12.0
801.8,-2.0
801.86,20.0
801.93,18.0
801.99,16.0
802.05,7.0
802.12,32.0
802.18,23.0
802.24,17.0
802.3,4.0
802.37,6.0
802.43,5.0
802.49,0.0
802.56,2.0
802.62,20.0
802.68,6.0
802.75,-6.0
802.81,35.0
802.87,13.0
802.93,20.0
803.0,11.0
803.06,13.0
803.12,24.0
803.19,29.0
803.25,12.0
803.31,36.0
803.38,30.0
803.44,16.0
803.5,22.0
803.56,29.0
803.63,17.0
803.69,20.0
803.75,19.0
803.82,25.0
803.88,24.0
803.94,34.0
804.01,27.0
804.07,36.0
804.13,22.0
804.19,40.0
804.26,52.0
804.32,44.0
804.38,30.0
804.45,33.0
804.51,37.0
804.57,21.0
804.64,37.0
804.7,20.0
804.76,30.0
804.82,21.0
804.89,52.0
804.95,37.0
805.01,27.0
805.08,27.0
805.14,5.0
805.2,11.0
805.27,21.0
805.33,33.0
805.39,10.0
805.45,32.0
805.52,40.0
805.58,40.0
805.64,38.0
805.71,43.0
805.77,35.0
805.83,30.0
805.9,33.0
805.96,21.0
806.02,13.0
806.08,6.0
806.15,38.0
806.21,43.0
806.27,48.0
806.34,78.0
806.4,64.0
806.46,62.0
806.53,87.0
806.59,55.0
806.65,77.0
806.71,70.0
806.78,71.0
806.84,56.0
806.9,42.0
806.97,65.0
807.03,50.0
807.09,47.0
807.16,34.0
807.22,58.0
807.28,47.0
807.34,57.0
807.41,47.0
807.47,38.0
807.53,61.0
807.6,60.0
807.66,60.0
807.72,59.0
807.79,66.0
807.85,74.0
807.91,76.0
807.97,81.0
808.04,84.0
808.1,76.0
808.16,73.0
808.23,71.0
808.29,84.0
808.35,90.0
808.42,96.0
808.48,101.0
808.54,85.0
808.6,88.0
808.67,102.0
808.73,104.0
808.79,103.0
808.86,91.0
808.92,106.0
808.98,102.0
809.05,105.0
809.11,125.0
809.17,127.0
809.23,131.0
809.3,136.0
809.36,146.0
809.42,140.0
809.49,153.0
809.55,139.0
809.61,131.0
809.68,132.0
809.74,126.0
809.8,134.0
809.86,126.0
809.93,146.0
809.99,139.0
810.05,139.0
810.12,150.0
810.18,145.0
810.24,123.0
810.31,125.0
810.37,123.0
810.43,139.0
810.49,122.0
810.56,132.0
810.62,141.0
810.68,139.0
810.75,115.0
810.81,113.0
810.87,108.0
810.94,114.0
811.0,98.0
811.06,112.0
811.12,103.0
811.19,105.0
811.25,101.0
811.31,102.0
811.38,107.0
811.44,105.0
811.5,101.0
811.57,85.0
811.63,103.0
811.69,116.0
811.75,134.0
811.82,130.0
811.88,112.0
811.94,138.0
812.01,125.0
812.07,128.0
812.13,117.0
812.2,126.0
812.26,123.0
812.32,120.0
812.38,128.0
812.45,130.0
812.51,120.0
812.57,115.0
812.64,118.0
812.7,135.0
812.76,130.0
812.83,115.0
812.89,125.0
812.95,128.0
813.01,138.0
813.08,139.0
813.14,152.0
813.2,136.0
813.27,136.0
813.33,132.0
813.39,129.0
813.46,137.0
813.52,128.0
813.58,126.0
813.64,137.0
813.71,142.0
813.77,146.0
813.83,139.0
813.9,140.0
813.96,152.0
814.02,143.0
814.09,139.0
814.15,116.0
814.21,128.0
814.27,130.0
814.34,131.0
814.4,135.0
814.46,114.0
814.53,126.0
814.59,122.0
814.65,128.0
814.72,138.0
814.78,121.0
814.84,111.0
814.9,110.0
814.97,115.0
815.03,100.0
815.09,104.0
815.16,109.0
815.22,111.0
815.28,108.0
815.35,120.0
815.41,116.0
815.47,110.0
815.53,99.0
815.6,106.0
815.66,101.0
815.72,109.0
815.79,116.0
815.85,110.0
815.91,91.0
815.98,99.0
816.04,106.0
816.1,99.0
816.16,99.0
816.23,82.0
816.29,93.0
816.35,109.0
816.42,94.0
816.48,94.0
816.54,96.0
816.61,104.0
816.67,103.0
816.73,101.0
816.79,108.0
816.86,101.0
816.92,94.0
816.98,106.0
817.05,115.0
817.11,113.0
817.17,113.0
817.24,94.0
817.3,93.0
817.36,91.0
817.42,82.0
817.49,71.0
817.55,90.0
817.61,92.0
817.68,68.0
817.74,74.0
817.8,77.0
817.87,61.0
817.93,70.0
817.99,80.0
818.05,74.0
818.12,67.0
818.18,75.0
818.24,77.0
818.31,54.0
818.37,59.0
818.43,51.0
818.5,51.0
818.56,73.0
818.62,89.0
818.68,70.0
818.75,72.0
818.81,50.0
818.87,49.0
818.94,71.0
819.0,88.0
819.06,93.0
819.13,90.0
819.19,88.0
819.25,88.0
819.31,87.0
819.38,82.0
819.44,84.0
819.5,70.0
819.57,75.0
819.63,69.0
819.69,85.0
819.76,82.0
819.82,80.0
819.88,78.0
819.94,69.0
820.01,76.0
820.07,58.0
820.13,66.0
820.2,73.0
820.26,63.0
820.32,74.0
820.39,94.0
820.45,92.0
820.51,95.0
820.57,70.0
820.64,83.0
820.7,71.0
820.76,58.0
820.83,62.0
820.89,67.0
820.95,73.0
821.02,66.0
821.08,68.0
821.14,88.0
821.2,75.0
821.27,82.0
821.33,84.0
821.39,77.0
821.46,82.0
821.52,82.0
821.58,89.0
821.65,77.0
821.71,94.0
821.77,80.0
821.83,77.0
821.9,86.0
821.96,72.0
822.02,93.0
822.09,88.0
822.15,81.0
822.21,70.0
822.28,71.0
822.34,87.0
822.4,82.0
822.46,88.0
822.53,98.0
822.59,73.0
822.65,65.0
822.72,90.0
822.78,80.0
822.84,79.0
822.91,94.0
822.97,101.0
823.03,96.0
823.09,72.0
823.16,103.0
823.22,117.0
823.28,96.0
823.35,109.0
823.41,96.0
823.47,114.0
823.54,118.0
823.6,99.0
823.66,96.0
823.72,117.0
823.79,92.0
823.85,107.0
823.91,116.0
823.98,123.0
824.04,109.0
824.1,112.0
824.17,101.0
824.23,95.0
824.29,106.0
824.35,111.0
824.42,106.0
824.48,126.0
824.54,115.0
824.61,110.0
824.67,124.0
824.73,113.0
824.8,118.0
824.86,118.0
824.92,91.0
824.98,95.0
825.05,110.0
825.11,112.0
825.17,102.0
825.24,108.0
825.3,99.0
825.36,107.0
825.43,94.0
825.49,94.0
825.55,117.0
825.61,126.0
825.68,118.0
825.74,110.0
825.8,110.0
825.87,86.0
825.93,95.0
825.99,112.0
826.06,119.0
826.12,114.0
826.18,99.0
826.24,117.0
826.31,95.0
826.37,109.0
826.43,106.0
826.5,133.0
826.56,138.0
826.62,131.0
826.69,130.0
826.75,137.0
826.81,122.0
826.87,136.0
826.94,136.0
827.0,125.0
827.06,136.0
827.13,139.0
827.19,123.0
827.25,154.0
827.32,138.0
827.38,117.0
827.44,132.0
827.5,132.0
827.57,128.0
827.63,141.0
827.69,134.0
827.76,123.0
827.82,124.0
827.88,130.0
827.95,130.0
828.01,134.0
828.07,125.0
828.13,129.0
828.2,124.0
828.26,123.0
828.32,136.0
828.39,137.0
828.45,129.0
828.51,133.0
828.58,121.0
828.64,123.0
828.7,137.0
828.76,119.0
828.83,136.0
828.89,124.0
828.95,132.0
829.02,141.0
829.08,153.0
829.14,150.0
829.21,126.0
829.27,150.0
829.33,135.0
829.39,132.0
829.46,120.0
829.52,113.0
829.58,117.0
829.65,129.0
829.71,119.0
829.77,134.0
829.84,139.0
829.9,132.0
829.96,141.0
830.02,128.0
830.09,114.0
830.15,114.0
830.21,124.0
830.28,125.0
830.34,112.0
830.4,124.0
830.47,123.0
830.53,117.0
830.59,114.0
830.65,121.0
830.72,118.0
830.78,132.0
830.84,132.0
830.91,137.0
830.97,135.0
831.03,133.0
831.1,127.0
831.16,123.0
831.22,124.0
831.28,131.0
831.35,137.0
831.41,133.0
831.47,118.0
831.54,98.0
831.6,125.0
831.66,126.0
831.73,121.0
831.79,113.0
831.85,117.0
831.91,127.0
831.98,134.0
832.04,123.0
832.1,107.0
832.17,85.0
832.23,110.0
832.29,127.0
832.36,121.0
832.42,115.0
832.48,128.0
832.54,135.0
832.61,125.0
832.67,126.0
832.73,130.0
832.8,129.0
832.86,112.0
832.92,118.0
832.99,122.0
833.05,125.0
833.11,123.0
833.17,126.0
833.24,117.0
833.3,120.0
833.36,114.0
833.43,118.0
833.49,117.0
833.55,106.0
833.62,106.0
833.68,96.0
833.74,114.0
833.8,106.0
833.87,107.0
833.93,110.0
833.99,99.0
834.06,99.0
834.12,101.0
834.18,95.0
834.25,85.0
834.31,92.0
834.37,79.0
834.43,94.0
834.5,97.0
834.56,88.0
834.62,103.0
834.69,100.0
834.75,86.0
834.81,88.0
834.88,94.0
834.94,99.0
835.0,93.0
835.06,107.0
835.13,90.0
835.19,80.0
835.25,84.0
835.32,62.0
835.38,78.0
835.44,67.0
835.51,58.0
835.57,60.0
835.63,48.0
835.69,51.0
835.76,62.0
835.82,60.0
835.88,56.0
835.95,60.0
836.01,63.0
836.07,70.0
836.14,72.0
836.2,58.0
836.26,49.0
836.32,38.0
836.39,41.0
836.45,53.0
836.51,59.0
836.58,51.0
836.64,54.0
836.7,54.0
836.77,44.0
836.83,66.0
836.89,53.0
836.95,64.0
837.02,62.0
837.08,62.0
837.14,82.0
837.21,57.0
837.27,51.0
837.33,66.0
837.4,66.0
837.46,91.0
837.52,71.0
837.58,52.0
837.65,58.0
837.71,64.0
837.77,59.0
837.84,74.0
837.9,67.0
837.96,65.0
838.03,66.0
838.09,60.0
838.15,61.0
838.21,73.0
838.28,71.0
838.34,69.0
838.4,81.0
838.47,84.0
838.53,77.0
838.59,99.0
838.66,88.0
838.72,99.0
838.78,116.0
838.84,117.0
838.91,123.0
838.97,117.0
839.03,132.0
839.1,118.0
839.16,129.0
839.22,120.0
839.29,116.0
839.35,95.0
839.41,105.0
839.47,108.0
839.54,88.0
839.6,97.0
839.66,96.0
839.73,88.0
839.79,73.0
839.85,112.0
839.92,100.0
839.98,96.0
840.04,106.0
840.1,95.0
840.17,88.0
840.23,98.0
840.29,135.0
840.36,126.0
840.42,99.0
840.48,93.0
840.55,124.0
840.61,106.0
840.67,120.0
840.73,109.0
840.8,88.0
840.86,111.0
840.92,107.0
840.99,90.0
841.05,93.0
841.11,96.0
841.18,93.0
841.24,112.0
841.3,97.0
841.36,109.0
841.43,120.0
841.49,110.0
841.55,117.0
841.62,125.0
841.68,104.0
841.74,109.0
841.81,115.0
841.87,115.0
841.93,104.0
841.99,110.0
842.06,110.0
842.12,98.0
842.18,102.0
842.25,103.0
842.31,103.0
842.37,124.0
842.44,86.0
842.5,103.0
842.56,115.0
842.62,115.0
842.69,106.0
842.75,98.0
842.81,97.0
842.88,95.0
842.94,91.0
843.0,112.0
843.07,92.0
843.13,77.0
843.19,84.0
843.25,88.0
843.32,92.0
843.38,111.0
843.44,99.0
843.51,102.0
843.57,114.0
843.63,102.0
843.7,114.0
843.76,117.0
843.82,122.0
843.88,140.0
843.95,123.0
844.01,128.0
844.07,137.0
844.14,133.0
844.2,129.0
844.26,104.0
844.33,113.0
844.39,121.0
844.45,119.0
844.51,121.0
844.58,137.0
844.64,156.0
844.7,127.0
844.77,121.0
844.83,130.0
844.89,146.0
844.96,146.0
845.02,136.0
845.08,134.0
845.14,145.0
845.21,131.0
845.27,133.0
845.33,143.0
845.4,116.0
845.46,124.0
845.52,115.0
845.59,117.0
845.65,124.0
845.71,142.0
845.77,143.0
845.84,145.0
845.9,153.0
845.96,159.0
846.03,143.0
846.09,146.0
846.15,162.0
846.22,162.0
846.28,125.0
846.34,150.0
846.4,157.0
846.47,158.0
846.53,168.0
846.59,149.0
846.66,145.0
846.72,147.0
846.78,144.0
846.85,145.0
846.91,135.0
846.97,142.0
847.03,145.0
847.1,134.0
847.16,156.0
847.22,140.0
847.29,147.0
847.35,145.0
847.41,123.0
847.48,125.0
847.54,134.0
847.6,120.0
847.66,125.0
847.73,121.0
847.79,111.0
847.85,118.0
847.92,125.0
847.98,104.0
848.04,100.0
848.11,121.0
848.17,132.0
848.23,104.0
848.29,124.0
848.36,123.0
848.42,134.0
848.48,141.0
848.55,166.0
848.61,129.0
848.67,124.0
848.74,126.0
848.8,107.0
848.86,117.0
848.92,131.0
848.99,129.0
849.05,120.0
849.11,134.0
849.18,121.0
849.24,120.0
849.3,124.0
849.37,133.0
849.43,113.0
849.49,95.0
849.55,124.0
849.62,111.0
849.68,99.0
849.74,88.0
849.81,93.0
849.87,78.0
849.93,84.0
850.0,87.0
850.06,82.0
850.12,84.0
850.18,93.0
850.25,95.0
850.31,103.0
850.37,106.0
850.44,91.0
850.5,97.0
850.56,85.0
850.63,54.0
850.69,79.0
850.75,77.0
850.81,81.0
850.88,58.0
850.94,30.0
851.0,22.0
851.07,48.0
851.13,57.0
851.19,66.0
851.26,48.0
851.32,54.0
851.38,46.0
851.44,37.0
851.51,22.0
851.57,35.0
851.63,34.0
851.7,43.0
851.76,59.0
851.82,59.0
851.89,65.0
851.95,44.0
852.01,53.0
852.07,74.0
852.14,58.0
852.2,55.0
852.26,41.0
852.33,48.0
852.39,48.0
852.45,56.0
852.52,49.0
852.58,55.0
852.64,69.0
852.7,64.0
852.77,70.0
852.83,70.0
852.89,57.0
852.96,37.0
853.02,59.0
853.08,64.0
853.15,42.0
853.21,42.0
853.27,56.0
853.33,49.0
853.4,47.0
853.46,40.0
853.52,44.0
853.59,53.0
853.65,58.0
853.71,62.0
853.78,38.0
853.84,66.0
853.9,36.0
853.96,51.0
854.03,59.0
854.09,59.0
854.15,52.0
854.22,39.0
854.28,36.0
854.34,62.0
854.41,51.0
854.47,30.0
854.53,47.0
854.59,58.0
854.66,49.0
854.72,40.0
854.78,64.0
854.85,57.0
854.91,58.0
854.97,47.0
855.04,51.0
855.1,49.0
855.16,59.0
855.22,91.0
855.29,59.0
855.35,65.0
855.41,84.0
855.48,90.0
855.54,84.0
855.6,87.0
855.67,65.0
855.73,87.0
855.79,81.0
855.85,94.0
855.92,88.0
855.98,108.0
856.04,90.0
856.11,97.0
856.17,102.0
856.23,96.0
856.3,99.0
856.36,106.0
856.42,104.0
856.48,96.0
856.55,78.0
856.61,101.0
856.67,100.0
856.74,103.0
856.8,84.0
856.86,97.0
856.93,100.0
856.99,83.0
857.05,86.0
857.11,93.0
857.18,126.0
857.24,96.0
857.3,104.0
857.37,91.0
857.43,88.0
857.49,99.0
857.56,78.0
857.62,84.0
857.68,92.0
857.74,84.0
857.81,99.0
857.87,95.0
857.93,66.0
858.0,84.0
858.06,75.0
858.12,72.0
858.19,68.0
858.25,79.0
858.31,101.0
858.37,75.0
858.44,64.0
858.5,79.0
858.56,83.0
858.63,88.0
858.69,82.0
858.75,90.0
858.82,92.0
858.88,98.0
858.94,93.0
859.0,94.0
859.07,70.0
859.13,83.0
859.19,79.0
859.26,71.0
859.32,87.0
859.38,95.0
859.45,97.0
859.51,101.0
859.57,94.0
859.63,71.0
859.7,77.0
859.76,80.0
859.82,91.0
859.89,93.0
859.95,96.0
860.01,114.0
860.08,114.0
860.14,117.0
860.2,112.0
860.26,144.0
860.33,142.0
860.39,128.0
860.45,122.0
860.52,113.0
860.58,93.0
860.64,98.0
860.71,128.0
860.77,110.0
860.83,109.0
860.89,119.0
860.96,115.0
861.02,126.0
861.08,136.0
861.15,153.0
861.21,148.0
861.27,128.0
861.34,132.0
861.4,137.0
861.46,153.0
861.52,159.0
861.59,155.0
861.65,161.0
861.71,152.0
861.78,143.0
861.84,143.0
861.9,150.0
861.97,143.0
862.03,143.0
862.09,132.0
862.15,120.0
862.22,124.0
862.28,137.0
862.34,129.0
862.41,123.0
862.47,131.0
862.53,131.0
862.6,145.0
862.66,131.0
862.72,110.0
862.78,99.0
862.85,96.0
862.91,125.0
862.97,116.0
863.04,103.0
863.1,102.0
863.16,101.0
863.23,110.0
863.29,98.0
863.35,109.0
863.41,110.0
863.48,99.0
863.54,122.0
863.6,106.0
863.67,99.0
863.73,90.0
863.79,110.0
863.86,128.0
863.92,125.0
863.98,122.0
864.04,104.0
864.11,126.0
864.17,117.0
864.23,117.0
864.3,120.0
864.36,117.0
864.42,128.0
864.49,114.0
864.55,120.0
864.61,127.0
864.67,117.0
864.74,137.0
864.8,117.0
864.86,109.0
864.93,111.0
864.99,104.0
865.05,98.0
865.12,84.0
865.18,94.0
865.24,110.0
865.3,102.0
865.37,117.0
865.43,103.0
865.49,123.0
865.56,126.0
865.62,106.0
865.68,116.0
865.75,112.0
865.81,115.0
865.87,122.0
865.93,137.0
866.0,114.0
866.06,109.0
866.12,101.0
866.19,97.0
866.25,116.0
866.31,108.0
866.38,103.0
866.44,93.0
866.5,103.0
866.56,85.0
866.63,94.0
866.69,94.0
866.75,77.0
866.82,75.0
866.88,87.0
866.94,81.0
867.01,81.0
867.07,86.0
867.13,86.0
867.19,74.0
867.26,75.0
867.32,106.0
867.38,84.0
867.45,76.0
867.51,70.0
867.57,71.0
867.64,66.0
867.7,77.0
867.76,60.0
867.82,76.0
867.89,83.0
867.95,76.0
868.01,71.0
868.08,62.0
868.14,66.0
868.2,63.0
868.27,48.0
868.33,48.0
868.39,38.0
868.45,33.0
868.52,43.0
868.58,48.0
868.64,38.0
868.71,34.0
868.77,37.0
868.83,31.0
868.9,45.0
868.96,27.0
869.02,42.0
869.08,33.0
869.15,28.0
869.21,29.0
869.27,29.0
869.34,16.0
869.4,22.0
869.46,28.0
869.53,3.0
869.59,6.0
869.65,18.0
869.71,21.0
869.78,24.0
869.84,28.0
869.9,14.0
869.97,-5.0
870.03,4.0
870.09,10.0
870.16,-7.0
870.22,2.0
870.28,7.0
870.34,20.0
870.41,27.0
870.47,32.0
870.53,32.0
870.6,31.0
870.66,33.0
870.72,33.0
870.79,38.0
870.85,41.0
870.91,57.0
870.97,58.0
871.04,50.0
871.1,47.0
871.16,61.0
871.23,73.0
871.29,70.0
871.35,71.0
871.42,71.0
871.48,59.0
871.54,71.0
871.6,86.0
871.67,67.0
871.73,68.0
871.79,60.0
871.86,65.0
871.92,94.0
871.98,67.0
872.05,47.0
872.11,54.0
872.17,55.0
872.23,50.0
872.3,48.0
872.36,46.0
872.42,51.0
872.49,53.0
872.55,52.0
872.61,63.0
872.68,65.0
872.74,62.0
872.8,61.0
872.86,49.0
872.93,46.0
872.99,47.0
873.05,53.0
873.12,33.0
873.18,41.0
873.24,39.0
873.31,47.0
873.37,52.0
873.43,49.0
873.49,59.0
873.56,41.0
873.62,39.0
873.68,29.0
873.75,32.0
873.81,42.0
873.87,13.0
873.94,21.0
874.0,16.0
874.06,26.0
874.12,34.0
874.19,37.0
874.25,46.0
874.31,38.0
874.38,18.0
874.44,46.0
874.5,23.0
874.57,42.0
874.63,40.0
874.69,30.0
874.75,30.0
874.82,30.0
874.88,14.0
874.94,16.0
875.01,29.0
875.07,20.0
875.13,37.0
875.2,60.0
875.26,60.0
875.32,74.0
875.38,79.0
875.45,53.0
875.51,58.0
875.57,60.0
875.64,61.0
875.7,52.0
875.76,64.0
875.83,76.0
875.89,75.0
875.95,72.0
876.01,58.0
876.08,60.0
876.14,83.0
876.2,57.0
876.27,55.0
876.33,67.0
876.39,46.0
876.46,76.0
876.52,74.0
876.58,89.0
876.64,72.0
876.71,99.0
876.77,88.0
876.83,79.0
876.9,97.0
876.96,93.0
877.02,97.0
877.09,83.0
877.15,91.0
877.21,63.0
877.27,64.0
877.34,71.0
877.4,72.0
877.46,101.0
877.53,95.0
877.59,113.0
877.65,120.0
877.72,102.0
877.78,107.0
877.84,107.0
877.9,82.0
877.97,62.0
878.03,86.0
878.09,80.0
878.16,68.0
878.22,64.0
878.28,97.0
878.35,94.0
878.41,81.0
878.47,104.0
878.53,98.0
878.6,93.0
878.66,100.0
878.72,94.0
878.79,112.0
878.85,106.0
878.91,79.0
878.98,98.0
879.04,95.0
879.1,83.0
879.16,103.0
879.23,85.0
879.29,97.0
879.35,115.0
879.42,114.0
879.48,114.0
879.54,104.0
879.61,116.0
879.67,126.0
879.73,139.0
879.79,131.0
879.86,102.0
879.92,116.0
879.98,121.0
880.05,138.0
880.11,143.0
880.17,138.0
880.24,127.0
880.3,107.0
880.36,115.0
880.42,119.0
880.49,119.0
880.55,131.0
880.61,135.0
880.68,146.0
880.74,137.0
880.8,141.0
880.87,145.0
880.93,134.0
880.99,143.0
881.05,115.0
881.12,118.0
881.18,114.0
881.24,117.0
881.31,117.0
881.37,119.0
881.43,110.0
881.5,109.0
881.56,100.0
881.62,102.0
881.68,111.0
881.75,125.0
881.81,143.0
881.87,146.0
881.94,149.0
882.0,155.0
882.06,130.0
882.13,124.0
882.19,138.0
882.25,145.0
882.31,151.0
882.38,154.0
882.44,160.0
882.5,165.0
882.57,147.0
882.63,138.0
882.69,143.0
882.76,148.0
882.82,155.0
882.88,152.0
882.94,151.0
883.01,167.0
883.07,154.0
883.13,149.0
883.2,139.0
883.26,134.0
883.32,115.0
883.39,94.0
883.45,98.0
883.51,81.0
883.57,91.0
883.64,90.0
883.7,114.0
883.76,107.0
883.83,104.0
883.89,105.0
883.95,111.0
884.02,109.0
884.08,109.0
884.14,124.0
884.2,109.0
884.27,101.0
884.33,91.0
884.39,102.0
884.46,106.0
884.52,83.0
884.58,85.0
884.65,87.0
884.71,97.0
884.77,105.0
884.83,108.0
884.9,104.0
884.96,107.0
885.02,103.0
885.09,108.0
885.15,105.0
885.21,106.0
885.28,88.0
885.34,69.0
885.4,78.0
885.46,51.0
885.53,82.0
885.59,80.0
885.65,84.0
885.72,80.0
885.78,85.0
885.84,78.0
885.91,80.0
885.97,85.0
886.03,77.0
886.09,88.0
886.16,83.0
886.22,84.0
886.28,89.0
886.35,59.0
886.41,61.0
886.47,74.0
886.54,90.0
886.6,91.0
886.66,80.0
886.72,94.0
886.79,87.0
886.85,79.0
886.91,92.0
886.98,97.0
887.04,97.0
887.1,84.0
887.17,89.0
887.23,86.0
887.29,83.0
887.35,91.0
887.42,101.0
887.48,107.0
887.54,95.0
887.61,87.0
887.67,90.0
887.73,122.0
887.8,103.0
887.86,118.0
887.92,115.0
887.98,112.0
888.05,111.0
888.11,111.0
888.17,105.0
888.24,109.0
888.3,102.0
888.36,126.0
888.43,125.0
888.49,108.0
888.55,116.0
888.61,98.0
888.68,94.0
888.74,111.0
888.8,79.0
888.87,81.0
888.93,88.0
888.99,90.0
889.06,98.0
889.12,118.0
889.18,102.0
889.24,125.0
889.31,146.0
889.37,108.0
889.43,125.0
889.5,138.0
889.56,140.0
889.62,145.0
889.69,129.0
889.75,136.0
889.81,141.0
889.87,124.0
889.94,129.0
890.0,150.0
890.06,118.0
890.13,123.0
890.19,117.0
890.25,109.0
890.32,116.0
890.38,124.0
890.44,143.0
890.5,137.0
890.57,146.0
890.63,158.0
890.69,160.0
890.76,139.0
890.82,142.0
890.88,137.0
890.95,147.0
891.01,160.0
891.07,162.0
891.13,152.0
891.2,158.0
891.26,160.0
891.32,149.0
891.39,164.0
891.45,153.0
891.51,143.0
891.58,167.0
891.64,151.0
891.7,156.0
891.76,168.0
891.83,159.0
891.89,147.0
891.95,153.0
892.02,167.0
892.08,162.0
892.14,146.0
892.21,124.0
892.27,142.0
892.33,136.0
892.39,134.0
892.46,146.0
892.52,140.0
892.58,160.0
892.65,143.0
892.71,162.0
892.77,162.0
892.84,150.0
892.9,154.0
892.96,156.0
893.02,155.0
893.09,170.0
893.15,172.0
893.21,162.0
893.28,179.0
893.34,175.0
893.4,157.0
893.47,162.0
893.53,171.0
893.59,173.0
893.65,165.0
893.72,180.0
893.78,158.0
893.84,168.0
893.91,162.0
893.97,156.0
894.03,135.0
894.1,140.0
894.16,168.0
894.22,170.0
894.28,154.0
894.35,153.0
894.41,170.0
894.47,173.0
894.54,184.0
894.6,164.0
894.66,160.0
894.73,179.0
894.79,174.0
894.85,165.0
894.91,160.0
894.98,164.0
895.04,168.0
895.1,152.0
895.17,174.0
895.23,156.0
895.29,152.0
895.36,147.0
895.42,126.0
895.48,153.0
895.54,133.0
895.61,134.0
895.67,139.0
895.73,148.0
895.8,138.0
895.86,138.0
895.92,130.0
895.99,137.0
896.05,134.0
896.11,149.0
896.17,152.0
896.24,155.0
896.3,159.0
896.36,151.0
896.43,160.0
896.49,168.0
896.55,151.0
896.62,180.0
896.68,157.0
896.74,147.0
896.8,147.0
896.87,139.0
896.93,124.0
896.99,123.0
897.06,151.0
897.12,131.0
897.18,137.0
897.25,147.0
897.31,138.0
897.37,134.0
897.43,126.0
897.5,127.0
897.56,128.0
897.62,122.0
897.69,111.0
897.75,123.0
897.81,126.0
897.88,128.0
897.94,132.0
898.0,126.0
898.06,145.0
898.13,136.0
898.19,129.0
898.25,136.0
898.32,128.0
898.38,130.0
898.44,133.0
898.51,129.0
898.57,141.0
898.63,123.0
898.69,147.0
898.76,143.0
898.82,135.0
898.88,130.0
898.95,143.0
899.01,129.0
899.07,127.0
899.14,137.0
899.2,134.0
899.26,112.0
899.32,103.0
899.39,107.0
899.45,98.0
899.51,94.0
899.58,96.0
899.64,89.0
899.7,97.0
899.77,92.0
899.83,80.0
899.89,91.0
899.95,117.0
900.02,110.0
900.08,112.0
900.14,94.0
900.21,105.0
900.27,93.0
900.33,90.0
900.4,102.0
900.46,97.0
900.52,97.0
900.58,113.0
900.65,137.0
900.71,145.0
900.77,108.0
900.84,116.0
900.9,120.0
900.96,103.0
901.03,117.0
901.09,100.0
901.15,98.0
901.21,104.0
901.28,108.0
901.34,97.0
901.4,116.0
901.47,110.0
901.53,93.0
901.59,86.0
901.66,96.0
901.72,80.0
901.78,52.0
901.84,66.0
901.91,66.0
901.97,78.0
902.03,65.0
902.1,51.0
902.16,69.0
902.22,55.0
902.29,69.0
902.35,64.0
902.41,49.0
902.47,48.0
902.54,50.0
902.6,46.0
902.66,65.0
902.73,102.0
902.79,79.0
902.85,65.0
902.92,52.0
902.98,43.0
903.04,49.0
903.1,31.0
903.17,42.0
903.23,30.0
903.29,26.0
903.36,39.0
903.42,33.0
903.48,50.0
903.55,29.0
903.61,34.0
903.67,18.0
903.73,18.0
903.8,27.0
903.86,33.0
903.92,49.0
903.99,33.0
904.05,21.0
904.11,24.0
904.18,31.0
904.24,20.0
904.3,30.0
904.36,38.0
904.43,39.0
904.49,31.0
904.55,40.0
904.62,45.0
904.68,55.0
904.74,28.0
904.81,36.0
904.87,53.0
904.93,37.0
904.99,45.0
905.06,60.0
905.12,46.0
905.18,38.0
905.25,65.0
905.31,75.0
905.37,76.0
905.44,73.0
905.5,61.0
905.56,74.0
905.62,85.0
905.69,89.0
905.75,86.0
905.81,80.0
905.88,76.0
905.94,83.0
906.0,93.0
906.07,90.0
906.13,94.0
906.19,101.0
906.25,102.0
906.32,54.0
906.38,70.0
906.44,72.0
906.51,65.0
906.57,63.0
906.63,55.0
906.7,72.0
906.76,50.0
906.82,53.0
906.88,49.0
906.95,67.0
907.01,75.0
907.07,46.0
907.14,69.0
907.2,66.0
907.26,61.0
907.33,63.0
907.39,79.0
907.45,81.0
907.51,86.0
907.58,84.0
907.64,91.0
907.7,97.0
907.77,83.0
907.83,84.0
907.89,64.0
907.96,76.0
908.02,68.0
908.08,69.0
908.14,74.0
908.21,75.0
908.27,72.0
908.33,74.0
908.4,42.0
908.46,73.0
908.52,62.0
908.59,60.0
908.65,71.0
908.71,64.0
908.77,54.0
908.84,52.0
908.9,73.0
908.96,71.0
909.03,61.0
909.09,61.0
909.15,59.0
909.22,72.0
909.28,89.0
909.34,67.0
909.4,83.0
909.47,93.0
909.53,87.0
909.59,97.0
909.66,113.0
909.72,109.0
909.78,116.0
909.85,125.0
909.91,112.0
909.97,105.0
910.03,104.0
910.1,125.0
910.16,121.0
910.22,115.0
910.29,117.0
910.35,141.0
910.41,132.0
910.48,153.0
910.54,146.0
910.6,146.0
910.66,126.0
910.73,120.0
910.79,123.0
910.85,104.0
910.92,112.0
910.98,112.0
911.04,108.0
911.11,115.0
911.17,119.0
911.23,122.0
911.29,138.0
911.36,121.0
911.42,110.0
911.48,112.0
911.55,104.0
911.61,101.0
911.67,116.0
911.74,94.0
911.8,95.0
911.86,114.0
911.92,85.0
911.99,86.0
912.05,83.0
912.11,98.0
912.18,94.0
912.24,85.0
912.3,98.0
912.37,104.0
912.43,96.0
912.49,91.0
912.55,92.0
912.62,98.0
912.68,107.0
912.74,94.0
912.81,106.0
912.87,97.0
912.93,94.0
913.0,102.0
913.06,110.0
913.12,101.0
913.18,81.0
913.25,90.0
913.31,100.0
913.37,98.0
913.44,90.0
913.5,112.0
913.56,89.0
913.63,93.0
913.69,83.0
913.75,85.0
913.81,104.0
913.88,116.0
913.94,131.0
914.0,124.0
914.07,116.0
914.13,114.0
914.19,106.0
914.26,107.0
914.32,106.0
914.38,115.0
914.44,123.0
914.51,126.0
914.57,120.0
914.63,110.0
914.7,109.0
914.76,100.0
914.82,111.0
914.89,110.0
914.95,122.0
915.01,127.0
915.07,121.0
915.14,109.0
915.2,135.0
915.26,126.0
915.33,138.0
915.39,142.0
915.45,148.0
915.52,137.0
915.58,130.0
915.64,143.0
915.7,145.0
915.77,137.0
915.83,141.0
915.89,138.0
915.96,136.0
916.02,131.0
916.08,159.0
916.15,151.0
916.21,164.0
916.27,137.0
916.33,159.0
916.4,162.0
916.46,151.0
916.52,151.0
916.59,155.0
916.65,174.0
916.71,146.0
916.78,170.0
916.84,164.0
916.9,157.0
916.96,150.0
917.03,175.0
917.09,179.0
917.15,160.0
917.22,148.0
917.28,131.0
917.34,143.0
917.41,164.0
917.47,152.0
917.53,153.0
917.59,130.0
917.66,120.0
917.72,138.0
917.78,135.0
917.85,129.0
917.91,130.0
917.97,154.0
918.04,123.0
918.1,114.0
918.16,118.0
918.22,112.0
918.29,113.0
918.35,115.0
918.41,112.0
918.48,105.0
918.54,92.0
918.6,105.0
918.67,108.0
918.73,97.0
918.79,84.0
918.85,72.0
918.92,74.0
918.98,61.0
919.04,61.0
919.11,54.0
919.17,79.0
919.23,71.0
919.3,77.0
919.36,82.0
919.42,83.0
919.48,86.0
919.55,72.0
919.61,56.0
919.67,73.0
919.74,61.0
919.8,60.0
919.86,63.0
919.93,66.0
919.99,58.0
920.05,32.0
920.11,40.0
920.18,39.0
920.24,43.0
920.3,49.0
920.37,32.0
920.43,30.0
920.49,35.0
920.56,50.0
920.62,43.0
920.68,41.0
920.74,35.0
920.81,24.0
920.87,31.0
920.93,32.0
921.0,18.0
921.06,27.0
921.12,18.0
921.19,36.0
921.25,39.0
921.31,24.0
921.37,40.0
921.44,53.0
921.5,40.0
921.56,51.0
921.63,41.0
921.69,61.0
921.75,76.0
921.82,84.0
921.88,92.0
921.94,79.0
922.0,80.0
922.07,93.0
922.13,83.0
922.19,77.0
922.26,72.0
922.32,79.0
922.38,75.0
922.45,83.0
922.51,83.0
922.57,75.0
922.63,72.0
922.7,68.0
922.76,75.0
922.82,91.0
922.89,72.0
922.95,64.0
923.01,75.0
923.08,49.0
923.14,58.0
923.2,50.0
923.26,36.0
923.33,33.0
923.39,47.0
923.45,68.0
923.52,53.0
923.58,48.0
923.64,53.0
923.71,41.0
923.77,54.0
923.83,64.0
923.89,69.0
923.96,76.0
924.02,83.0
924.08,66.0
924.15,68.0
924.21,87.0
924.27,70.0
924.34,65.0
924.4,76.0
924.46,72.0
924.52,75.0
924.59,83.0
924.65,97.0
924.71,72.0
924.78,86.0
924.84,111.0
924.9,90.0
924.97,87.0
925.03,94.0
925.09,81.0
925.15,91.0
925.22,85.0
925.28,77.0
925.34,87.0
925.41,95.0
925.47,86.0
925.53,96.0
925.6,96.0
925.66,94.0
925.72,104.0
925.78,101.0
925.85,96.0
925.91,88.0
925.97,80.0
926.04,76.0
926.1,69.0
926.16,79.0
926.23,79.0
926.29,69.0
926.35,73.0
926.41,61.0
926.48,80.0
926.54,98.0
926.6,98.0
926.67,94.0
926.73,96.0
926.79,97.0
926.86,79.0
926.92,109.0
926.98,101.0
927.04,107.0
927.11,118.0
927.17,123.0
927.23,111.0
927.3,96.0
927.36,107.0
927.42,115.0
927.49,122.0
927.55,128.0
927.61,112.0
927.67,109.0
927.74,123.0
927.8,113.0
927.86,134.0
927.93,126.0
927.99,140.0
928.05,116.0
928.12,95.0
928.18,115.0
928.24,97.0
928.3,112.0
928.37,97.0
928.43,98.0
928.49,120.0
928.56,108.0
928.62,109.0
928.68,102.0
928.75,83.0
928.81,71.0
928.87,81.0
928.93,77.0
929.0,51.0
929.06,67.0
929.12,80.0
929.19,94.0
929.25,83.0
929.31,77.0
929.38,107.0
929.44,107.0
929.5,107.0
929.56,82.0
929.63,76.0
929.69,79.0
929.75,96.0
929.82,57.0
929.88,73.0
929.94,93.0
930.01,86.0
930.07,100.0
930.13,86.0
930.19,91.0
930.26,90.0
930.32,98.0
930.38,97.0
930.45,89.0
930.51,105.0
930.57,98.0
930.64,95.0
930.7,94.0
930.76,83.0
930.82,98.0
930.89,105.0
930.95,80.0
931.01,91.0
931.08,99.0
931.14,110.0
931.2,107.0
931.27,128.0
931.33,122.0
931.39,108.0
931.45,113.0
931.52,105.0
931.58,99.0
931.64,100.0
931.71,90.0
931.77,103.0
931.83,86.0
931.9,131.0
931.96,120.0
932.02,97.0
932.08,110.0
932.15,109.0
932.21,101.0
932.27,114.0
932.34,116.0
932.4,99.0
932.46,102.0
932.53,121.0
932.59,110.0
932.65,109.0
932.71,131.0
932.78,137.0
932.84,137.0
932.9,148.0
932.97,121.0
933.03,108.0
933.09,100.0
933.16,107.0
933.22,113.0
933.28,107.0
933.34,121.0
933.41,104.0
933.47,112.0
933.53,112.0
933.6,120.0
933.66,98.0
933.72,93.0
933.79,110.0
933.85,107.0
933.91,116.0
933.97,112.0
934.04,119.0
934.1,114.0
934.16,119.0
934.23,112.0
934.29,124.0
934.35,110.0
934.42,85.0
934.48,108.0
934.54,116.0
934.6,83.0
934.67,70.0
934.73,77.0
934.79,80.0
934.86,80.0
934.92,54.0
934.98,60.0
935.05,46.0
935.11,72.0
935.17,83.0
935.23,71.0
935.3,60.0
935.36,60.0
935.42,61.0
935.49,63.0
935.55,67.0
935.61,66.0
935.68,67.0
935.74,57.0
935.8,64.0
935.86,64.0
935.93,49.0
935.99,54.0
936.05,75.0
936.12,46.0
936.18,53.0
936.24,69.0
936.31,66.0
936.37,53.0
936.43,56.0
936.49,64.0
936.56,53.0
936.62,36.0
936.68,44.0
936.75,55.0
936.81,39.0
936.87,65.0
936.94,44.0
937.0,36.0
937.06,32.0
937.12,37.0
937.19,50.0
937.25,39.0
937.31,43.0
937.38,39.0
937.44,47.0
937.5,58.0
937.57,52.0
937.63,50.0
937.69,49.0
937.75,60.0
937.82,57.0
937.88,62.0
937.94,46.0
938.01,45.0
938.07,43.0
938.13,59.0
938.2,46.0
938.26,52.0
938.32,58.0
938.38,56.0
938.45,79.0
938.51,60.0
938.57,71.0
938.64,63.0
938.7,76.0
938.76,81.0
938.83,64.0
938.89,67.0
938.95,54.0
939.01,65.0
939.08,67.0
939.14,52.0
939.2,73.0
939.27,85.0
939.33,96.0
939.39,85.0
939.46,102.0
939.52,96.0
939.58,86.0
939.64,93.0
939.71,72.0
939.77,95.0
939.83,92.0
939.9,101.0
939.96,98.0
940.02,101.0
940.09,117.0
940.15,107.0
940.21,110.0
940.27,107.0
940.34,104.0
940.4,114.0
940.46,115.0
940.53,116.0
940.59,126.0
940.65,124.0
940.72,131.0
940.78,137.0
940.84,138.0
940.9,123.0
940.97,126.0
941.03,108.0
941.09,133.0
941.16,135.0
941.22,137.0
941.28,132.0
941.35,105.0
941.41,116.0
941.47,142.0
941.53,133.0
941.6,122.0
941.66,117.0
941.72,134.0
941.79,124.0
941.85,112.0
941.91,117.0
941.98,138.0
942.04,141.0
942.1,138.0
942.16,145.0
942.23,162.0
942.29,132.0
942.35,136.0
942.42,126.0
942.48,154.0
942.54,176.0
942.61,146.0
942.67,131.0
942.73,138.0
942.79,161.0
942.86,165.0
942.92,165.0
942.98,171.0
943.05,151.0
943.11,152.0
943.17,141.0
943.24,148.0
943.3,144.0
943.36,154.0
943.42,148.0
943.49,141.0
943.55,145.0
943.61,148.0
943.68,156.0
943.74,168.0
943.8,158.0
943.87,159.0
943.93,167.0
943.99,180.0
944.05,169.0
944.12,178.0
944.18,191.0
944.24,195.0
944.31,184.0
944.37,174.0
944.43,179.0
944.5,154.0
944.56,162.0
944.62,161.0
944.68,164.0
944.75,158.0
944.81,142.0
944.87,149.0
944.94,160.0
945.0,147.0
945.06,173.0
945.13,157.0
945.19,157.0
945.25,153.0
945.31,145.0
945.38,143.0
945.44,151.0
945.5,145.0
945.57,132.0
945.63,116.0
945.69,122.0
945.76,127.0
945.82,116.0
945.88,116.0
945.94,119.0
946.01,100.0
946.07,120.0
946.13,130.0
946.2,113.0
946.26,127.0
946.32,129.0
946.39,127.0
946.45,112.0
946.51,127.0
946.57,123.0
946.64,109.0
946.7,116.0
946.76,118.0
946.83,101.0
946.89,117.0
946.95,116.0
947.02,120.0
947.08,133.0
947.14,118.0
947.2,119.0
947.27,129.0
947.33,134.0
947.39,126.0
947.46,146.0
947.52,142.0
947.58,138.0
947.65,145.0
947.71,135.0
947.77,138.0
947.83,138.0
947.9,156.0
947.96,143.0
948.02,156.0
948.09,175.0
948.15,165.0
948.21,163.0
948.28,180.0
948.34,176.0
948.4,162.0
948.46,176.0
948.53,159.0
948.59,165.0
948.65,163.0
948.72,149.0
948.78,159.0
948.84,155.0
948.91,165.0
948.97,161.0
949.03,163.0
949.09,165.0
949.16,138.0
949.22,149.0
949.28,165.0
949.35,150.0
949.41,141.0
949.47,142.0
949.54,148.0
949.6,128.0
949.66,145.0
949.72,145.0
949.79,134.0
949.85,137.0
949.91,138.0
949.98,132.0
950.04,140.0
950.1,138.0
950.17,155.0
950.23,148.0
950.29,141.0
950.35,130.0
950.42,127.0
950.48,144.0
950.54,150.0
950.61,126.0
950.67,143.0
950.73,145.0
950.8,130.0
950.86,132.0
950.92,136.0
950.98,134.0
951.05,143.0
951.11,160.0
951.17,127.0
951.24,130.0
951.3,147.0
951.36,154.0
951.43,138.0
951.49,156.0
951.55,145.0
951.61,141.0
951.68,130.0
951.74,135.0
951.8,134.0
951.87,135.0
951.93,127.0
951.99,116.0
952.06,129.0
952.12,126.0
952.18,135.0
952.24,112.0
952.31,105.0
952.37,102.0
952.43,96.0
952.5,119.0
952.56,87.0
952.62,83.0
952.69,86.0
952.75,88.0
952.81,112.0
952.87,113.0
952.94,100.0
953.0,108.0
953.06,103.0
953.13,85.0
953.19,86.0
953.25,76.0
953.32,69.0
953.38,73.0
953.44,65.0
953.5,60.0
953.57,69.0
953.63,67.0
953.69,58.0
953.76,69.0
953.82,47.0
953.88,67.0
953.95,72.0
954.01,66.0
954.07,80.0
954.13,68.0
954.2,58.0
954.26,48.0
954.32,41.0
954.39,52.0
954.45,35.0
954.51,14.0
954.58,30.0
954.64,35.0
954.7,57.0
954.76,33.0
954.83,24.0
954.89,17.0
954.95,17.0
955.02,39.0
955.08,49.0
955.14,41.0
955.21,57.0
955.27,52.0
955.33,48.0
955.39,28.0
955.46,27.0
955.52,25.0
955.58,33.0
955.65,42.0
955.71,43.0
955.77,28.0
955.84,36.0
955.9,56.0
955.96,47.0
956.02,55.0
956.09,57.0
956.15,49.0
956.21,49.0
956.28,39.0
956.34,44.0
956.4,47.0
956.47,71.0
956.53,71.0
956.59,58.0
956.65,71.0
956.72,64.0
956.78,46.0
956.84,46.0
956.91,52.0
956.97,61.0
957.03,63.0
957.1,75.0
957.16,75.0
957.22,64.0
957.28,72.0
957.35,79.0
957.41,64.0
957.47,60.0
957.54,65.0
957.6,41.0
957.66,77.0
957.73,72.0
957.79,90.0
957.85,93.0
957.91,68.0
957.98,73.0
958.04,72.0
958.1,60.0
958.17,75.0
958.23,71.0
958.29,83.0
958.36,104.0
958.42,82.0
958.48,67.0
958.54,65.0
958.61,75.0
958.67,58.0
958.73,83.0
958.8,87.0
958.86,69.0
958.92,66.0
958.99,72.0
959.05,90.0
959.11,84.0
959.17,66.0
959.24,59.0
959.3,64.0
959.36,76.0
959.43,67.0
959.49,76.0
959.55,67.0
959.62,54.0
959.68,57.0
959.74,55.0
959.8,70.0
959.87,71.0
959.93,78.0
959.99,77.0
960.06,79.0
960.12,74.0
960.18,69.0
960.25,61.0
960.31,61.0
960.37,61.0
960.43,57.0
960.5,62.0
960.56,47.0
960.62,51.0
960.69,61.0
960.75,57.0
960.81,59.0
960.88,45.0
960.94,40.0
961.0,54.0
961.06,33.0
961.13,46.0
961.19,61.0
961.25,62.0
961.32,69.0
961.38,54.0
961.44,63.0
961.51,68.0
961.57,66.0
961.63,76.0
961.69,76.0
961.76,64.0
961.82,56.0
961.88,68.0
961.95,69.0
962.01,69.0
962.07,70.0
962.14,58.0
962.2,51.0
962.26,46.0
962.32,60.0
962.39,57.0
962.45,24.0
962.51,68.0
962.58,63.0
962.64,55.0
962.7,55.0
962.77,50.0
962.83,68.0
962.89,67.0
962.95,76.0
963.02,80.0
963.08,82.0
963.14,66.0
963.21,68.0
963.27,83.0
963.33,93.0
963.4,89.0
963.46,103.0
963.52,107.0
963.58,96.0
963.65,113.0
963.71,120.0
963.77,116.0
963.84,116.0
963.9,118.0
963.96,130.0
964.03,119.0
964.09,122.0
964.15,142.0
964.21,153.0
964.28,120.0
964.34,116.0
964.4,132.0
964.47,146.0
964.53,144.0
964.59,130.0
964.66,119.0
964.72,127.0
964.78,140.0
964.84,147.0
964.91,117.0
964.97,127.0
965.03,140.0
965.1,144.0
965.16,143.0
965.22,148.0
965.29,159.0
965.35,138.0
965.41,148.0
965.47,149.0
965.54,148.0
965.6,152.0
965.66,182.0
965.73,168.0
965.79,180.0
965.85,175.0
965.92,184.0
965.98,182.0
966.04,185.0
966.1,193.0
966.17,160.0
966.23,176.0
966.29,185.0
966.36,173.0
966.42,175.0
966.48,171.0
966.55,185.0
966.61,184.0
966.67,194.0
966.73,195.0
966.8,192.0
966.86,184.0
966.92,197.0
966.99,187.0
967.05,172.0
967.11,172.0
967.18,171.0
967.24,162.0
967.3,167.0
967.36,173.0
967.43,178.0
967.49,167.0
967.55,154.0
967.62,157.0
967.68,143.0
967.74,123.0
967.81,144.0
967.87,123.0
967.93,127.0
967.99,123.0
968.06,127.0
968.12,131.0
968.18,117.0
968.25,112.0
968.31,81.0
968.37,91.0
968.44,105.0
968.5,103.0
968.56,82.0
968.62,107.0
968.69,115.0
968.75,93.0
968.81,85.0
968.88,75.0
968.94,82.0
969.0,107.0
969.07,101.0
969.13,93.0
969.19,86.0
969.25,74.0
969.32,78.0
969.38,65.0
969.44,61.0
969.51,61.0
969.57,76.0
969.63,86.0
969.7,69.0
969.76,77.0
969.82,69.0
969.88,83.0
969.95,66.0
970.01,67.0
970.07,58.0
970.14,56.0
970.2,73.0
970.26,67.0
970.33,60.0
970.39,49.0
970.45,71.0
970.51,55.0
970.58,49.0
970.64,28.0
970.7,54.0
970.77,53.0
970.83,46.0
970.89,39.0
970.96,18.0
971.02,42.0
971.08,55.0
971.14,51.0
971.21,40.0
971.27,25.0
971.33,55.0
971.4,49.0
971.46,39.0
971.52,21.0
971.59,20.0
971.65,20.0
971.71,30.0
971.77,30.0
971.84,21.0
971.9,14.0
971.96,5.0
972.03,39.0
972.09,50.0
972.15,59.0
972.22,48.0
972.28,41.0
972.34,49.0
972.4,63.0
972.47,69.0
972.53,72.0
972.59,49.0
972.66,57.0
972.72,78.0
972.78,63.0
972.85,61.0
972.91,49.0
972.97,76.0
973.03,72.0
973.1,86.0
973.16,83.0
973.22,75.0
973.29,79.0
973.35,48.0
973.41,42.0
973.48,49.0
973.54,34.0
973.6,47.0
973.66,52.0
973.73,58.0
973.79,76.0
973.85,75.0
973.92,90.0
973.98,79.0
974.04,72.0
974.11,89.0
974.17,83.0
974.23,84.0
974.29,91.0
974.36,99.0
974.42,75.0
974.48,90.0
974.55,83.0
974.61,108.0
974.67,89.0
974.74,79.0
974.8,78.0
974.86,90.0
974.92,98.0
974.99,81.0
975.05,75.0
975.11,76.0
975.18,69.0
975.24,97.0
975.3,83.0
975.37,73.0
975.43,76.0
975.49,71.0
975.55,98.0
975.62,91.0
975.68,98.0
975.74,93.0
975.81,88.0
975.87,104.0
975.93,78.0
976.0,96.0
976.06,113.0
976.12,99.0
976.18,91.0
976.25,118.0
976.31,98.0
976.37,89.0
976.44,87.0
976.5,95.0
976.56,103.0
976.63,114.0
976.69,105.0
976.75,97.0
976.81,91.0
976.88,113.0
976.94,113.0
977.0,100.0
977.07,87.0
977.13,98.0
977.19,98.0
977.26,96.0
977.32,106.0
977.38,82.0
977.44,97.0
977.51,103.0
977.57,112.0
977.63,90.0
977.7,113.0
977.76,118.0
977.82,124.0
977.89,146.0
977.95,124.0
978.01,122.0
978.07,128.0
978.14,126.0
978.2,127.0
978.26,125.0
978.33,120.0
978.39,125.0
978.45,122.0
978.52,100.0
978.58,115.0
978.64,121.0
978.7,124.0
978.77,115.0
978.83,102.0
978.89,114.0
978.96,126.0
979.02,119.0
979.08,124.0
979.15,112.0
979.21,115.0
979.27,105.0
979.33,112.0
979.4,114.0
979.46,126.0
979.52,112.0
979.59,106.0
979.65,93.0
979.71,85.0
979.78,108.0
979.84,103.0
979.9,124.0
979.96,99.0
980.03,114.0
980.09,124.0
980.15,95.0
980.22,106.0
980.28,120.0
980.34,123.0
980.41,103.0
980.47,121.0
980.53,118.0
980.59,127.0
980.66,132.0
980.72,118.0
980.78,120.0
980.85,122.0
980.91,108.0
980.97,119.0
981.04,138.0
981.1,132.0
981.16,124.0
981.22,124.0
981.29,128.0
981.35,128.0
981.41,108.0
981.48,107.0
981.54,120.0
981.6,122.0
981.67,124.0
981.73,138.0
981.79,145.0
981.85,125.0
981.92,137.0
981.98,136.0
982.04,123.0
982.11,121.0
982.17,126.0
982.23,114.0
982.3,121.0
982.36,119.0
982.42,114.0
982.48,141.0
982.55,143.0
982.61,112.0
982.67,121.0
982.74,130.0
982.8,160.0
982.86,150.0
982.93,124.0
982.99,129.0
983.05,138.0
983.11,160.0
983.18,138.0
983.24,164.0
983.3,170.0
983.37,152.0
983.43,131.0
983.49,126.0
983.56,148.0
983.62,159.0
983.68,134.0
983.74,141.0
983.81,138.0
983.87,131.0
983.93,120.0
984.0,127.0
984.06,137.0
984.12,141.0
984.19,127.0
984.25,156.0
984.31,150.0
984.37,145.0
984.44,138.0
984.5,131.0
984.56,131.0
984.63,107.0
984.69,112.0
984.75,115.0
984.82,103.0
984.88,122.0
984.94,78.0
985.0,94.0
985.07,131.0
985.13,117.0
985.19,102.0
985.26,99.0
985.32,104.0
985.38,94.0
985.45,87.0
985.51,94.0
985.57,108.0
985.63,81.0
985.7,98.0
985.76,105.0
985.82,94.0
985.89,80.0
985.95,75.0
986.01,80.0
986.08,80.0
986.14,83.0
986.2,66.0
986.26,40.0
986.33,48.0
986.39,60.0
986.45,62.0
986.52,46.0
986.58,47.0
986.64,52.0
986.71,46.0
986.77,46.0
986.83,50.0
986.89,56.0
986.96,54.0
987.02,49.0
987.08,39.0
987.15,38.0
987.21,61.0
987.27,54.0
987.34,58.0
987.4,42.0
987.46,32.0
987.52,28.0
987.59,34.0
987.65,39.0
987.71,33.0
987.78,17.0
987.84,27.0
987.9,17.0
987.97,42.0
988.03,46.0
988.09,21.0
988.15,39.0
988.22,49.0
988.28,39.0
988.34,42.0
988.41,28.0
988.47,42.0
988.53,41.0
988.6,31.0
988.66,44.0
988.72,55.0
988.78,48.0
988.85,42.0
988.91,51.0
988.97,38.0
989.04,18.0
989.1,22.0
989.16,34.0
989.23,50.0
989.29,55.0
989.35,29.0
989.41,49.0
989.48,37.0
989.54,49.0
989.6,49.0
989.67,53.0
989.73,46.0
989.79,49.0
989.86,35.0
989.92,57.0
989.98,27.0
990.04,32.0
990.11,56.0
990.17,65.0
990.23,65.0
990.3,50.0
990.36,80.0
990.42,68.0
990.49,60.0
990.55,61.0
990.61,63.0
990.67,69.0
990.74,74.0
990.8,71.0
990.86,63.0
990.93,79.0
990.99,85.0
991.05,76.0
991.12,79.0
991.18,72.0
991.24,76.0
991.3,64.0
991.37,74.0
991.43,81.0
991.49,83.0
991.56,73.0
991.62,69.0
991.68,72.0
991.75,83.0
991.81,68.0
991.87,50.0
991.93,49.0
992.0,52.0
992.06,50.0
992.12,38.0
992.19,42.0
992.25,62.0
992.31,69.0
992.38,63.0
992.44,50.0
992.5,53.0
992.56,42.0
992.63,38.0
992.69,72.0
992.75,61.0
992.82,56.0
992.88,80.0
992.94,54.0
993.01,57.0
993.07,40.0
993.13,43.0
993.19,49.0
993.26,44.0
993.32,52.0
993.38,62.0
993.45,54.0
993.51,76.0
993.57,69.0
993.64,79.0
993.7,64.0
993.76,87.0
993.82,74.0
993.89,66.0
993.95,69.0
994.01,75.0
994.08,61.0
994.14,53.0
994.2,50.0
994.27,49.0
994.33,64.0
994.39,71.0
994.45,77.0
994.52,72.0
994.58,50.0
994.64,57.0
994.71,57.0
994.77,90.0
994.83,88.0
994.9,99.0
994.96,95.0
995.02,82.0
995.08,76.0
995.15,57.0
995.21,74.0
995.27,85.0
995.34,66.0
995.4,83.0
995.46,67.0
995.53,72.0
995.59,89.0
995.65,72.0
995.71,82.0
995.78,105.0
995.84,71.0
995.9,90.0
995.97,83.0
996.03,90.0
996.09,85.0
996.16,88.0
996.22,94.0
996.28,101.0
996.34,85.0
996.41,95.0
996.47,83.0
996.53,69.0
996.6,74.0
996.66,71.0
996.72,104.0
996.79,90.0
996.85,97.0
996.91,83.0
996.97,83.0
997.04,82.0
997.1,91.0
997.16,89.0
997.23,76.0
997.29,71.0
997.35,81.0
997.42,65.0
997.48,73.0
997.54,54.0
997.6,64.0
997.67,52.0
997.73,74.0
997.79,85.0
997.86,78.0
997.92,72.0
997.98,87.0
998.05,107.0
998.11,87.0
998.17,89.0
998.23,98.0
998.3,94.0
998.36,108.0
998.42,112.0
998.49,103.0
998.55,122.0
998.61,116.0
998.68,131.0
998.74,121.0
998.8,116.0
998.86,134.0
998.93,132.0
998.99,140.0
999.05,159.0
999.12,135.0
999.18,141.0
999.24,139.0
999.31,146.0
999.37,157.0
999.43,156.0
999.49,154.0
999.56,154.0
999.62,165.0
999.68,181.0
999.75,171.0
999.81,204.0
999.87,177.0
