timestamp,intensity
0,-309.0
0.06,-320.0
0.13,-312.0
0.19,-311.0
0.25,-305.0
0.32,-320.0
0.38,-291.0
0.44,-285.0
0.5,-285.0
0.57,-281.0
0.63,-268.0
0.69,-274.0
0.76,-268.0
0.82,-267.0
0.88,-276.0
0.94,-261.0
1.01,-262.0
1.07,-274.0
1.13,-269.0
1.2,-295.0
1.26,-300.0
1.32,-319.0
1.39,-322.0
1.45,-313.0
1.51,-334.0
1.57,-318.0
1.64,-307.0
1.7,-286.0
1.76,-302.0
1.83,-314.0
1.89,-286.0
1.95,-300.0
2.02,-296.0
2.08,-290.0
2.14,-273.0
2.2,-275.0
2.27,-282.0
2.33,-284.0
2.39,-299.0
2.46,-287.0
2.52,-303.0
2.58,-304.0
2.65,-302.0
2.71,-310.0
2.77,-310.0
2.84,-321.0
2.9,-308.0
2.96,-321.0
3.02,-309.0
3.09,-327.0
3.15,-331.0
3.21,-303.0
3.28,-308.0
3.34,-312.0
3.4,-326.0
3.47,-331.0
3.53,-308.0
3.59,-321.0
3.65,-312.0
3.72,-299.0
3.78,-298.0
3.84,-302.0
3.91,-312.0
3.97,-311.0
4.03,-322.0
4.1,-306.0
4.16,-305.0
4.22,-323.0
4.28,-310.0
4.35,-295.0
4.41,-323.0
4.47,-320.0
4.54,-292.0
4.6,-296.0
4.66,-300.0
4.73,-298.0
4.79,-308.0
4.85,-297.0
4.91,-302.0
4.98,-324.0
5.04,-308.0
5.1,-294.0
5.17,-283.0
5.23,-302.0
5.29,-290.0
5.35,-307.0
5.42,-295.0
5.48,-292.0
5.54,-309.0
5.61,-299.0
5.67,-295.0
5.73,-291.0
5.8,-284.0
5.86,-310.0
5.92,-276.0
5.98,-270.0
6.05,-267.0
6.11,-258.0
6.17,-288.0
6.24,-292.0
6.3,-282.0
6.36,-281.0
6.43,-296.0
6.49,-280.0
6.55,-279.0
6.61,-266.0
6.68,-266.0
6.74,-274.0
6.8,-261.0
6.87,-261.0
6.93,-268.0
6.99,-271.0
7.06,-265.0
7.12,-277.0
7.18,-258.0
7.24,-261.0
7.31,-256.0
7.37,-251.0
7.43,-241.0
7.5,-229.0
7.56,-231.0
7.62,-243.0
7.69,-230.0
7.75,-222.0
7.81,-238.0
7.87,-233.0
7.94,-239.0
8.0,-235.0
8.06,-262.0
8.13,-265.0
8.19,-249.0
8.25,-231.0
8.32,-260.0
8.38,-266.0
8.44,-256.0
8.5,-267.0
8.57,-264.0
8.63,-244.0
8.69,-251.0
8.76,-252.0
8.82,-256.0
8.88,-244.0
8.95,-250.0
9.01,-276.0
9.07,-269.0
9.13,-285.0
9.2,-283.0
9.26,-286.0
9.32,-265.0
9.39,-273.0
9.45,-292.0
9.51,-300.0
9.58,-276.0
9.64,-286.0
9.7,-285.0
9.77,-291.0
9.83,-295.0
9.89,-301.0
9.95,-304.0
10.02,-307.0
10.08,-314.0
10.14,-318.0
10.21,-333.0
10.27,-331.0
10.33,-321.0
10.4,-298.0
10.46,-311.0
10.52,-323.0
10.58,-316.0
10.65,-306.0
10.71,-302.0
10.77,-310.0
10.84,-325.0
10.9,-316.0
10.96,-312.0
11.03,-317.0
11.09,-309.0
11.15,-311.0
11.21,-333.0
11.28,-328.0
11.34,-311.0
11.4,-308.0
11.47,-321.0
11.53,-303.0
11.59,-306.0
11.66,-304.0
11.72,-319.0
11.78,-305.0
11.84,-319.0
11.91,-313.0
11.97,-334.0
12.03,-341.0
12.1,-335.0
12.16,-316.0
12.22,-327.0
12.29,-317.0
12.35,-311.0
12.41,-314.0
12.47,-312.0
12.54,-338.0
12.6,-329.0
12.66,-323.0
12.73,-315.0
12.79,-318.0
12.85,-322.0
12.92,-333.0
12.98,-332.0
13.04,-326.0
13.1,-323.0
13.17,-315.0
13.23,-319.0
13.29,-296.0
13.36,-295.0
13.42,-319.0
13.48,-305.0
13.55,-296.0
13.61,-286.0
13.67,-290.0
13.73,-316.0
13.8,-323.0
13.86,-317.0
13.92,-317.0
13.99,-308.0
14.05,-298.0
14.11,-296.0
14.18,-304.0
14.24,-322.0
14.3,-299.0
14.36,-295.0
14.43,-311.0
14.49,-292.0
14.55,-280.0
14.62,-302.0
14.68,-312.0
14.74,-297.0
14.81,-272.0
14.87,-279.0
14.93,-270.0
14.99,-268.0
15.06,-263.0
15.12,-262.0
15.18,-283.0
15.25,-260.0
15.31,-263.0
15.37,-272.0
15.44,-275.0
15.5,-275.0
15.56,-253.0
15.62,-284.0
15.69,-276.0
15.75,-272.0
15.81,-288.0
15.88,-283.0
15.94,-284.0
16.0,-262.0
16.07,-273.0
16.13,-281.0
16.19,-278.0
16.25,-265.0
16.32,-269.0
16.38,-273.0
16.44,-271.0
16.51,-267.0
16.57,-274.0
16.63,-256.0
16.7,-266.0
16.76,-267.0
16.82,-282.0
16.88,-279.0
16.95,-257.0
17.01,-263.0
17.07,-280.0
17.14,-232.0
17.2,-250.0
17.26,-242.0
17.33,-228.0
17.39,-240.0
17.45,-206.0
17.51,-212.0
17.58,-227.0
17.64,-228.0
17.7,-218.0
17.77,-218.0
17.83,-233.0
17.89,-236.0
17.96,-233.0
18.02,-221.0
18.08,-221.0
18.14,-196.0
18.21,-211.0
18.27,-224.0
18.33,-228.0
18.4,-244.0
18.46,-230.0
18.52,-238.0
18.59,-231.0
18.65,-207.0
18.71,-224.0
18.77,-227.0
18.84,-233.0
18.9,-234.0
18.96,-233.0
19.03,-224.0
19.09,-230.0
19.15,-219.0
19.22,-216.0
19.28,-219.0
19.34,-209.0
19.4,-233.0
19.47,-246.0
19.53,-225.0
19.59,-255.0
19.66,-254.0
19.72,-251.0
19.78,-261.0
19.84,-259.0
19.91,-237.0
19.97,-251.0
20.03,-231.0
20.1,-241.0
20.16,-259.0
20.22,-251.0
20.29,-253.0
20.35,-255.0
20.41,-239.0
20.47,-236.0
20.54,-237.0
20.6,-219.0
20.66,-231.0
20.73,-246.0
20.79,-235.0
20.85,-217.0
20.92,-234.0
20.98,-236.0
21.04,-223.0
21.1,-252.0
21.17,-246.0
21.23,-229.0
21.29,-229.0
21.36,-228.0
21.42,-213.0
21.48,-232.0
21.55,-229.0
21.61,-245.0
21.67,-229.0
21.73,-235.0
21.8,-227.0
21.86,-240.0
21.92,-218.0
21.99,-212.0
22.05,-215.0
22.11,-211.0
22.18,-206.0
22.24,-194.0
22.3,-198.0
22.36,-184.0
22.43,-187.0
22.49,-186.0
22.55,-190.0
22.62,-194.0
22.68,-210.0
22.74,-201.0
22.81,-196.0
22.87,-203.0
22.93,-196.0
22.99,-204.0
23.06,-187.0
23.12,-186.0
23.18,-189.0
23.25,-180.0
23.31,-165.0
23.37,-175.0
23.44,-172.0
23.5,-164.0
23.56,-165.0
23.62,-186.0
23.69,-167.0
23.75,-161.0
23.81,-173.0
23.88,-165.0
23.94,-182.0
24.0,-167.0
24.07,-164.0
24.13,-160.0
24.19,-159.0
24.25,-179.0
24.32,-168.0
24.38,-158.0
24.44,-161.0
24.51,-153.0
24.57,-155.0
24.63,-186.0
24.7,-172.0
24.76,-182.0
24.82,-183.0
24.88,-180.0
24.95,-180.0
25.01,-138.0
25.07,-153.0
25.14,-149.0
25.2,-166.0
25.26,-149.0
25.33,-158.0
25.39,-161.0
25.45,-157.0
25.51,-175.0
25.58,-160.0
25.64,-186.0
25.7,-171.0
25.77,-180.0
25.83,-168.0
25.89,-180.0
25.96,-182.0
26.02,-166.0
26.08,-171.0
26.14,-168.0
26.21,-181.0
26.27,-187.0
26.33,-186.0
26.4,-167.0
26.46,-160.0
26.52,-178.0
26.59,-167.0
26.65,-180.0
26.71,-194.0
26.77,-185.0
26.84,-169.0
26.9,-155.0
26.96,-151.0
27.03,-175.0
27.09,-177.0
27.15,-191.0
27.22,-181.0
27.28,-182.0
27.34,-187.0
27.4,-191.0
27.47,-196.0
27.53,-201.0
27.59,-202.0
27.66,-200.0
27.72,-223.0
27.78,-198.0
27.85,-205.0
27.91,-210.0
27.97,-207.0
28.03,-206.0
28.1,-212.0
28.16,-207.0
28.22,-223.0
28.29,-224.0
28.35,-233.0
28.41,-261.0
28.48,-240.0
28.54,-250.0
28.6,-220.0
28.66,-233.0
28.73,-252.0
28.79,-243.0
28.85,-240.0
28.92,-238.0
28.98,-242.0
29.04,-231.0
29.11,-227.0
29.17,-232.0
29.23,-227.0
29.29,-230.0
29.36,-224.0
29.42,-229.0
29.48,-225.0
29.55,-233.0
29.61,-239.0
29.67,-220.0
29.74,-216.0
29.8,-224.0
29.86,-235.0
29.92,-251.0
29.99,-253.0
30.05,-246.0
30.11,-228.0
30.18,-246.0
30.24,-232.0
30.3,-232.0
30.37,-238.0
30.43,-232.0
30.49,-209.0
30.55,-216.0
30.62,-226.0
30.68,-224.0
30.74,-227.0
30.81,-220.0
30.87,-233.0
30.93,-243.0
31.0,-243.0
31.06,-244.0
31.12,-223.0
31.18,-217.0
31.25,-227.0
31.31,-208.0
31.37,-230.0
31.44,-233.0
31.5,-247.0
31.56,-225.0
31.63,-221.0
31.69,-236.0
31.75,-231.0
31.81,-229.0
31.88,-230.0
31.94,-223.0
32.0,-209.0
32.07,-220.0
32.13,-223.0
32.19,-206.0
32.26,-214.0
32.32,-213.0
32.38,-215.0
32.44,-204.0
32.51,-208.0
32.57,-213.0
32.63,-200.0
32.7,-200.0
32.76,-201.0
32.82,-201.0
32.89,-184.0
32.95,-202.0
33.01,-204.0
33.07,-189.0
33.14,-212.0
33.2,-221.0
33.26,-229.0
33.33,-219.0
33.39,-207.0
33.45,-214.0
33.52,-201.0
33.58,-199.0
33.64,-185.0
33.7,-215.0
33.77,-210.0
33.83,-211.0
33.89,-194.0
33.96,-203.0
34.02,-193.0
34.08,-179.0
34.15,-190.0
34.21,-189.0
34.27,-185.0
34.33,-188.0
34.4,-199.0
34.46,-226.0
34.52,-199.0
34.59,-188.0
34.65,-177.0
34.71,-168.0
34.78,-148.0
34.84,-157.0
34.9,-172.0
34.96,-169.0
35.03,-160.0
35.09,-155.0
35.15,-167.0
35.22,-147.0
35.28,-154.0
35.34,-167.0
35.41,-177.0
35.47,-166.0
35.53,-156.0
35.59,-141.0
35.66,-160.0
35.72,-156.0
35.78,-155.0
35.85,-176.0
35.91,-162.0
35.97,-166.0
36.04,-155.0
36.1,-152.0
36.16,-153.0
36.22,-146.0
36.29,-150.0
36.35,-161.0
36.41,-143.0
36.48,-140.0
36.54,-161.0
36.6,-168.0
36.67,-166.0
36.73,-165.0
36.79,-154.0
36.85,-168.0
36.92,-170.0
36.98,-166.0
37.04,-172.0
37.11,-173.0
37.17,-179.0
37.23,-158.0
37.3,-140.0
37.36,-145.0
37.42,-169.0
37.48,-179.0
37.55,-166.0
37.61,-154.0
37.67,-168.0
37.74,-171.0
37.8,-167.0
37.86,-180.0
37.93,-164.0
37.99,-156.0
38.05,-147.0
38.12,-143.0
38.18,-155.0
38.24,-154.0
38.3,-137.0
38.37,-133.0
38.43,-118.0
38.49,-151.0
38.56,-126.0
38.62,-122.0
38.68,-122.0
38.75,-157.0
38.81,-136.0
38.87,-143.0
38.93,-149.0
39.0,-141.0
39.06,-131.0
39.12,-129.0
39.19,-138.0
39.25,-134.0
39.31,-140.0
39.38,-132.0
39.44,-134.0
39.5,-135.0
39.56,-116.0
39.63,-128.0
39.69,-117.0
39.75,-112.0
39.82,-137.0
39.88,-98.0
39.94,-110.0
40.01,-112.0
40.07,-110.0
40.13,-103.0
40.19,-118.0
40.26,-119.0
40.32,-115.0
40.38,-132.0
40.45,-128.0
40.51,-121.0
40.57,-114.0
40.64,-142.0
40.7,-122.0
40.76,-132.0
40.82,-125.0
40.89,-129.0
40.95,-121.0
41.01,-138.0
41.08,-129.0
41.14,-120.0
41.2,-115.0
41.27,-123.0
41.33,-131.0
41.39,-118.0
41.45,-131.0
41.52,-130.0
41.58,-107.0
41.64,-112.0
41.71,-108.0
41.77,-106.0
41.83,-132.0
41.9,-114.0
41.96,-122.0
42.02,-141.0
42.08,-131.0
42.15,-133.0
42.21,-119.0
42.27,-119.0
42.34,-131.0
42.4,-131.0
42.46,-120.0
42.53,-121.0
42.59,-147.0
42.65,-134.0
42.71,-130.0
42.78,-130.0
42.84,-126.0
42.9,-163.0
42.97,-170.0
43.03,-152.0
43.09,-160.0
43.16,-182.0
43.22,-168.0
43.28,-160.0
43.34,-151.0
43.41,-150.0
43.47,-171.0
43.53,-173.0
43.6,-172.0
43.66,-166.0
43.72,-163.0
43.79,-166.0
43.85,-169.0
43.91,-190.0
43.97,-181.0
44.04,-168.0
44.1,-174.0
44.16,-168.0
44.23,-163.0
44.29,-178.0
44.35,-179.0
44.42,-183.0
44.48,-178.0
44.54,-195.0
44.6,-187.0
44.67,-188.0
44.73,-193.0
44.79,-178.0
44.86,-167.0
44.92,-189.0
44.98,-176.0
45.05,-177.0
45.11,-191.0
45.17,-170.0
45.23,-162.0
45.3,-166.0
45.36,-170.0
45.42,-181.0
45.49,-161.0
45.55,-189.0
45.61,-190.0
45.68,-168.0
45.74,-179.0
45.8,-188.0
45.86,-183.0
45.93,-191.0
45.99,-172.0
46.05,-173.0
46.12,-172.0
46.18,-183.0
46.24,-181.0
46.31,-180.0
46.37,-187.0
46.43,-181.0
46.49,-205.0
46.56,-208.0
46.62,-200.0
46.68,-169.0
46.75,-177.0
46.81,-192.0
46.87,-189.0
46.94,-193.0
47.0,-202.0
47.06,-209.0
47.12,-212.0
47.19,-205.0
47.25,-219.0
47.31,-215.0
47.38,-213.0
47.44,-189.0
47.5,-199.0
47.57,-191.0
47.63,-204.0
47.69,-195.0
47.75,-202.0
47.82,-214.0
47.88,-199.0
47.94,-201.0
48.01,-226.0
48.07,-224.0
48.13,-208.0
48.2,-201.0
48.26,-191.0
48.32,-172.0
48.38,-183.0
48.45,-158.0
48.51,-174.0
48.57,-185.0
48.64,-178.0
48.7,-199.0
48.76,-193.0
48.83,-176.0
48.89,-189.0
48.95,-184.0
49.01,-189.0
49.08,-186.0
49.14,-175.0
49.2,-171.0
49.27,-170.0
49.33,-175.0
49.39,-171.0
49.46,-160.0
49.52,-171.0
49.58,-176.0
49.64,-166.0
49.71,-163.0
49.77,-153.0
49.83,-165.0
49.9,-147.0
49.96,-171.0
50.02,-164.0
50.09,-148.0
50.15,-153.0
50.21,-150.0
50.27,-148.0
50.34,-134.0
50.4,-129.0
50.46,-139.0
50.53,-133.0
50.59,-153.0
50.65,-131.0
50.72,-144.0
50.78,-142.0
50.84,-158.0
50.9,-163.0
50.97,-145.0
51.03,-147.0
51.09,-129.0
51.16,-132.0
51.22,-130.0
51.28,-135.0
51.35,-137.0
51.41,-128.0
51.47,-126.0
51.53,-98.0
51.6,-93.0
51.66,-118.0
51.72,-108.0
51.79,-97.0
51.85,-109.0
51.91,-89.0
51.98,-92.0
52.04,-94.0
52.1,-90.0
52.16,-110.0
52.23,-91.0
52.29,-77.0
52.35,-90.0
52.42,-85.0
52.48,-103.0
52.54,-101.0
52.61,-104.0
52.67,-97.0
52.73,-127.0
52.79,-116.0
52.86,-99.0
52.92,-110.0
52.98,-119.0
53.05,-118.0
53.11,-105.0
53.17,-113.0
53.24,-107.0
53.3,-114.0
53.36,-110.0
53.42,-111.0
53.49,-126.0
53.55,-113.0
53.61,-140.0
53.68,-137.0
53.74,-115.0
53.8,-116.0
53.87,-134.0
53.93,-124.0
53.99,-111.0
54.05,-141.0
54.12,-138.0
54.18,-144.0
54.24,-146.0
54.31,-143.0
54.37,-145.0
54.43,-145.0
54.5,-153.0
54.56,-174.0
54.62,-160.0
54.68,-169.0
54.75,-164.0
54.81,-167.0
54.87,-154.0
54.94,-124.0
55.0,-153.0
55.06,-160.0
55.13,-168.0
55.19,-177.0
55.25,-142.0
55.31,-147.0
55.38,-147.0
55.44,-160.0
55.5,-145.0
55.57,-159.0
55.63,-155.0
55.69,-157.0
55.76,-147.0
55.82,-140.0
55.88,-153.0
55.94,-146.0
56.01,-120.0
56.07,-124.0
56.13,-114.0
56.2,-107.0
56.26,-101.0
56.32,-94.0
56.39,-114.0
56.45,-95.0
56.51,-96.0
56.57,-98.0
56.64,-97.0
56.7,-93.0
56.76,-100.0
56.83,-100.0
56.89,-96.0
56.95,-95.0
57.02,-92.0
57.08,-112.0
57.14,-97.0
57.2,-72.0
57.27,-84.0
57.33,-89.0
57.39,-102.0
57.46,-94.0
57.52,-71.0
57.58,-78.0
57.65,-85.0
57.71,-85.0
57.77,-71.0
57.83,-67.0
57.9,-72.0
57.96,-55.0
58.02,-79.0
58.09,-72.0
58.15,-76.0
58.21,-67.0
58.28,-65.0
58.34,-61.0
58.4,-66.0
58.46,-85.0
58.53,-79.0
58.59,-82.0
58.65,-71.0
58.72,-68.0
58.78,-80.0
58.84,-92.0
58.91,-85.0
58.97,-79.0
59.03,-80.0
59.09,-83.0
59.16,-80.0
59.22,-82.0
59.28,-66.0
59.35,-60.0
59.41,-54.0
59.47,-57.0
59.54,-78.0
59.6,-64.0
59.66,-53.0
59.72,-34.0
59.79,-52.0
59.85,-47.0
59.91,-67.0
59.98,-66.0
60.04,-65.0
60.1,-57.0
60.17,-62.0
60.23,-64.0
60.29,-70.0
60.35,-53.0
60.42,-74.0
60.48,-62.0
60.54,-66.0
60.61,-62.0
60.67,-59.0
60.73,-73.0
60.8,-72.0
60.86,-86.0
60.92,-81.0
60.98,-66.0
61.05,-64.0
61.11,-71.0
61.17,-73.0
61.24,-65.0
61.3,-71.0
61.36,-65.0
61.43,-76.0
61.49,-76.0
61.55,-63.0
61.61,-77.0
61.68,-77.0
61.74,-81.0
61.8,-98.0
61.87,-99.0
61.93,-99.0
61.99,-101.0
62.06,-104.0
62.12,-113.0
62.18,-115.0
62.24,-105.0
62.31,-122.0
62.37,-104.0
62.43,-108.0
62.5,-94.0
62.56,-82.0
62.62,-96.0
62.69,-102.0
62.75,-87.0
62.81,-99.0
62.87,-111.0
62.94,-98.0
63.0,-103.0
63.06,-84.0
63.13,-105.0
63.19,-94.0
63.25,-72.0
63.32,-75.0
63.38,-78.0
63.44,-88.0
63.5,-87.0
63.57,-97.0
63.63,-88.0
63.69,-95.0
63.76,-96.0
63.82,-97.0
63.88,-96.0
63.95,-92.0
64.01,-93.0
64.07,-91.0
64.13,-104.0
64.2,-104.0
64.26,-104.0
64.32,-97.0
64.39,-96.0
64.45,-115.0
64.51,-112.0
64.58,-87.0
64.64,-99.0
64.7,-92.0
64.76,-95.0
64.83,-109.0
64.89,-116.0
64.95,-108.0
65.02,-127.0
65.08,-115.0
65.14,-110.0
65.21,-114.0
65.27,-102.0
65.33,-110.0
65.39,-117.0
65.46,-110.0
65.52,-108.0
65.58,-117.0
65.65,-118.0
65.71,-110.0
65.77,-119.0
65.84,-102.0
65.9,-98.0
65.96,-94.0
66.02,-129.0
66.09,-138.0
66.15,-103.0
66.21,-118.0
66.28,-117.0
66.34,-130.0
66.4,-131.0
66.47,-124.0
66.53,-129.0
66.59,-89.0
66.65,-105.0
66.72,-110.0
66.78,-95.0
66.84,-95.0
66.91,-120.0
66.97,-119.0
67.03,-94.0
67.1,-90.0
67.16,-94.0
67.22,-94.0
67.28,-80.0
67.35,-90.0
67.41,-85.0
67.47,-66.0
67.54,-69.0
67.6,-102.0
67.66,-95.0
67.73,-88.0
67.79,-89.0
67.85,-92.0
67.91,-91.0
67.98,-94.0
68.04,-90.0
68.1,-88.0
68.17,-102.0
68.23,-73.0
68.29,-90.0
68.36,-90.0
68.42,-62.0
68.48,-66.0
68.54,-75.0
68.61,-57.0
68.67,-67.0
68.73,-75.0
68.8,-58.0
68.86,-75.0
68.92,-71.0
68.99,-59.0
69.05,-56.0
69.11,-60.0
69.17,-45.0
69.24,-51.0
69.3,-52.0
69.36,-73.0
69.43,-66.0
69.49,-90.0
69.55,-112.0
69.62,-106.0
69.68,-105.0
69.74,-102.0
69.8,-100.0
69.87,-98.0
69.93,-99.0
69.99,-76.0
70.06,-101.0
70.12,-90.0
70.18,-77.0
70.25,-73.0
70.31,-59.0
70.37,-69.0
70.43,-64.0
70.5,-72.0
70.56,-62.0
70.62,-65.0
70.69,-58.0
70.75,-67.0
70.81,-69.0
70.88,-57.0
70.94,-68.0
71.0,-71.0
71.06,-74.0
71.13,-75.0
71.19,-73.0
71.25,-55.0
71.32,-44.0
71.38,-48.0
71.44,-46.0
71.51,-34.0
71.57,-35.0
71.63,-36.0
71.69,-48.0
71.76,-43.0
71.82,-44.0
71.88,-53.0
71.95,-45.0
72.01,-44.0
72.07,-52.0
72.14,-33.0
72.2,-22.0
72.26,-2.0
72.32,-2.0
72.39,-16.0
72.45,-26.0
72.51,-6.0
72.58,-14.0
72.64,-34.0
72.7,-34.0
72.77,-34.0
72.83,-38.0
72.89,-34.0
72.95,-36.0
73.02,-17.0
73.08,-10.0
73.14,-17.0
73.21,-18.0
73.27,-30.0
73.33,-18.0
73.4,-36.0
73.46,-34.0
73.52,-33.0
73.58,-27.0
73.65,-23.0
73.71,-22.0
73.77,-4.0
73.84,4.0
73.9,1.0
73.96,30.0
74.03,7.0
74.09,26.0
74.15,32.0
74.21,32.0
74.28,17.0
74.34,23.0
74.4,8.0
74.47,8.0
74.53,3.0
74.59,9.0
74.66,22.0
74.72,6.0
74.78,8.0
74.84,24.0
74.91,17.0
74.97,22.0
75.03,40.0
75.1,29.0
75.16,26.0
75.22,17.0
75.29,-11.0
75.35,2.0
75.41,2.0
75.47,38.0
75.54,47.0
75.6,32.0
75.66,24.0
75.73,11.0
75.79,27.0
75.85,17.0
75.92,20.0
75.98,37.0
76.04,12.0
76.1,7.0
76.17,10.0
76.23,24.0
76.29,26.0
76.36,29.0
76.42,56.0
76.48,48.0
76.55,58.0
76.61,36.0
76.67,31.0
76.73,29.0
76.8,35.0
76.86,17.0
76.92,19.0
76.99,21.0
77.05,16.0
77.11,10.0
77.18,17.0
77.24,8.0
77.3,6.0
77.36,13.0
77.43,5.0
77.49,1.0
77.55,-2.0
77.62,-5.0
77.68,-14.0
77.74,-13.0
77.81,-4.0
77.87,17.0
77.93,20.0
77.99,12.0
78.06,17.0
78.12,6.0
78.18,7.0
78.25,11.0
78.31,14.0
78.37,6.0
78.44,13.0
78.5,18.0
78.56,-16.0
78.62,-11.0
78.69,-15.0
78.75,-15.0
78.81,-24.0
78.88,-29.0
78.94,-2.0
79.0,-23.0
79.07,-1.0
79.13,-41.0
79.19,-41.0
79.25,-22.0
79.32,-36.0
79.38,-58.0
79.44,-32.0
79.51,-27.0
79.57,-28.0
79.63,-45.0
79.7,-31.0
79.76,-39.0
79.82,-46.0
79.88,-38.0
79.95,-47.0
80.01,-46.0
80.07,-36.0
80.14,-51.0
80.2,-63.0
80.26,-65.0
80.33,-56.0
80.39,-58.0
80.45,-50.0
80.51,-71.0
80.58,-90.0
80.64,-79.0
80.7,-76.0
80.77,-97.0
80.83,-119.0
80.89,-93.0
80.96,-106.0
81.02,-93.0
81.08,-68.0
81.14,-75.0
81.21,-75.0
81.27,-62.0
81.33,-68.0
81.4,-77.0
81.46,-56.0
81.52,-74.0
81.59,-87.0
81.65,-78.0
81.71,-75.0
81.77,-65.0
81.84,-67.0
81.9,-44.0
81.96,-59.0
82.03,-66.0
82.09,-43.0
82.15,-46.0
82.22,-41.0
82.28,-68.0
82.34,-91.0
82.4,-81.0
82.47,-72.0
82.53,-67.0
82.59,-83.0
82.66,-67.0
82.72,-66.0
82.78,-55.0
82.85,-71.0
82.91,-55.0
82.97,-41.0
83.03,-51.0
83.1,-36.0
83.16,-42.0
83.22,-44.0
83.29,-42.0
83.35,-54.0
83.41,-52.0
83.48,-74.0
83.54,-68.0
83.6,-58.0
83.66,-43.0
83.73,-33.0
83.79,-68.0
83.85,-65.0
83.92,-50.0
83.98,-44.0
84.04,-17.0
84.11,-27.0
84.17,-30.0
84.23,-29.0
84.29,-19.0
84.36,-22.0
84.42,-30.0
84.48,-32.0
84.55,-42.0
84.61,-43.0
84.67,-17.0
84.74,-28.0
84.8,-21.0
84.86,-8.0
84.92,-11.0
84.99,10.0
85.05,-3.0
85.11,-21.0
85.18,-15.0
85.24,-30.0
85.3,-12.0
85.37,-20.0
85.43,-15.0
85.49,3.0
85.55,2.0
85.62,1.0
85.68,-7.0
85.74,-27.0
85.81,-17.0
85.87,-10.0
85.93,-24.0
86.0,7.0
86.06,-5.0
86.12,-7.0
86.18,2.0
86.25,1.0
86.31,15.0
86.37,-6.0
86.44,-1.0
86.5,15.0
86.56,13.0
86.63,32.0
86.69,15.0
86.75,13.0
86.81,7.0
86.88,14.0
86.94,6.0
87.0,17.0
87.07,13.0
87.13,15.0
87.19,48.0
87.26,35.0
87.32,26.0
87.38,18.0
87.44,15.0
87.51,26.0
87.57,23.0
87.63,29.0
87.7,26.0
87.76,38.0
87.82,54.0
87.89,54.0
87.95,53.0
88.01,26.0
88.07,41.0
88.14,41.0
88.2,61.0
88.26,38.0
88.33,29.0
88.39,26.0
88.45,30.0
88.52,21.0
88.58,32.0
88.64,36.0
88.7,38.0
88.77,20.0
88.83,34.0
88.89,23.0
88.96,18.0
89.02,28.0
89.08,27.0
89.15,50.0
89.21,45.0
89.27,26.0
89.33,30.0
89.4,30.0
89.46,35.0
89.52,26.0
89.59,35.0
89.65,38.0
89.71,18.0
89.78,30.0
89.84,36.0
89.9,55.0
89.96,66.0
90.03,21.0
90.09,27.0
90.15,29.0
90.22,41.0
90.28,68.0
90.34,52.0
90.41,54.0
90.47,56.0
90.53,37.0
90.59,57.0
90.66,52.0
90.72,64.0
90.78,55.0
90.85,43.0
90.91,55.0
90.97,50.0
91.04,59.0
91.1,45.0
91.16,43.0
91.22,58.0
91.29,53.0
91.35,45.0
91.41,47.0
91.48,65.0
91.54,51.0
91.6,63.0
91.67,44.0
91.73,37.0
91.79,42.0
91.85,66.0
91.92,70.0
91.98,69.0
92.04,74.0
92.11,44.0
92.17,62.0
92.23,84.0
92.3,75.0
92.36,47.0
92.42,51.0
92.48,48.0
92.55,44.0
92.61,55.0
92.67,41.0
92.74,58.0
92.8,62.0
92.86,36.0
92.93,51.0
92.99,77.0
93.05,68.0
93.11,79.0
93.18,66.0
93.24,67.0
93.3,68.0
93.37,61.0
93.43,78.0
93.49,83.0
93.56,71.0
93.62,68.0
93.68,56.0
93.74,53.0
93.81,67.0
93.87,59.0
93.93,64.0
94.0,54.0
94.06,51.0
94.12,63.0
94.19,37.0
94.25,50.0
94.31,47.0
94.37,62.0
94.44,49.0
94.5,30.0
94.56,49.0
94.63,59.0
94.69,67.0
94.75,55.0
94.82,43.0
94.88,31.0
94.94,40.0
95.0,32.0
95.07,43.0
95.13,34.0
95.19,52.0
95.26,62.0
95.32,59.0
95.38,29.0
95.45,37.0
95.51,34.0
95.57,27.0
95.63,35.0
95.7,-5.0
95.76,11.0
95.82,18.0
95.89,1.0
95.95,15.0
96.01,2.0
96.08,-3.0
96.14,-10.0
96.2,2.0
96.26,8.0
96.33,-23.0
96.39,-21.0
96.45,-22.0
96.52,-18.0
96.58,-16.0
96.64,-22.0
96.71,-13.0
96.77,-14.0
96.83,-21.0
96.89,-43.0
96.96,-10.0
97.02,-18.0
97.08,-21.0
97.15,1.0
97.21,-12.0
97.27,-16.0
97.34,-17.0
97.4,-45.0
97.46,-43.0
97.52,-43.0
97.59,-32.0
97.65,-34.0
97.71,-42.0
97.78,-56.0
97.84,-35.0
97.9,-55.0
97.97,-51.0
98.03,-29.0
98.09,-28.0
98.15,-35.0
98.22,-46.0
98.28,-33.0
98.34,-21.0
98.41,-33.0
98.47,-17.0
98.53,-2.0
98.6,-18.0
98.66,-15.0
98.72,-11.0
98.78,2.0
98.85,-13.0
98.91,4.0
98.97,4.0
99.04,-26.0
99.1,-20.0
99.16,-16.0
99.23,2.0
99.29,-9.0
99.35,8.0
99.41,10.0
99.48,6.0
99.54,13.0
99.6,19.0
99.67,-19.0
99.73,-11.0
99.79,2.0
99.86,-19.0
99.92,-31.0
99.98,-14.0
100.04,-3.0
100.11,-5.0
100.17,3.0
100.23,-2.0
100.3,-24.0
100.36,-5.0
100.42,-17.0
100.49,-23.0
100.55,-13.0
100.61,-37.0
100.67,-18.0
100.74,-27.0
100.8,-42.0
100.86,-34.0
100.93,-55.0
100.99,-59.0
101.05,-43.0
101.12,-47.0
101.18,-45.0
101.24,-40.0
101.3,-42.0
101.37,-51.0
101.43,-46.0
101.49,-32.0
101.56,-19.0
101.62,-17.0
101.68,-21.0
101.75,-33.0
101.81,-40.0
101.87,-30.0
101.93,-27.0
102.0,-16.0
102.06,-4.0
102.12,-11.0
102.19,-13.0
102.25,-5.0
102.31,-1.0
102.38,-10.0
102.44,-12.0
102.5,-9.0
102.56,-1.0
102.63,-1.0
102.69,9.0
102.75,16.0
102.82,9.0
102.88,16.0
102.94,6.0
103.01,18.0
103.07,22.0
103.13,-5.0
103.19,1.0
103.26,-14.0
103.32,0.0
103.38,12.0
103.45,-7.0
103.51,4.0
103.57,5.0
103.64,-4.0
103.7,5.0
103.76,-18.0
103.82,1.0
103.89,11.0
103.95,-7.0
104.01,-7.0
104.08,-4.0
104.14,-21.0
104.2,-18.0
104.27,-29.0
104.33,-13.0
104.39,-30.0
104.45,-43.0
104.52,-40.0
104.58,-46.0
104.64,-43.0
104.71,-35.0
104.77,-39.0
104.83,-30.0
104.9,-39.0
104.96,-46.0
105.02,-63.0
105.08,-47.0
105.15,-40.0
105.21,-40.0
105.27,-41.0
105.34,-52.0
105.4,-50.0
105.46,-39.0
105.53,-42.0
105.59,-33.0
105.65,-26.0
105.71,-42.0
105.78,-26.0
105.84,-11.0
105.9,-26.0
105.97,-35.0
106.03,-26.0
106.09,-39.0
106.16,-18.0
106.22,-6.0
106.28,-12.0
106.34,-16.0
106.41,-19.0
106.47,-29.0
106.53,-29.0
106.6,-33.0
106.66,-41.0
106.72,-32.0
106.79,-21.0
106.85,-39.0
106.91,-14.0
106.97,-10.0
107.04,9.0
107.1,6.0
107.16,6.0
107.23,-11.0
107.29,-3.0
107.35,2.0
107.42,-3.0
107.48,13.0
107.54,-7.0
107.6,4.0
107.67,11.0
107.73,25.0
107.79,27.0
107.86,12.0
107.92,21.0
107.98,21.0
108.05,32.0
108.11,17.0
108.17,28.0
108.23,21.0
108.3,3.0
108.36,-7.0
108.42,6.0
108.49,30.0
108.55,20.0
108.61,34.0
108.68,27.0
108.74,22.0
108.8,28.0
108.86,15.0
108.93,4.0
108.99,7.0
109.05,6.0
109.12,10.0
109.18,18.0
109.24,13.0
109.31,22.0
109.37,23.0
109.43,17.0
109.49,39.0
109.56,28.0
109.62,30.0
109.68,31.0
109.75,18.0
109.81,17.0
109.87,-1.0
109.94,9.0
110.0,22.0
110.06,11.0
110.12,32.0
110.19,21.0
110.25,20.0
110.31,16.0
110.38,10.0
110.44,5.0
110.5,9.0
110.57,12.0
110.63,35.0
110.69,47.0
110.75,29.0
110.82,38.0
110.88,30.0
110.94,32.0
111.01,35.0
111.07,36.0
111.13,18.0
111.2,22.0
111.26,28.0
111.32,26.0
111.38,28.0
111.45,23.0
111.51,28.0
111.57,53.0
111.64,42.0
111.7,15.0
111.76,38.0
111.83,15.0
111.89,23.0
111.95,21.0
112.01,49.0
112.08,43.0
112.14,22.0
112.2,39.0
112.27,29.0
112.33,44.0
112.39,21.0
112.46,16.0
112.52,9.0
112.58,18.0
112.64,27.0
112.71,18.0
112.77,30.0
112.83,34.0
112.9,27.0
112.96,21.0
113.02,23.0
113.09,18.0
113.15,10.0
113.21,21.0
113.27,9.0
113.34,-5.0
113.4,-3.0
113.46,13.0
113.53,15.0
113.59,4.0
113.65,-12.0
113.72,-5.0
113.78,2.0
113.84,4.0
113.9,-5.0
113.97,16.0
114.03,7.0
114.09,-8.0
114.16,-14.0
114.22,9.0
114.28,-7.0
114.35,7.0
114.41,6.0
114.47,-16.0
114.53,9.0
114.6,0.0
114.66,-17.0
114.72,-12.0
114.79,-9.0
114.85,-9.0
114.91,12.0
114.98,1.0
115.04,12.0
115.1,-5.0
115.16,7.0
115.23,-12.0
115.29,-9.0
115.35,3.0
115.42,6.0
115.48,-13.0
115.54,6.0
115.61,11.0
115.67,13.0
115.73,20.0
115.79,13.0
115.86,28.0
115.92,28.0
115.98,33.0
116.05,27.0
116.11,24.0
116.17,25.0
116.24,44.0
116.3,31.0
116.36,44.0
116.42,43.0
116.49,31.0
116.55,44.0
116.61,36.0
116.68,53.0
116.74,41.0
116.8,46.0
116.87,43.0
116.93,39.0
116.99,36.0
117.05,34.0
117.12,39.0
117.18,18.0
117.24,42.0
117.31,43.0
117.37,25.0
117.43,39.0
117.5,46.0
117.56,25.0
117.62,29.0
117.68,28.0
117.75,37.0
117.81,36.0
117.87,45.0
117.94,36.0
118.0,41.0
118.06,31.0
118.13,29.0
118.19,44.0
118.25,55.0
118.31,56.0
118.38,67.0
118.44,71.0
118.5,81.0
118.57,79.0
118.63,69.0
118.69,80.0
118.76,67.0
118.82,77.0
118.88,64.0
118.94,56.0
119.01,59.0
119.07,55.0
119.13,67.0
119.2,62.0
119.26,43.0
119.32,45.0
119.39,55.0
119.45,39.0
119.51,49.0
119.57,56.0
119.64,45.0
119.7,41.0
119.76,54.0
119.83,44.0
119.89,49.0
119.95,26.0
120.02,50.0
120.08,67.0
120.14,60.0
120.2,46.0
120.27,48.0
120.33,55.0
120.39,64.0
120.46,54.0
120.52,57.0
120.58,63.0
120.65,49.0
120.71,47.0
120.77,44.0
120.83,48.0
120.9,60.0
120.96,48.0
121.02,33.0
121.09,42.0
121.15,29.0
121.21,23.0
121.28,35.0
121.34,23.0
121.4,10.0
121.46,21.0
121.53,24.0
121.59,23.0
121.65,24.0
121.72,31.0
121.78,5.0
121.84,21.0
121.91,12.0
121.97,5.0
122.03,14.0
122.09,2.0
122.16,26.0
122.22,36.0
122.28,34.0
122.35,19.0
122.41,27.0
122.47,20.0
122.54,19.0
122.6,34.0
122.66,17.0
122.72,44.0
122.79,47.0
122.85,60.0
122.91,60.0
122.98,38.0
123.04,42.0
123.1,44.0
123.17,41.0
123.23,31.0
123.29,42.0
123.35,59.0
123.42,43.0
123.48,49.0
123.54,36.0
123.61,51.0
123.67,35.0
123.73,40.0
123.8,44.0
123.86,45.0
123.92,53.0
123.98,38.0
124.05,50.0
124.11,75.0
124.17,47.0
124.24,28.0
124.3,43.0
124.36,36.0
124.43,47.0
124.49,41.0
124.55,33.0
124.61,39.0
124.68,39.0
124.74,64.0
124.8,72.0
124.87,69.0
124.93,86.0
124.99,100.0
125.06,85.0
125.12,70.0
125.18,78.0
125.24,77.0
125.31,75.0
125.37,72.0
125.43,86.0
125.5,93.0
125.56,91.0
125.62,101.0
125.69,115.0
125.75,115.0
125.81,108.0
125.87,128.0
125.94,141.0
126.0,123.0
126.06,127.0
126.13,120.0
126.19,108.0
126.25,91.0
126.32,112.0
126.38,108.0
126.44,110.0
126.5,86.0
126.57,94.0
126.63,107.0
126.69,108.0
126.76,112.0
126.82,118.0
126.88,145.0
126.95,126.0
127.01,115.0
127.07,126.0
127.13,111.0
127.2,121.0
127.26,104.0
127.32,101.0
127.39,113.0
127.45,113.0
127.51,99.0
127.58,97.0
127.64,119.0
127.7,104.0
127.76,87.0
127.83,76.0
127.89,92.0
127.95,83.0
128.02,81.0
128.08,94.0
128.14,86.0
128.21,97.0
128.27,75.0
128.33,66.0
128.39,53.0
128.46,59.0
128.52,51.0
128.58,57.0
128.65,42.0
128.71,43.0
128.77,41.0
128.84,30.0
128.9,43.0
128.96,35.0
129.02,40.0
129.09,63.0
129.15,41.0
129.21,28.0
129.28,41.0
129.34,33.0
129.4,48.0
129.47,29.0
129.53,41.0
129.59,31.0
129.65,26.0
129.72,25.0
129.78,45.0
129.84,23.0
129.91,0.0
129.97,25.0
130.03,11.0
130.1,19.0
130.16,13.0
130.22,10.0
130.28,17.0
130.35,24.0
130.41,27.0
130.47,28.0
130.54,25.0
130.6,16.0
130.66,3.0
130.73,-8.0
130.79,-19.0
130.85,2.0
130.91,-15.0
130.98,-3.0
131.04,-5.0
131.1,-1.0
131.17,-6.0
131.23,-8.0
131.29,-15.0
131.36,-14.0
131.42,-5.0
131.48,-17.0
131.54,-14.0
131.61,8.0
131.67,15.0
131.73,0.0
131.8,27.0
131.86,29.0
131.92,26.0
131.99,16.0
132.05,31.0
132.11,28.0
132.17,16.0
132.24,20.0
132.3,3.0
132.36,9.0
132.43,16.0
132.49,29.0
132.55,29.0
132.62,10.0
132.68,19.0
132.74,18.0
132.8,19.0
132.87,19.0
132.93,24.0
132.99,32.0
133.06,28.0
133.12,19.0
133.18,7.0
133.25,10.0
133.31,14.0
133.37,16.0
133.43,23.0
133.5,15.0
133.56,9.0
133.62,18.0
133.69,6.0
133.75,22.0
133.81,26.0
133.88,35.0
133.94,39.0
134.0,39.0
134.06,25.0
134.13,17.0
134.19,8.0
134.25,22.0
134.32,35.0
134.38,52.0
134.44,73.0
134.51,72.0
134.57,44.0
134.63,57.0
134.69,66.0
134.76,63.0
134.82,69.0
134.88,68.0
134.95,59.0
135.01,55.0
135.07,51.0
135.14,58.0
135.2,47.0
135.26,50.0
135.32,67.0
135.39,55.0
135.45,42.0
135.51,53.0
135.58,59.0
135.64,45.0
135.7,58.0
135.77,70.0
135.83,65.0
135.89,67.0
135.95,64.0
136.02,66.0
136.08,61.0
136.14,69.0
136.21,52.0
136.27,55.0
136.33,52.0
136.4,81.0
136.46,73.0
136.52,64.0
136.58,55.0
136.65,55.0
136.71,70.0
136.77,44.0
136.84,60.0
136.9,44.0
136.96,51.0
137.03,38.0
137.09,32.0
137.15,30.0
137.21,28.0
137.28,40.0
137.34,40.0
137.4,43.0
137.47,50.0
137.53,35.0
137.59,31.0
137.66,37.0
137.72,28.0
137.78,14.0
137.84,15.0
137.91,-4.0
137.97,14.0
138.03,31.0
138.1,10.0
138.16,0.0
138.22,11.0
138.29,-7.0
138.35,-10.0
138.41,-19.0
138.47,-11.0
138.54,-11.0
138.6,-2.0
138.66,27.0
138.73,36.0
138.79,25.0
138.85,31.0
138.92,18.0
138.98,20.0
139.04,15.0
139.1,28.0
139.17,51.0
139.23,25.0
139.29,25.0
139.36,37.0
139.42,37.0
139.48,35.0
139.55,36.0
139.61,22.0
139.67,34.0
139.73,54.0
139.8,24.0
139.86,44.0
139.92,30.0
139.99,32.0
140.05,36.0
140.11,57.0
140.18,63.0
140.24,64.0
140.3,73.0
140.36,58.0
140.43,52.0
140.49,49.0
140.55,90.0
140.62,88.0
140.68,72.0
140.74,80.0
140.81,77.0
140.87,60.0
140.93,60.0
140.99,55.0
141.06,57.0
141.12,60.0
141.18,60.0
141.25,82.0
141.31,73.0
141.37,58.0
141.44,82.0
141.5,72.0
141.56,88.0
141.62,94.0
141.69,104.0
141.75,95.0
141.81,88.0
141.88,98.0
141.94,92.0
142.0,87.0
142.07,93.0
142.13,85.0
142.19,69.0
142.25,91.0
142.32,74.0
142.38,69.0
142.44,93.0
142.51,88.0
142.57,81.0
142.63,74.0
142.7,100.0
142.76,87.0
142.82,108.0
142.88,105.0
142.95,113.0
143.01,118.0
143.07,132.0
143.14,121.0
143.2,87.0
143.26,107.0
143.33,100.0
143.39,108.0
143.45,109.0
143.51,104.0
143.58,91.0
143.64,88.0
143.7,98.0
143.77,107.0
143.83,99.0
143.89,80.0
143.96,90.0
144.02,93.0
144.08,82.0
144.14,61.0
144.21,57.0
144.27,58.0
144.33,46.0
144.4,77.0
144.46,64.0
144.52,76.0
144.59,73.0
144.65,58.0
144.71,91.0
144.77,84.0
144.84,81.0
144.9,77.0
144.96,85.0
145.03,93.0
145.09,73.0
145.15,97.0
145.22,74.0
145.28,56.0
145.34,84.0
145.4,87.0
145.47,96.0
145.53,90.0
145.59,70.0
145.66,69.0
145.72,102.0
145.78,102.0
145.85,106.0
145.91,91.0
145.97,75.0
146.03,91.0
146.1,90.0
146.16,85.0
146.22,110.0
146.29,92.0
146.35,101.0
146.41,95.0
146.47,79.0
146.54,72.0
146.6,66.0
146.66,50.0
146.73,56.0
146.79,60.0
146.85,43.0
146.92,45.0
146.98,47.0
147.04,45.0
147.1,32.0
147.17,29.0
147.23,3.0
147.29,-3.0
147.36,16.0
147.42,-9.0
147.48,-20.0
147.55,-21.0
147.61,-21.0
147.67,-5.0
147.73,-15.0
147.8,-12.0
147.86,-20.0
147.92,-25.0
147.99,-19.0
148.05,-23.0
148.11,-13.0
148.18,-32.0
148.24,-30.0
148.3,5.0
148.36,-22.0
148.43,-21.0
148.49,-14.0
148.55,-21.0
148.62,-15.0
148.68,-14.0
148.74,-4.0
148.81,6.0
148.87,-9.0
148.93,-28.0
148.99,-16.0
149.06,-9.0
149.12,0.0
149.18,-11.0
149.25,-5.0
149.31,14.0
149.37,24.0
149.44,32.0
149.5,21.0
149.56,0.0
149.62,2.0
149.69,14.0
149.75,-1.0
149.81,24.0
149.88,23.0
149.94,13.0
150.0,20.0
150.07,34.0
150.13,38.0
150.19,35.0
150.25,23.0
150.32,11.0
150.38,11.0
150.44,16.0
150.51,43.0
150.57,50.0
150.63,29.0
150.7,27.0
150.76,19.0
150.82,40.0
150.88,40.0
150.95,42.0
151.01,37.0
151.07,40.0
151.14,9.0
151.2,12.0
151.26,12.0
151.33,9.0
151.39,8.0
151.45,6.0
151.51,-8.0
151.58,5.0
151.64,9.0
151.7,8.0
151.77,20.0
151.83,13.0
151.89,17.0
151.96,27.0
152.02,30.0
152.08,42.0
152.14,44.0
152.21,46.0
152.27,24.0
152.33,23.0
152.4,40.0
152.46,61.0
152.52,48.0
152.59,38.0
152.65,49.0
152.71,67.0
152.77,73.0
152.84,68.0
152.9,77.0
152.96,84.0
153.03,65.0
153.09,78.0
153.15,81.0
153.22,63.0
153.28,74.0
153.34,63.0
153.4,66.0
153.47,72.0
153.53,59.0
153.59,56.0
153.66,60.0
153.72,68.0
153.78,51.0
153.85,47.0
153.91,42.0
153.97,59.0
154.03,56.0
154.1,54.0
154.16,40.0
154.22,45.0
154.29,45.0
154.35,48.0
154.41,35.0
154.48,25.0
154.54,29.0
154.6,18.0
154.66,32.0
154.73,33.0
154.79,34.0
154.85,20.0
154.92,59.0
154.98,49.0
155.04,51.0
155.11,35.0
155.17,41.0
155.23,37.0
155.29,54.0
155.36,65.0
155.42,32.0
155.48,26.0
155.55,20.0
155.61,34.0
155.67,40.0
155.74,37.0
155.8,8.0
155.86,34.0
155.92,4.0
155.99,-3.0
156.05,11.0
156.11,24.0
156.18,15.0
156.24,21.0
156.3,15.0
156.37,29.0
156.43,41.0
156.49,30.0
156.55,54.0
156.62,32.0
156.68,43.0
156.74,39.0
156.81,52.0
156.87,47.0
156.93,25.0
157.0,51.0
157.06,63.0
157.12,58.0
157.18,37.0
157.25,58.0
157.31,67.0
157.37,57.0
157.44,64.0
157.5,47.0
157.56,46.0
157.63,45.0
157.69,51.0
157.75,46.0
157.81,24.0
157.88,36.0
157.94,10.0
158.0,38.0
158.07,45.0
158.13,48.0
158.19,51.0
158.26,54.0
158.32,47.0
158.38,52.0
158.44,64.0
158.51,63.0
158.57,51.0
158.63,65.0
158.7,65.0
158.76,76.0
158.82,70.0
158.89,62.0
158.95,81.0
159.01,92.0
159.07,86.0
159.14,85.0
159.2,68.0
159.26,102.0
159.33,73.0
159.39,60.0
159.45,72.0
159.52,97.0
159.58,99.0
159.64,100.0
159.7,90.0
159.77,112.0
159.83,100.0
159.89,79.0
159.96,77.0
160.02,81.0
160.08,92.0
160.15,70.0
160.21,89.0
160.27,82.0
160.33,66.0
160.4,58.0
160.46,70.0
160.52,85.0
160.59,90.0
160.65,93.0
160.71,96.0
160.78,83.0
160.84,63.0
160.9,81.0
160.96,89.0
161.03,91.0
161.09,78.0
161.15,70.0
161.22,66.0
161.28,66.0
161.34,81.0
161.41,93.0
161.47,75.0
161.53,64.0
161.59,53.0
161.66,70.0
161.72,65.0
161.78,70.0
161.85,68.0
161.91,68.0
161.97,64.0
162.04,57.0
162.1,53.0
162.16,41.0
162.22,55.0
162.29,54.0
162.35,54.0
162.41,52.0
162.48,55.0
162.54,51.0
162.6,43.0
162.67,56.0
162.73,58.0
162.79,44.0
162.85,40.0
162.92,25.0
162.98,49.0
163.04,35.0
163.11,24.0
163.17,48.0
163.23,35.0
163.3,33.0
163.36,19.0
163.42,23.0
163.48,33.0
163.55,33.0
163.61,33.0
163.67,7.0
163.74,15.0
163.8,10.0
163.86,12.0
163.93,19.0
163.99,15.0
164.05,18.0
164.11,-4.0
164.18,-12.0
164.24,-16.0
164.3,-28.0
164.37,-2.0
164.43,-11.0
164.49,2.0
164.56,-11.0
164.62,-11.0
164.68,24.0
164.74,31.0
164.81,72.0
164.87,38.0
164.93,36.0
165.0,34.0
165.06,34.0
165.12,12.0
165.19,-9.0
165.25,-11.0
165.31,-32.0
165.37,-30.0
165.44,-21.0
165.5,-31.0
165.56,-36.0
165.63,-26.0
165.69,-30.0
165.75,-29.0
165.82,-12.0
165.88,-1.0
165.94,-6.0
166.0,-7.0
166.07,8.0
166.13,32.0
166.19,58.0
166.26,50.0
166.32,65.0
166.38,73.0
166.45,86.0
166.51,91.0
166.57,88.0
166.63,78.0
166.7,97.0
166.76,87.0
166.82,76.0
166.89,71.0
166.95,63.0
167.01,48.0
167.08,74.0
167.14,48.0
167.2,46.0
167.26,30.0
167.33,14.0
167.39,64.0
167.45,46.0
167.52,58.0
167.58,55.0
167.64,34.0
167.71,56.0
167.77,75.0
167.83,55.0
167.89,87.0
167.96,89.0
168.02,94.0
168.08,95.0
168.15,66.0
168.21,58.0
168.27,71.0
168.34,40.0
168.4,34.0
168.46,28.0
168.52,19.0
168.59,40.0
168.65,54.0
168.71,76.0
168.78,89.0
168.84,98.0
168.9,95.0
168.97,105.0
169.03,103.0
169.09,84.0
169.15,70.0
169.22,74.0
169.28,68.0
169.34,76.0
169.41,88.0
169.47,96.0
169.53,81.0
169.6,107.0
169.66,98.0
169.72,81.0
169.78,75.0
169.85,100.0
169.91,91.0
169.97,78.0
170.04,45.0
170.1,33.0
170.16,29.0
170.23,55.0
170.29,40.0
170.35,31.0
170.41,32.0
170.48,5.0
170.54,33.0
170.6,39.0
170.67,40.0
170.73,57.0
170.79,45.0
170.86,74.0
170.92,88.0
170.98,92.0
171.04,81.0
171.11,101.0
171.17,116.0
171.23,135.0
171.3,118.0
171.36,111.0
171.42,130.0
171.49,127.0
171.55,115.0
171.61,109.0
171.67,97.0
171.74,70.0
171.8,71.0
171.86,64.0
171.93,51.0
171.99,37.0
172.05,38.0
172.12,52.0
172.18,43.0
172.24,59.0
172.3,77.0
172.37,96.0
172.43,88.0
172.49,98.0
172.56,115.0
172.62,108.0
172.68,85.0
172.75,76.0
172.81,63.0
172.87,57.0
172.93,26.0
173.0,19.0
173.06,37.0
173.12,29.0
173.19,59.0
173.25,82.0
173.31,91.0
173.38,128.0
173.44,140.0
173.5,140.0
173.56,140.0
173.63,113.0
173.69,79.0
173.75,73.0
173.82,48.0
173.88,59.0
173.94,70.0
174.01,71.0
174.07,82.0
174.13,101.0
174.19,118.0
174.26,92.0
174.32,104.0
174.38,129.0
174.45,103.0
174.51,87.0
174.57,65.0
174.64,91.0
174.7,60.0
174.76,24.0
174.82,46.0
174.89,38.0
174.95,63.0
175.01,62.0
175.08,68.0
175.14,87.0
175.2,92.0
175.27,115.0
175.33,94.0
175.39,89.0
175.45,88.0
175.52,81.0
175.58,93.0
175.64,94.0
175.71,79.0
175.77,96.0
175.83,97.0
175.9,120.0
175.96,149.0
176.02,156.0
176.08,154.0
176.15,152.0
176.21,140.0
176.27,158.0
176.34,115.0
176.4,115.0
176.46,109.0
176.53,110.0
176.59,87.0
176.65,88.0
176.71,103.0
176.78,97.0
176.84,92.0
176.9,73.0
176.97,69.0
177.03,96.0
177.09,100.0
177.16,115.0
177.22,103.0
177.28,91.0
177.34,107.0
177.41,99.0
177.47,110.0
177.53,93.0
177.6,103.0
177.66,117.0
177.72,98.0
177.79,74.0
177.85,79.0
177.91,95.0
177.97,77.0
178.04,117.0
178.1,105.0
178.16,101.0
178.23,96.0
178.29,109.0
178.35,120.0
178.42,96.0
178.48,90.0
178.54,76.0
178.6,84.0
178.67,110.0
178.73,118.0
178.79,121.0
178.86,124.0
178.92,119.0
178.98,109.0
179.05,82.0
179.11,89.0
179.17,83.0
179.23,82.0
179.3,66.0
179.36,87.0
179.42,41.0
179.49,56.0
179.55,54.0
179.61,63.0
179.68,66.0
179.74,65.0
179.8,68.0
179.86,65.0
179.93,63.0
179.99,83.0
180.05,86.0
180.12,94.0
180.18,110.0
180.24,114.0
180.31,105.0
180.37,108.0
180.43,114.0
180.49,89.0
180.56,63.0
180.62,37.0
180.68,48.0
180.75,31.0
180.81,4.0
180.87,27.0
180.94,11.0
181.0,-13.0
181.06,0.0
181.12,18.0
181.19,26.0
181.25,39.0
181.31,66.0
181.38,73.0
181.44,64.0
181.5,67.0
181.57,79.0
181.63,72.0
181.69,73.0
181.75,48.0
181.82,40.0
181.88,22.0
181.94,-11.0
182.01,-9.0
182.07,-25.0
182.13,-36.0
182.2,-26.0
182.26,-25.0
182.32,-8.0
182.38,-3.0
182.45,2.0
182.51,11.0
182.57,9.0
182.64,31.0
182.7,25.0
182.76,53.0
182.83,78.0
182.89,65.0
182.95,60.0
183.01,60.0
183.08,52.0
183.14,42.0
183.2,51.0
183.27,17.0
183.33,2.0
183.39,12.0
183.46,5.0
183.52,15.0
183.58,40.0
183.64,52.0
183.71,48.0
183.77,63.0
183.83,50.0
183.9,64.0
183.96,54.0
184.02,47.0
184.09,60.0
184.15,55.0
184.21,62.0
184.27,64.0
184.34,56.0
184.4,62.0
184.46,71.0
184.53,57.0
184.59,47.0
184.65,44.0
184.72,62.0
184.78,30.0
184.84,28.0
184.9,41.0
184.97,48.0
185.03,31.0
185.09,54.0
185.16,70.0
185.22,59.0
185.28,70.0
185.35,79.0
185.41,106.0
185.47,107.0
185.53,107.0
185.6,101.0
185.66,96.0
185.72,88.0
185.79,83.0
185.85,90.0
185.91,90.0
185.98,78.0
186.04,66.0
186.1,57.0
186.16,42.0
186.23,19.0
186.29,7.0
186.35,9.0
186.42,-2.0
186.48,-6.0
186.54,17.0
186.61,18.0
186.67,22.0
186.73,38.0
186.79,27.0
186.86,58.0
186.92,66.0
186.98,104.0
187.05,101.0
187.11,105.0
187.17,121.0
187.24,103.0
187.3,94.0
187.36,85.0
187.42,71.0
187.49,55.0
187.55,59.0
187.61,39.0
187.68,37.0
187.74,32.0
187.8,26.0
187.87,15.0
187.93,27.0
187.99,44.0
188.05,70.0
188.12,39.0
188.18,28.0
188.24,32.0
188.31,30.0
188.37,57.0
188.43,18.0
188.5,38.0
188.56,35.0
188.62,34.0
188.68,28.0
188.75,14.0
188.81,2.0
188.87,-1.0
188.94,-19.0
189.0,-23.0
189.06,-30.0
189.13,-29.0
189.19,-32.0
189.25,-24.0
189.31,-5.0
189.38,-6.0
189.44,-1.0
189.5,18.0
189.57,12.0
189.63,30.0
189.69,52.0
189.76,57.0
189.82,72.0
189.88,62.0
189.94,36.0
190.01,64.0
190.07,63.0
190.13,84.0
190.2,81.0
190.26,79.0
190.32,76.0
190.39,86.0
190.45,89.0
190.51,93.0
190.57,70.0
190.64,71.0
190.7,56.0
190.76,60.0
190.83,79.0
190.89,49.0
190.95,49.0
191.02,52.0
191.08,35.0
191.14,34.0
191.2,29.0
191.27,46.0
191.33,39.0
191.39,39.0
191.46,62.0
191.52,40.0
191.58,46.0
191.65,32.0
191.71,44.0
191.77,33.0
191.83,27.0
191.9,54.0
191.96,65.0
192.02,63.0
192.09,50.0
192.15,65.0
192.21,89.0
192.28,93.0
192.34,89.0
192.4,92.0
192.46,118.0
192.53,115.0
192.59,94.0
192.65,109.0
192.72,116.0
192.78,130.0
192.84,143.0
192.91,139.0
192.97,144.0
193.03,161.0
193.09,158.0
193.16,167.0
193.22,175.0
193.28,173.0
193.35,165.0
193.41,148.0
193.47,136.0
193.54,111.0
193.6,96.0
193.66,112.0
193.72,103.0
193.79,111.0
193.85,122.0
193.91,141.0
193.98,139.0
194.04,151.0
194.1,144.0
194.17,145.0
194.23,180.0
194.29,166.0
194.35,175.0
194.42,170.0
194.48,174.0
194.54,170.0
194.61,169.0
194.67,154.0
194.73,131.0
194.8,119.0
194.86,125.0
194.92,130.0
194.98,113.0
195.05,117.0
195.11,109.0
195.17,123.0
195.24,128.0
195.3,128.0
195.36,151.0
195.43,138.0
195.49,155.0
195.55,132.0
195.61,142.0
195.68,162.0
195.74,151.0
195.8,132.0
195.87,155.0
195.93,155.0
195.99,170.0
196.06,179.0
196.12,158.0
196.18,163.0
196.24,171.0
196.31,149.0
196.37,144.0
196.43,159.0
196.5,177.0
196.56,172.0
196.62,163.0
196.69,173.0
196.75,154.0
196.81,167.0
196.87,173.0
196.94,161.0
197.0,148.0
197.06,141.0
197.13,148.0
197.19,141.0
197.25,129.0
197.32,135.0
197.38,132.0
197.44,151.0
197.5,148.0
197.57,157.0
197.63,146.0
197.69,136.0
197.76,127.0
197.82,119.0
197.88,106.0
197.95,115.0
198.01,102.0
198.07,89.0
198.13,96.0
198.2,75.0
198.26,76.0
198.32,76.0
198.39,83.0
198.45,71.0
198.51,84.0
198.58,92.0
198.64,70.0
198.7,49.0
198.76,31.0
198.83,48.0
198.89,59.0
198.95,39.0
199.02,10.0
199.08,3.0
199.14,12.0
199.21,15.0
199.27,-3.0
199.33,16.0
199.39,40.0
199.46,48.0
199.52,66.0
199.58,38.0
199.65,57.0
199.71,73.0
199.77,74.0
199.84,62.0
199.9,49.0
199.96,61.0
200.02,69.0
200.09,69.0
200.15,53.0
200.21,52.0
200.28,41.0
200.34,58.0
200.4,66.0
200.47,63.0
200.53,39.0
200.59,26.0
200.65,41.0
200.72,48.0
200.78,61.0
200.84,56.0
200.91,71.0
200.97,69.0
201.03,38.0
201.1,35.0
201.16,30.0
201.22,22.0
201.28,31.0
201.35,27.0
201.41,8.0
201.47,27.0
201.54,33.0
201.6,54.0
201.66,60.0
201.73,50.0
201.79,55.0
201.85,69.0
201.91,63.0
201.98,78.0
202.04,84.0
202.1,78.0
202.17,98.0
202.23,94.0
202.29,94.0
202.36,106.0
202.42,116.0
202.48,115.0
202.54,116.0
202.61,109.0
202.67,85.0
202.73,62.0
202.8,51.0
202.86,48.0
202.92,44.0
202.99,49.0
203.05,52.0
203.11,50.0
203.17,58.0
203.24,62.0
203.3,41.0
203.36,63.0
203.43,37.0
203.49,32.0
203.55,38.0
203.62,38.0
203.68,27.0
203.74,4.0
203.8,-5.0
203.87,-26.0
203.93,9.0
203.99,-11.0
204.06,-22.0
204.12,-12.0
204.18,-4.0
204.25,9.0
204.31,14.0
204.37,41.0
204.43,55.0
204.5,55.0
204.56,55.0
204.62,57.0
204.69,50.0
204.75,51.0
204.81,34.0
204.88,22.0
204.94,29.0
205.0,40.0
205.06,51.0
205.13,49.0
205.19,19.0
205.25,4.0
205.32,8.0
205.38,-4.0
205.44,-10.0
205.51,-10.0
205.57,-18.0
205.63,-10.0
205.69,-1.0
205.76,14.0
205.82,35.0
205.88,5.0
205.95,1.0
206.01,5.0
206.07,18.0
206.14,-13.0
206.2,-7.0
206.26,8.0
206.32,15.0
206.39,31.0
206.45,17.0
206.51,8.0
206.58,-13.0
206.64,19.0
206.7,-5.0
206.77,17.0
206.83,17.0
206.89,18.0
206.95,14.0
207.02,5.0
207.08,15.0
207.14,13.0
207.21,19.0
207.27,26.0
207.33,34.0
207.4,59.0
207.46,49.0
207.52,53.0
207.58,49.0
207.65,53.0
207.71,54.0
207.77,67.0
207.84,60.0
207.9,44.0
207.96,71.0
208.03,66.0
208.09,78.0
208.15,70.0
208.21,63.0
208.28,59.0
208.34,51.0
208.4,34.0
208.47,15.0
208.53,27.0
208.59,21.0
208.66,31.0
208.72,35.0
208.78,44.0
208.84,43.0
208.91,45.0
208.97,59.0
209.03,65.0
209.1,73.0
209.16,83.0
209.22,78.0
209.29,49.0
209.35,62.0
209.41,73.0
209.47,103.0
209.54,104.0
209.6,95.0
209.66,104.0
209.73,96.0
209.79,74.0
209.85,69.0
209.92,69.0
209.98,47.0
210.04,52.0
210.1,49.0
210.17,51.0
210.23,40.0
210.29,34.0
210.36,17.0
210.42,41.0
210.48,41.0
210.55,32.0
210.61,22.0
210.67,30.0
210.73,53.0
210.8,74.0
210.86,64.0
210.92,60.0
210.99,86.0
211.05,95.0
211.11,84.0
211.18,88.0
211.24,99.0
211.3,81.0
211.36,64.0
211.43,59.0
211.49,86.0
211.55,74.0
211.62,68.0
211.68,82.0
211.74,58.0
211.81,95.0
211.87,103.0
211.93,96.0
211.99,85.0
212.06,84.0
212.12,96.0
212.18,76.0
212.25,73.0
212.31,82.0
212.37,85.0
212.44,82.0
212.5,69.0
212.56,64.0
212.62,57.0
212.69,53.0
212.75,45.0
212.81,64.0
212.88,67.0
212.94,52.0
213.0,60.0
213.07,59.0
213.13,55.0
213.19,38.0
213.25,51.0
213.32,60.0
213.38,33.0
213.44,50.0
213.51,64.0
213.57,52.0
213.63,58.0
213.7,43.0
213.76,51.0
213.82,51.0
213.88,52.0
213.95,49.0
214.01,37.0
214.07,46.0
214.14,40.0
214.2,36.0
214.26,36.0
214.33,32.0
214.39,45.0
214.45,47.0
214.51,28.0
214.58,37.0
214.64,17.0
214.7,-16.0
214.77,5.0
214.83,25.0
214.89,15.0
214.96,-7.0
215.02,15.0
215.08,19.0
215.14,3.0
215.21,-8.0
215.27,-22.0
215.33,-33.0
215.4,-32.0
215.46,-35.0
215.52,-34.0
215.59,-24.0
215.65,-22.0
215.71,-25.0
215.77,-27.0
215.84,-29.0
215.9,-28.0
215.96,-25.0
216.03,-3.0
216.09,-3.0
216.15,16.0
216.22,0.0
216.28,-23.0
216.34,-1.0
216.4,9.0
216.47,19.0
216.53,25.0
216.59,27.0
216.66,51.0
216.72,67.0
216.78,67.0
216.85,57.0
216.91,55.0
216.97,77.0
217.03,74.0
217.1,84.0
217.16,55.0
217.22,52.0
217.29,46.0
217.35,65.0
217.41,27.0
217.48,38.0
217.54,44.0
217.6,23.0
217.66,40.0
217.73,45.0
217.79,54.0
217.85,36.0
217.92,45.0
217.98,37.0
218.04,22.0
218.11,25.0
218.17,34.0
218.23,33.0
218.29,19.0
218.36,29.0
218.42,15.0
218.48,24.0
218.55,-14.0
218.61,20.0
218.67,32.0
218.74,37.0
218.8,65.0
218.86,55.0
218.92,66.0
218.99,61.0
219.05,60.0
219.11,69.0
219.18,72.0
219.24,66.0
219.3,77.0
219.37,79.0
219.43,79.0
219.49,76.0
219.55,66.0
219.62,64.0
219.68,63.0
219.74,58.0
219.81,61.0
219.87,68.0
219.93,46.0
220.0,47.0
220.06,45.0
220.12,39.0
220.18,60.0
220.25,61.0
220.31,77.0
220.37,77.0
220.44,79.0
220.5,96.0
220.56,83.0
220.63,89.0
220.69,75.0
220.75,91.0
220.81,102.0
220.88,90.0
220.94,61.0
221.0,50.0
221.07,54.0
221.13,63.0
221.19,56.0
221.26,65.0
221.32,76.0
221.38,61.0
221.44,64.0
221.51,73.0
221.57,71.0
221.63,67.0
221.7,58.0
221.76,65.0
221.82,61.0
221.89,45.0
221.95,27.0
222.01,16.0
222.07,17.0
222.14,11.0
222.2,37.0
222.26,14.0
222.33,9.0
222.39,20.0
222.45,28.0
222.52,56.0
222.58,42.0
222.64,53.0
222.7,44.0
222.77,39.0
222.83,52.0
222.89,43.0
222.96,46.0
223.02,42.0
223.08,38.0
223.15,41.0
223.21,57.0
223.27,58.0
223.33,48.0
223.4,41.0
223.46,39.0
223.52,53.0
223.59,38.0
223.65,49.0
223.71,83.0
223.78,75.0
223.84,64.0
223.9,54.0
223.96,80.0
224.03,76.0
224.09,83.0
224.15,80.0
224.22,79.0
224.28,90.0
224.34,69.0
224.41,82.0
224.47,81.0
224.53,80.0
224.59,72.0
224.66,54.0
224.72,75.0
224.78,64.0
224.85,79.0
224.91,69.0
224.97,74.0
225.04,88.0
225.1,76.0
225.16,87.0
225.22,83.0
225.29,88.0
225.35,103.0
225.41,107.0
225.48,123.0
225.54,99.0
225.6,105.0
225.67,104.0
225.73,102.0
225.79,95.0
225.85,106.0
225.92,147.0
225.98,142.0
226.04,136.0
226.11,133.0
226.17,145.0
226.23,127.0
226.3,150.0
226.36,134.0
226.42,142.0
226.48,155.0
226.55,159.0
226.61,164.0
226.67,162.0
226.74,149.0
226.8,158.0
226.86,176.0
226.93,180.0
226.99,167.0
227.05,164.0
227.11,156.0
227.18,150.0
227.24,131.0
227.3,131.0
227.37,136.0
227.43,134.0
227.49,143.0
227.56,123.0
227.62,138.0
227.68,145.0
227.74,139.0
227.81,137.0
227.87,146.0
227.93,152.0
228.0,162.0
228.06,147.0
228.12,159.0
228.19,188.0
228.25,167.0
228.31,145.0
228.37,162.0
228.44,142.0
228.5,133.0
228.56,158.0
228.63,149.0
228.69,151.0
228.75,133.0
228.82,140.0
228.88,144.0
228.94,150.0
229.0,146.0
229.07,161.0
229.13,157.0
229.19,149.0
229.26,152.0
229.32,146.0
229.38,148.0
229.45,134.0
229.51,145.0
229.57,143.0
229.63,152.0
229.7,145.0
229.76,132.0
229.82,122.0
229.89,127.0
229.95,124.0
230.01,101.0
230.08,115.0
230.14,116.0
230.2,131.0
230.26,119.0
230.33,104.0
230.39,113.0
230.45,131.0
230.52,115.0
230.58,125.0
230.64,115.0
230.71,115.0
230.77,126.0
230.83,115.0
230.89,104.0
230.96,93.0
231.02,97.0
231.08,114.0
231.15,112.0
231.21,129.0
231.27,132.0
231.34,117.0
231.4,127.0
231.46,127.0
231.52,114.0
231.59,120.0
231.65,103.0
231.71,106.0
231.78,114.0
231.84,90.0
231.9,96.0
231.97,90.0
232.03,79.0
232.09,83.0
232.15,86.0
232.22,72.0
232.28,77.0
232.34,61.0
232.41,68.0
232.47,90.0
232.53,38.0
232.6,39.0
232.66,78.0
232.72,50.0
232.78,46.0
232.85,48.0
232.91,62.0
232.97,80.0
233.04,83.0
233.1,87.0
233.16,72.0
233.23,72.0
233.29,57.0
233.35,56.0
233.41,58.0
233.48,70.0
233.54,69.0
233.6,81.0
233.67,70.0
233.73,61.0
233.79,60.0
233.86,73.0
233.92,85.0
233.98,71.0
234.04,63.0
234.11,61.0
234.17,74.0
234.23,91.0
234.3,72.0
234.36,88.0
234.42,80.0
234.49,86.0
234.55,88.0
234.61,74.0
234.67,84.0
234.74,78.0
234.8,78.0
234.86,75.0
234.93,61.0
234.99,79.0
235.05,99.0
235.12,115.0
235.18,126.0
235.24,121.0
235.3,128.0
235.37,130.0
235.43,142.0
235.49,162.0
235.56,129.0
235.62,127.0
235.68,134.0
235.75,132.0
235.81,139.0
235.87,133.0
235.93,91.0
236.0,91.0
236.06,93.0
236.12,80.0
236.19,90.0
236.25,74.0
236.31,102.0
236.38,92.0
236.44,86.0
236.5,73.0
236.56,73.0
236.63,90.0
236.69,88.0
236.75,101.0
236.82,93.0
236.88,97.0
236.94,91.0
237.01,95.0
237.07,79.0
237.13,78.0
237.19,85.0
237.26,102.0
237.32,108.0
237.38,112.0
237.45,116.0
237.51,130.0
237.57,127.0
237.64,94.0
237.7,95.0
237.76,76.0
237.82,88.0
237.89,86.0
237.95,88.0
238.01,90.0
238.08,57.0
238.14,78.0
238.2,55.0
238.27,52.0
238.33,28.0
238.39,46.0
238.45,59.0
238.52,55.0
238.58,65.0
238.64,80.0
238.71,80.0
238.77,69.0
238.83,71.0
238.9,83.0
238.96,80.0
239.02,90.0
239.08,85.0
239.15,77.0
239.21,85.0
239.27,81.0
239.34,71.0
239.4,62.0
239.46,60.0
239.53,34.0
239.59,37.0
239.65,30.0
239.71,27.0
239.78,30.0
239.84,28.0
239.9,17.0
239.97,27.0
240.03,32.0
240.09,27.0
240.16,39.0
240.22,28.0
240.28,27.0
240.34,13.0
240.41,16.0
240.47,25.0
240.53,27.0
240.6,50.0
240.66,39.0
240.72,27.0
240.79,28.0
240.85,2.0
240.91,6.0
240.97,31.0
241.04,51.0
241.1,53.0
241.16,51.0
241.23,54.0
241.29,62.0
241.35,68.0
241.42,81.0
241.48,76.0
241.54,75.0
241.6,90.0
241.67,87.0
241.73,67.0
241.79,90.0
241.86,90.0
241.92,86.0
241.98,96.0
242.05,85.0
242.11,83.0
242.17,72.0
242.23,74.0
242.3,73.0
242.36,82.0
242.42,93.0
242.49,74.0
242.55,79.0
242.61,83.0
242.68,90.0
242.74,92.0
242.8,82.0
242.86,63.0
242.93,79.0
242.99,88.0
243.05,102.0
243.12,90.0
243.18,96.0
243.24,99.0
243.31,90.0
243.37,94.0
243.43,91.0
243.49,87.0
243.56,96.0
243.62,85.0
243.68,68.0
243.75,86.0
243.81,85.0
243.87,99.0
243.94,112.0
244.0,86.0
244.06,104.0
244.12,102.0
244.19,82.0
244.25,90.0
244.31,93.0
244.38,111.0
244.44,116.0
244.5,116.0
244.57,107.0
244.63,107.0
244.69,118.0
244.75,104.0
244.82,98.0
244.88,105.0
244.94,74.0
245.01,91.0
245.07,72.0
245.13,88.0
245.2,92.0
245.26,94.0
245.32,86.0
245.38,89.0
245.45,104.0
245.51,90.0
245.57,96.0
245.64,97.0
245.7,98.0
245.76,92.0
245.83,79.0
245.89,95.0
245.95,107.0
246.01,111.0
246.08,105.0
246.14,94.0
246.2,85.0
246.27,99.0
246.33,102.0
246.39,97.0
246.46,112.0
246.52,112.0
246.58,96.0
246.64,82.0
246.71,96.0
246.77,89.0
246.83,57.0
246.9,57.0
246.96,59.0
247.02,65.0
247.09,80.0
247.15,60.0
247.21,54.0
247.27,70.0
247.34,69.0
247.4,74.0
247.46,69.0
247.53,79.0
247.59,79.0
247.65,82.0
247.72,79.0
247.78,53.0
247.84,63.0
247.9,61.0
247.97,79.0
248.03,81.0
248.09,78.0
248.16,57.0
248.22,67.0
248.28,75.0
248.35,73.0
248.41,74.0
248.47,83.0
248.53,72.0
248.6,48.0
248.66,47.0
248.72,41.0
248.79,42.0
248.85,49.0
248.91,54.0
248.98,31.0
249.04,39.0
249.1,39.0
249.16,57.0
249.23,50.0
249.29,66.0
249.35,76.0
249.42,88.0
249.48,81.0
249.54,64.0
249.61,62.0
249.67,63.0
249.73,63.0
249.79,42.0
249.86,21.0
249.92,43.0
249.98,50.0
250.05,38.0
250.11,41.0
250.17,24.0
250.24,14.0
250.3,36.0
250.36,26.0
250.42,29.0
250.49,43.0
250.55,23.0
250.61,52.0
250.68,63.0
250.74,47.0
250.8,53.0
250.87,49.0
250.93,36.0
250.99,43.0
251.05,25.0
251.12,50.0
251.18,20.0
251.24,14.0
251.31,14.0
251.37,5.0
251.43,9.0
251.5,14.0
251.56,29.0
251.62,26.0
251.68,41.0
251.75,50.0
251.81,71.0
251.87,80.0
251.94,82.0
252.0,56.0
252.06,77.0
252.13,97.0
252.19,89.0
252.25,85.0
252.31,85.0
252.38,76.0
252.44,87.0
252.5,90.0
252.57,77.0
252.63,83.0
252.69,64.0
252.76,69.0
252.82,59.0
252.88,84.0
252.94,77.0
253.01,73.0
253.07,69.0
253.13,77.0
253.2,85.0
253.26,73.0
253.32,69.0
253.39,80.0
253.45,82.0
253.51,83.0
253.57,96.0
253.64,110.0
253.7,110.0
253.76,94.0
253.83,105.0
253.89,115.0
253.95,116.0
254.02,89.0
254.08,96.0
254.14,111.0
254.2,96.0
254.27,74.0
254.33,90.0
254.39,89.0
254.46,69.0
254.52,70.0
254.58,61.0
254.65,78.0
254.71,62.0
254.77,101.0
254.83,65.0
254.9,64.0
254.96,85.0
255.02,52.0
255.09,57.0
255.15,49.0
255.21,49.0
255.28,74.0
255.34,50.0
255.4,35.0
255.46,31.0
255.53,43.0
255.59,53.0
255.65,38.0
255.72,32.0
255.78,64.0
255.84,47.0
255.91,32.0
255.97,42.0
256.03,46.0
256.09,47.0
256.16,28.0
256.22,42.0
256.28,28.0
256.35,38.0
256.41,59.0
256.47,44.0
256.54,47.0
256.6,63.0
256.66,55.0
256.72,55.0
256.79,56.0
256.85,44.0
256.91,34.0
256.98,39.0
257.04,33.0
257.1,38.0
257.17,24.0
257.23,52.0
257.29,38.0
257.35,24.0
257.42,33.0
257.48,49.0
257.54,60.0
257.61,55.0
257.67,53.0
257.73,65.0
257.8,76.0
257.86,89.0
257.92,87.0
257.98,82.0
258.05,86.0
258.11,89.0
258.17,74.0
258.24,72.0
258.3,59.0
258.36,88.0
258.43,106.0
258.49,87.0
258.55,80.0
258.61,90.0
258.68,88.0
258.74,71.0
258.8,75.0
258.87,65.0
258.93,83.0
258.99,86.0
259.06,85.0
259.12,77.0
259.18,86.0
259.24,97.0
259.31,58.0
259.37,55.0
259.43,87.0
259.5,83.0
259.56,81.0
259.62,74.0
259.69,75.0
259.75,101.0
259.81,88.0
259.87,79.0
259.94,79.0
260.0,96.0
260.06,82.0
260.13,91.0
260.19,101.0
260.25,98.0
260.32,109.0
260.38,107.0
260.44,115.0
260.5,107.0
260.57,94.0
260.63,94.0
260.69,111.0
260.76,86.0
260.82,116.0
260.88,122.0
260.95,125.0
261.01,118.0
261.07,114.0
261.13,104.0
261.2,98.0
261.26,94.0
261.32,116.0
261.39,123.0
261.45,110.0
261.51,122.0
261.58,109.0
261.64,146.0
261.7,126.0
261.76,122.0
261.83,124.0
261.89,107.0
261.95,119.0
262.02,110.0
262.08,98.0
262.14,95.0
262.21,101.0
262.27,121.0
262.33,99.0
262.39,93.0
262.46,107.0
262.52,109.0
262.58,105.0
262.65,90.0
262.71,79.0
262.77,83.0
262.84,88.0
262.9,90.0
262.96,96.0
263.02,118.0
263.09,101.0
263.15,105.0
263.21,105.0
263.28,101.0
263.34,96.0
263.4,88.0
263.47,91.0
263.53,91.0
263.59,101.0
263.65,96.0
263.72,116.0
263.78,86.0
263.84,82.0
263.91,89.0
263.97,73.0
264.03,82.0
264.1,93.0
264.16,90.0
264.22,82.0
264.28,98.0
264.35,83.0
264.41,72.0
264.47,85.0
264.54,83.0
264.6,66.0
264.66,90.0
264.73,78.0
264.79,77.0
264.85,90.0
264.91,107.0
264.98,79.0
265.04,68.0
265.1,77.0
265.17,77.0
265.23,70.0
265.29,72.0
265.36,80.0
265.42,70.0
265.48,71.0
265.54,75.0
265.61,69.0
265.67,72.0
265.73,50.0
265.8,38.0
265.86,52.0
265.92,46.0
265.99,59.0
266.05,49.0
266.11,59.0
266.17,60.0
266.24,40.0
266.3,45.0
266.36,39.0
266.43,56.0
266.49,53.0
266.55,57.0
266.62,50.0
266.68,52.0
266.74,57.0
266.8,66.0
266.87,68.0
266.93,83.0
266.99,76.0
267.06,82.0
267.12,99.0
267.18,70.0
267.25,71.0
267.31,80.0
267.37,84.0
267.43,83.0
267.5,64.0
267.56,74.0
267.62,80.0
267.69,65.0
267.75,66.0
267.81,71.0
267.88,82.0
267.94,111.0
268.0,82.0
268.06,76.0
268.13,91.0
268.19,102.0
268.25,98.0
268.32,104.0
268.38,102.0
268.44,100.0
268.51,110.0
268.57,90.0
268.63,108.0
268.69,94.0
268.76,72.0
268.82,68.0
268.88,64.0
268.95,63.0
269.01,69.0
269.07,71.0
269.14,60.0
269.2,71.0
269.26,31.0
269.32,55.0
269.39,61.0
269.45,66.0
269.51,54.0
269.58,41.0
269.64,28.0
269.7,42.0
269.77,31.0
269.83,24.0
269.89,24.0
269.95,32.0
270.02,26.0
270.08,41.0
270.14,32.0
270.21,16.0
270.27,30.0
270.33,41.0
270.4,51.0
270.46,45.0
270.52,10.0
270.58,32.0
270.65,32.0
270.71,27.0
270.77,44.0
270.84,41.0
270.9,60.0
270.96,61.0
271.03,50.0
271.09,50.0
271.15,33.0
271.21,38.0
271.28,46.0
271.34,35.0
271.4,22.0
271.47,2.0
271.53,15.0
271.59,-5.0
271.66,-9.0
271.72,28.0
271.78,20.0
271.84,-2.0
271.91,14.0
271.97,15.0
272.03,18.0
272.1,29.0
272.16,23.0
272.22,36.0
272.29,18.0
272.35,22.0
272.41,19.0
272.47,25.0
272.54,22.0
272.6,-6.0
272.66,10.0
272.73,40.0
272.79,36.0
272.85,7.0
272.92,10.0
272.98,48.0
273.04,41.0
273.1,14.0
273.17,27.0
273.23,0.0
273.29,10.0
273.36,14.0
273.42,6.0
273.48,27.0
273.55,3.0
273.61,-2.0
273.67,12.0
273.73,13.0
273.8,5.0
273.86,19.0
273.92,17.0
273.99,35.0
274.05,14.0
274.11,35.0
274.18,54.0
274.24,43.0
274.3,13.0
274.36,40.0
274.43,54.0
274.49,41.0
274.55,77.0
274.62,57.0
274.68,72.0
274.74,73.0
274.81,70.0
274.87,94.0
274.93,108.0
274.99,107.0
275.06,91.0
275.12,53.0
275.18,60.0
275.25,90.0
275.31,65.0
275.37,87.0
275.44,103.0
275.5,114.0
275.56,120.0
275.62,54.0
275.69,59.0
275.75,73.0
275.81,69.0
275.88,153.0
275.94,139.0
276.0,128.0
276.07,152.0
276.13,111.0
276.19,102.0
276.25,67.0
276.32,81.0
276.38,114.0
276.44,160.0
276.51,171.0
276.57,141.0
276.63,122.0
276.7,83.0
276.76,124.0
276.82,107.0
276.88,115.0
276.95,133.0
277.01,167.0
277.07,130.0
277.14,124.0
277.2,138.0
277.26,124.0
277.33,90.0
277.39,80.0
277.45,76.0
277.51,98.0
277.58,145.0
277.64,171.0
277.7,208.0
277.77,185.0
277.83,207.0
277.89,196.0
277.96,203.0
278.02,165.0
278.08,163.0
278.14,183.0
278.21,181.0
278.27,182.0
278.33,219.0
278.4,169.0
278.46,190.0
278.52,185.0
278.59,161.0
278.65,164.0
278.71,149.0
278.77,114.0
278.84,132.0
278.9,117.0
278.96,72.0
279.03,65.0
279.09,58.0
279.15,112.0
279.22,152.0
279.28,197.0
279.34,182.0
279.4,204.0
279.47,171.0
279.53,119.0
279.59,165.0
279.66,125.0
279.72,153.0
279.78,156.0
279.85,171.0
279.91,163.0
279.97,138.0
280.03,168.0
280.1,140.0
280.16,182.0
280.22,186.0
280.29,198.0
280.35,161.0
280.41,140.0
280.48,142.0
280.54,85.0
280.6,109.0
280.66,115.0
280.73,144.0
280.79,163.0
280.85,163.0
280.92,178.0
280.98,145.0
281.04,36.0
281.11,6.0
281.17,-29.0
281.23,-68.0
281.29,-65.0
281.36,-61.0
281.42,-28.0
281.48,-64.0
281.55,-9.0
281.61,12.0
281.67,27.0
281.74,26.0
281.8,26.0
281.86,57.0
281.92,62.0
281.99,129.0
282.05,101.0
282.11,138.0
282.18,156.0
282.24,99.0
282.3,104.0
282.37,134.0
282.43,142.0
282.49,138.0
282.55,134.0
282.62,115.0
282.68,56.0
282.74,72.0
282.81,71.0
282.87,111.0
282.93,112.0
283.0,109.0
283.06,114.0
283.12,73.0
283.18,56.0
283.25,58.0
283.31,80.0
283.37,86.0
283.44,113.0
283.5,122.0
283.56,137.0
283.63,108.0
283.69,128.0
283.75,154.0
283.81,126.0
283.88,149.0
283.94,115.0
284.0,112.0
284.07,105.0
284.13,63.0
284.19,123.0
284.26,119.0
284.32,132.0
284.38,144.0
284.44,148.0
284.51,124.0
284.57,163.0
284.63,158.0
284.7,62.0
284.76,59.0
284.82,49.0
284.89,52.0
284.95,75.0
285.01,61.0
285.07,11.0
285.14,34.0
285.2,48.0
285.26,77.0
285.33,99.0
285.39,111.0
285.45,63.0
285.52,104.0
285.58,148.0
285.64,156.0
285.7,159.0
285.77,184.0
285.83,161.0
285.89,165.0
285.96,126.0
286.02,126.0
286.08,114.0
286.15,61.0
286.21,64.0
286.27,27.0
286.33,8.0
286.4,-8.0
286.46,-60.0
286.52,-71.0
286.59,-111.0
286.65,-117.0
286.71,-105.0
286.78,-59.0
286.84,-32.0
286.9,7.0
286.96,35.0
287.03,56.0
287.09,85.0
287.15,135.0
287.22,158.0
287.28,170.0
287.34,176.0
287.41,173.0
287.47,200.0
287.53,138.0
287.59,98.0
287.66,76.0
287.72,45.0
287.78,100.0
287.85,97.0
287.91,84.0
287.97,111.0
288.04,67.0
288.1,59.0
288.16,25.0
288.22,53.0
288.29,69.0
288.35,51.0
288.41,9.0
288.48,-24.0
288.54,-19.0
288.6,-6.0
288.67,-11.0
288.73,-46.0
288.79,-32.0
288.85,-56.0
288.92,-28.0
288.98,42.0
289.04,111.0
289.11,142.0
289.17,154.0
289.23,179.0
289.3,147.0
289.36,164.0
289.42,186.0
289.48,172.0
289.55,152.0
289.61,159.0
289.67,105.0
289.74,90.0
289.8,111.0
289.86,122.0
289.93,117.0
289.99,67.0
290.05,77.0
290.11,22.0
290.18,0.0
290.24,8.0
290.3,29.0
290.37,28.0
290.43,31.0
290.49,65.0
290.56,1.0
290.62,37.0
290.68,64.0
290.74,63.0
290.81,92.0
290.87,73.0
290.93,59.0
291.0,51.0
291.06,46.0
291.12,20.0
291.19,20.0
291.25,38.0
291.31,46.0
291.37,31.0
291.44,33.0
291.5,28.0
291.56,40.0
291.63,75.0
291.69,94.0
291.75,94.0
291.82,100.0
291.88,101.0
291.94,77.0
292.0,59.0
292.07,33.0
292.13,0.0
292.19,19.0
292.26,-7.0
292.32,-53.0
292.38,-78.0
292.45,-85.0
292.51,-53.0
292.57,2.0
292.63,41.0
292.7,52.0
292.76,83.0
292.82,110.0
292.89,86.0
292.95,118.0
293.01,179.0
293.08,189.0
293.14,236.0
293.2,262.0
293.26,261.0
293.33,235.0
293.39,251.0
293.45,231.0
293.52,207.0
293.58,214.0
293.64,176.0
293.71,178.0
293.77,212.0
293.83,191.0
293.89,201.0
293.96,148.0
294.02,78.0
294.08,55.0
294.15,13.0
294.21,25.0
294.27,51.0
294.34,35.0
294.4,53.0
294.46,35.0
294.52,17.0
294.59,8.0
294.65,-9.0
294.71,-20.0
294.78,-47.0
294.84,-26.0
294.9,-40.0
294.97,-7.0
295.03,-18.0
295.09,3.0
295.15,31.0
295.22,38.0
295.28,79.0
295.34,95.0
295.41,140.0
295.47,143.0
295.53,170.0
295.6,180.0
295.66,201.0
295.72,228.0
295.78,235.0
295.85,227.0
295.91,234.0
295.97,228.0
296.04,243.0
296.1,181.0
296.16,128.0
296.23,136.0
296.29,109.0
296.35,150.0
296.41,125.0
296.48,155.0
296.54,168.0
296.6,126.0
296.67,91.0
296.73,70.0
296.79,67.0
296.86,62.0
296.92,40.0
296.98,67.0
297.04,49.0
297.11,58.0
297.17,117.0
297.23,125.0
297.3,122.0
297.36,152.0
297.42,150.0
297.49,177.0
297.55,163.0
297.61,141.0
297.67,117.0
297.74,127.0
297.8,100.0
297.86,72.0
297.93,45.0
297.99,72.0
298.05,64.0
298.12,75.0
298.18,91.0
298.24,59.0
298.3,54.0
298.37,60.0
298.43,60.0
298.49,66.0
298.56,86.0
298.62,74.0
298.68,83.0
298.75,91.0
298.81,98.0
298.87,114.0
298.93,173.0
299.0,156.0
299.06,158.0
299.12,147.0
299.19,104.0
299.25,75.0
299.31,70.0
299.38,81.0
299.44,86.0
299.5,75.0
299.56,60.0
299.63,74.0
299.69,49.0
299.75,32.0
299.82,41.0
299.88,73.0
299.94,82.0
300.01,85.0
300.07,96.0
300.13,93.0
300.19,98.0
300.26,104.0
300.32,120.0
300.38,102.0
300.45,101.0
300.51,75.0
300.57,63.0
300.64,85.0
300.7,107.0
300.76,107.0
300.82,118.0
300.89,151.0
300.95,156.0
301.01,141.0
301.08,139.0
301.14,134.0
301.2,159.0
301.27,162.0
301.33,144.0
301.39,141.0
301.45,140.0
301.52,127.0
301.58,131.0
301.64,147.0
301.71,147.0
301.77,125.0
301.83,86.0
301.9,71.0
301.96,69.0
302.02,100.0
302.08,110.0
302.15,124.0
302.21,147.0
302.27,167.0
302.34,184.0
302.4,201.0
302.46,213.0
302.53,196.0
302.59,238.0
302.65,242.0
302.71,259.0
302.78,287.0
302.84,303.0
302.9,341.0
302.97,339.0
303.03,342.0
303.09,280.0
303.16,257.0
303.22,196.0
303.28,155.0
303.34,159.0
303.41,110.0
303.47,135.0
303.53,99.0
303.6,78.0
303.66,82.0
303.72,39.0
303.79,38.0
303.85,23.0
303.91,12.0
303.97,31.0
304.04,-13.0
304.1,-44.0
304.16,-52.0
304.23,-58.0
304.29,-57.0
304.35,-46.0
304.42,-49.0
304.48,-29.0
304.54,-13.0
304.6,11.0
304.67,36.0
304.73,39.0
304.79,32.0
304.86,37.0
304.92,55.0
304.98,45.0
305.05,37.0
305.11,30.0
305.17,45.0
305.23,60.0
305.3,64.0
305.36,103.0
305.42,151.0
305.49,123.0
305.55,152.0
305.61,161.0
305.68,141.0
305.74,116.0
305.8,98.0
305.86,93.0
305.93,95.0
305.99,70.0
306.05,73.0
306.12,75.0
306.18,54.0
306.24,46.0
306.31,57.0
306.37,36.0
306.43,25.0
306.49,-1.0
306.56,-4.0
306.62,-6.0
306.68,-26.0
306.75,-12.0
306.81,13.0
306.87,3.0
306.94,16.0
307.0,-1.0
307.06,-5.0
307.12,-2.0
307.19,-7.0
307.25,-6.0
307.31,-21.0
307.38,-51.0
307.44,-60.0
307.5,-62.0
307.57,-65.0
307.63,-61.0
307.69,-74.0
307.75,-86.0
307.82,-80.0
307.88,-66.0
307.94,-28.0
308.01,-27.0
308.07,-31.0
308.13,-38.0
308.2,-52.0
308.26,-31.0
308.32,-27.0
308.38,9.0
308.45,18.0
308.51,22.0
308.57,35.0
308.64,16.0
308.7,61.0
308.76,79.0
308.83,69.0
308.89,68.0
308.95,77.0
309.01,48.0
309.08,66.0
309.14,62.0
309.2,64.0
309.27,92.0
309.33,108.0
309.39,107.0
309.46,89.0
309.52,103.0
309.58,102.0
309.64,118.0
309.71,101.0
309.77,86.0
309.83,101.0
309.9,77.0
309.96,91.0
310.02,93.0
310.09,98.0
310.15,103.0
310.21,107.0
310.27,131.0
310.34,113.0
310.4,106.0
310.46,106.0
310.53,84.0
310.59,73.0
310.65,63.0
310.72,65.0
310.78,65.0
310.84,38.0
310.9,30.0
310.97,19.0
311.03,-20.0
311.09,-6.0
311.16,3.0
311.22,30.0
311.28,17.0
311.35,10.0
311.41,17.0
311.47,58.0
311.53,63.0
311.6,80.0
311.66,86.0
311.72,61.0
311.79,97.0
311.85,117.0
311.91,125.0
311.98,123.0
312.04,148.0
312.1,140.0
312.16,167.0
312.23,177.0
312.29,191.0
312.35,214.0
312.42,199.0
312.48,180.0
312.54,188.0
312.61,183.0
312.67,177.0
312.73,182.0
312.79,188.0
312.86,153.0
312.92,132.0
312.98,134.0
313.05,128.0
313.11,120.0
313.17,144.0
313.24,157.0
313.3,145.0
313.36,119.0
313.42,108.0
313.49,106.0
313.55,104.0
313.61,83.0
313.68,62.0
313.74,67.0
313.8,46.0
313.87,63.0
313.93,46.0
313.99,51.0
314.05,52.0
314.12,56.0
314.18,82.0
314.24,86.0
314.31,89.0
314.37,112.0
314.43,95.0
314.5,81.0
314.56,117.0
314.62,96.0
314.68,67.0
314.75,57.0
314.81,57.0
314.87,46.0
314.94,55.0
315.0,49.0
315.06,23.0
315.13,34.0
315.19,25.0
315.25,19.0
315.31,28.0
315.38,51.0
315.44,61.0
315.5,91.0
315.57,104.0
315.63,110.0
315.69,118.0
315.76,123.0
315.82,104.0
315.88,113.0
315.94,110.0
316.01,82.0
316.07,107.0
316.13,111.0
316.2,108.0
316.26,124.0
316.32,93.0
316.39,89.0
316.45,92.0
316.51,61.0
316.57,55.0
316.64,46.0
316.7,19.0
316.76,11.0
316.83,9.0
316.89,2.0
316.95,14.0
317.02,37.0
317.08,63.0
317.14,85.0
317.2,75.0
317.27,72.0
317.33,80.0
317.39,83.0
317.46,107.0
317.52,128.0
317.58,130.0
317.65,185.0
317.71,191.0
317.77,183.0
317.83,218.0
317.9,218.0
317.96,233.0
318.02,166.0
318.09,165.0
318.15,158.0
318.21,130.0
318.28,115.0
318.34,104.0
318.4,49.0
318.46,31.0
318.53,-2.0
318.59,-16.0
318.65,-29.0
318.72,-41.0
318.78,-51.0
318.84,-45.0
318.91,-5.0
318.97,-25.0
319.03,-52.0
319.09,-27.0
319.16,1.0
319.22,11.0
319.28,63.0
319.35,109.0
319.41,131.0
319.47,136.0
319.54,158.0
319.6,173.0
319.66,174.0
319.72,178.0
319.79,170.0
319.85,191.0
319.91,183.0
319.98,202.0
320.04,163.0
320.1,172.0
320.17,176.0
320.23,176.0
320.29,164.0
320.35,108.0
320.42,95.0
320.48,65.0
320.54,49.0
320.61,29.0
320.67,68.0
320.73,79.0
320.8,75.0
320.86,77.0
320.92,43.0
320.98,45.0
321.05,50.0
321.11,46.0
321.17,37.0
321.24,42.0
321.3,19.0
321.36,7.0
321.43,-5.0
321.49,-30.0
321.55,14.0
321.61,19.0
321.68,11.0
321.74,-4.0
321.8,8.0
321.87,13.0
321.93,6.0
321.99,7.0
322.06,11.0
322.12,15.0
322.18,-6.0
322.24,-21.0
322.31,-34.0
322.37,-9.0
322.43,-13.0
322.5,-31.0
322.56,-8.0
322.62,2.0
322.69,2.0
322.75,16.0
322.81,11.0
322.87,-34.0
322.94,-9.0
323.0,-18.0
323.06,-8.0
323.13,24.0
323.19,26.0
323.25,33.0
323.32,33.0
323.38,6.0
323.44,-9.0
323.5,17.0
323.57,-7.0
323.63,10.0
323.69,17.0
323.76,6.0
323.82,19.0
323.88,29.0
323.95,12.0
324.01,32.0
324.07,43.0
324.13,53.0
324.2,85.0
324.26,74.0
324.32,59.0
324.39,48.0
324.45,46.0
324.51,56.0
324.58,63.0
324.64,49.0
324.7,37.0
324.76,35.0
324.83,17.0
324.89,14.0
324.95,9.0
325.02,34.0
325.08,25.0
325.14,24.0
325.21,34.0
325.27,3.0
325.33,10.0
325.39,9.0
325.46,-12.0
325.52,-12.0
325.58,3.0
325.65,12.0
325.71,10.0
325.77,-10.0
325.84,-15.0
325.9,-46.0
325.96,-42.0
326.02,-7.0
326.09,-3.0
326.15,-14.0
326.21,-3.0
326.28,11.0
326.34,43.0
326.4,80.0
326.47,61.0
326.53,72.0
326.59,104.0
326.65,117.0
326.72,117.0
326.78,135.0
326.84,133.0
326.91,164.0
326.97,157.0
327.03,147.0
327.1,161.0
327.16,151.0
327.22,163.0
327.28,185.0
327.35,150.0
327.41,146.0
327.47,176.0
327.54,154.0
327.6,186.0
327.66,158.0
327.73,158.0
327.79,183.0
327.85,161.0
327.91,170.0
327.98,201.0
328.04,199.0
328.1,213.0
328.17,223.0
328.23,165.0
328.29,176.0
328.36,152.0
328.42,146.0
328.48,126.0
328.54,82.0
328.61,96.0
328.67,89.0
328.73,109.0
328.8,109.0
328.86,102.0
328.92,114.0
328.99,110.0
329.05,114.0
329.11,135.0
329.17,134.0
329.24,147.0
329.3,164.0
329.36,167.0
329.43,186.0
329.49,218.0
329.55,218.0
329.62,261.0
329.68,245.0
329.74,251.0
329.8,252.0
329.87,227.0
329.93,277.0
329.99,233.0
330.06,210.0
330.12,183.0
330.18,175.0
330.25,171.0
330.31,186.0
330.37,176.0
330.43,172.0
330.5,187.0
330.56,187.0
330.62,176.0
330.69,196.0
330.75,195.0
330.81,210.0
330.88,213.0
330.94,200.0
331.0,208.0
331.06,179.0
331.13,212.0
331.19,197.0
331.25,179.0
331.32,182.0
331.38,191.0
331.44,176.0
331.51,152.0
331.57,183.0
331.63,167.0
331.69,216.0
331.76,204.0
331.82,198.0
331.88,188.0
331.95,198.0
332.01,220.0
332.07,244.0
332.14,228.0
332.2,224.0
332.26,208.0
332.32,183.0
332.39,190.0
332.45,168.0
332.51,161.0
332.58,168.0
332.64,158.0
332.7,168.0
332.77,193.0
332.83,180.0
332.89,170.0
332.95,182.0
333.02,210.0
333.08,179.0
333.14,175.0
333.21,146.0
333.27,127.0
333.33,125.0
333.4,102.0
333.46,127.0
333.52,106.0
333.58,104.0
333.65,84.0
333.71,87.0
333.77,76.0
333.84,48.0
333.9,51.0
333.96,61.0
334.03,58.0
334.09,69.0
334.15,77.0
334.21,95.0
334.28,148.0
334.34,158.0
334.4,179.0
334.47,174.0
334.53,177.0
334.59,163.0
334.66,177.0
334.72,163.0
334.78,164.0
334.84,166.0
334.91,159.0
334.97,158.0
335.03,133.0
335.1,176.0
335.16,149.0
335.22,149.0
335.29,128.0
335.35,94.0
335.41,94.0
335.47,87.0
335.54,92.0
335.6,103.0
335.66,99.0
335.73,88.0
335.79,106.0
335.85,94.0
335.92,113.0
335.98,99.0
336.04,82.0
336.1,97.0
336.17,129.0
336.23,121.0
336.29,154.0
336.36,135.0
336.42,125.0
336.48,130.0
336.55,107.0
336.61,131.0
336.67,115.0
336.73,109.0
336.8,102.0
336.86,77.0
336.92,66.0
336.99,73.0
337.05,42.0
337.11,70.0
337.18,81.0
337.24,79.0
337.3,90.0
337.36,54.0
337.43,80.0
337.49,80.0
337.55,86.0
337.62,108.0
337.68,118.0
337.74,106.0
337.81,109.0
337.87,147.0
337.93,150.0
337.99,146.0
338.06,120.0
338.12,134.0
338.18,130.0
338.25,129.0
338.31,121.0
338.37,100.0
338.44,95.0
338.5,80.0
338.56,53.0
338.62,39.0
338.69,31.0
338.75,38.0
338.81,8.0
338.88,2.0
338.94,13.0
339.0,10.0
339.07,2.0
339.13,-7.0
339.19,23.0
339.25,10.0
339.32,6.0
339.38,6.0
339.44,20.0
339.51,-1.0
339.57,-15.0
339.63,17.0
339.7,35.0
339.76,31.0
339.82,30.0
339.88,45.0
339.95,41.0
340.01,45.0
340.07,17.0
340.14,-1.0
340.2,-7.0
340.26,0.0
340.33,-11.0
340.39,-15.0
340.45,-12.0
340.51,-10.0
340.58,1.0
340.64,5.0
340.7,12.0
340.77,15.0
340.83,34.0
340.89,42.0
340.96,48.0
341.02,57.0
341.08,98.0
341.14,79.0
341.21,91.0
341.27,110.0
341.33,122.0
341.4,107.0
341.46,111.0
341.52,99.0
341.59,89.0
341.65,108.0
341.71,85.0
341.77,83.0
341.84,66.0
341.9,62.0
341.96,52.0
342.03,63.0
342.09,66.0
342.15,63.0
342.22,42.0
342.28,58.0
342.34,63.0
342.4,80.0
342.47,88.0
342.53,88.0
342.59,101.0
342.66,105.0
342.72,119.0
342.78,133.0
342.85,154.0
342.91,157.0
342.97,136.0
343.03,130.0
343.1,126.0
343.16,133.0
343.22,140.0
343.29,140.0
343.35,143.0
343.41,144.0
343.48,101.0
343.54,108.0
343.6,105.0
343.66,106.0
343.73,109.0
343.79,81.0
343.85,75.0
343.92,107.0
343.98,80.0
344.04,69.0
344.11,77.0
344.17,95.0
344.23,66.0
344.29,69.0
344.36,67.0
344.42,73.0
344.48,96.0
344.55,45.0
344.61,71.0
344.67,71.0
344.74,58.0
344.8,99.0
344.86,92.0
344.92,96.0
344.99,138.0
345.05,112.0
345.11,146.0
345.18,147.0
345.24,142.0
345.3,148.0
345.37,144.0
345.43,127.0
345.49,123.0
345.55,107.0
345.62,102.0
345.68,127.0
345.74,115.0
345.81,136.0
345.87,121.0
345.93,149.0
346.0,122.0
346.06,119.0
346.12,151.0
346.18,115.0
346.25,142.0
346.31,111.0
346.37,146.0
346.44,133.0
346.5,133.0
346.56,175.0
346.63,140.0
346.69,148.0
346.75,136.0
346.81,112.0
346.88,99.0
346.94,92.0
347.0,108.0
347.07,115.0
347.13,99.0
347.19,105.0
347.26,115.0
347.32,119.0
347.38,129.0
347.44,143.0
347.51,137.0
347.57,133.0
347.63,128.0
347.7,120.0
347.76,117.0
347.82,124.0
347.89,128.0
347.95,140.0
348.01,152.0
348.07,135.0
348.14,146.0
348.2,162.0
348.26,162.0
348.33,134.0
348.39,145.0
348.45,103.0
348.52,120.0
348.58,101.0
348.64,115.0
348.7,104.0
348.77,115.0
348.83,91.0
348.89,96.0
348.96,107.0
349.02,72.0
349.08,56.0
349.15,34.0
349.21,38.0
349.27,19.0
349.33,9.0
349.4,25.0
349.46,5.0
349.52,44.0
349.59,6.0
349.65,13.0
349.71,25.0
349.78,40.0
349.84,49.0
349.9,48.0
349.96,71.0
350.03,90.0
350.09,89.0
350.15,87.0
350.22,83.0
350.28,89.0
350.34,77.0
350.41,89.0
350.47,87.0
350.53,111.0
350.59,92.0
350.66,78.0
350.72,88.0
350.78,47.0
350.85,58.0
350.91,72.0
350.97,56.0
351.04,60.0
351.1,88.0
351.16,75.0
351.22,125.0
351.29,127.0
351.35,122.0
351.41,127.0
351.48,147.0
351.54,153.0
351.6,154.0
351.67,143.0
351.73,161.0
351.79,134.0
351.85,115.0
351.92,133.0
351.98,93.0
352.04,94.0
352.11,108.0
352.17,118.0
352.23,133.0
352.3,112.0
352.36,136.0
352.42,118.0
352.48,107.0
352.55,108.0
352.61,106.0
352.67,116.0
352.74,123.0
352.8,125.0
352.86,101.0
352.93,102.0
352.99,117.0
353.05,55.0
353.11,104.0
353.18,72.0
353.24,75.0
353.3,65.0
353.37,60.0
353.43,81.0
353.49,55.0
353.56,69.0
353.62,81.0
353.68,93.0
353.74,85.0
353.81,111.0
353.87,119.0
353.93,99.0
354.0,93.0
354.06,97.0
354.12,111.0
354.19,97.0
354.25,97.0
354.31,90.0
354.37,106.0
354.44,114.0
354.5,100.0
354.56,112.0
354.63,125.0
354.69,122.0
354.75,127.0
354.82,119.0
354.88,125.0
354.94,132.0
355.0,132.0
355.07,171.0
355.13,155.0
355.19,133.0
355.26,145.0
355.32,150.0
355.38,147.0
355.45,144.0
355.51,108.0
355.57,116.0
355.63,122.0
355.7,70.0
355.76,72.0
355.82,88.0
355.89,87.0
355.95,86.0
356.01,94.0
356.08,83.0
356.14,103.0
356.2,102.0
356.26,111.0
356.33,130.0
356.39,83.0
356.45,122.0
356.52,104.0
356.58,115.0
356.64,144.0
356.71,112.0
356.77,138.0
356.83,132.0
356.89,142.0
356.96,141.0
357.02,135.0
357.08,124.0
357.15,136.0
357.21,155.0
357.27,135.0
357.34,141.0
357.4,132.0
357.46,154.0
357.52,156.0
357.59,135.0
357.65,144.0
357.71,140.0
357.78,148.0
357.84,144.0
357.9,130.0
357.97,107.0
358.03,132.0
358.09,112.0
358.15,65.0
358.22,92.0
358.28,130.0
358.34,141.0
358.41,126.0
358.47,161.0
358.53,117.0
358.6,109.0
358.66,104.0
358.72,116.0
358.78,140.0
358.85,109.0
358.91,99.0
358.97,110.0
359.04,117.0
359.1,105.0
359.16,89.0
359.23,89.0
359.29,96.0
359.35,89.0
359.41,58.0
359.48,71.0
359.54,82.0
359.6,72.0
359.67,72.0
359.73,66.0
359.79,70.0
359.86,53.0
359.92,80.0
359.98,63.0
360.04,55.0
360.11,66.0
360.17,91.0
360.23,85.0
360.3,105.0
360.36,129.0
360.42,114.0
360.49,129.0
360.55,142.0
360.61,141.0
360.67,148.0
360.74,148.0
360.8,118.0
360.86,149.0
360.93,146.0
360.99,134.0
361.05,166.0
361.12,186.0
361.18,188.0
361.24,172.0
361.3,165.0
361.37,145.0
361.43,174.0
361.49,159.0
361.56,156.0
361.62,152.0
361.68,133.0
361.75,106.0
361.81,104.0
361.87,129.0
361.93,108.0
362.0,98.0
362.06,95.0
362.12,104.0
362.19,124.0
362.25,105.0
362.31,113.0
362.38,121.0
362.44,130.0
362.5,128.0
362.56,130.0
362.63,140.0
362.69,102.0
362.75,103.0
362.82,128.0
362.88,125.0
362.94,140.0
363.01,138.0
363.07,172.0
363.13,155.0
363.19,151.0
363.26,144.0
363.32,155.0
363.38,133.0
363.45,115.0
363.51,125.0
363.57,134.0
363.64,139.0
363.7,159.0
363.76,125.0
363.82,126.0
363.89,129.0
363.95,148.0
364.01,137.0
364.08,122.0
364.14,138.0
364.2,125.0
364.27,126.0
364.33,118.0
364.39,102.0
364.45,107.0
364.52,122.0
364.58,121.0
364.64,109.0
364.71,135.0
364.77,89.0
364.83,87.0
364.9,95.0
364.96,77.0
365.02,85.0
365.08,64.0
365.15,91.0
365.21,132.0
365.27,122.0
365.34,143.0
365.4,132.0
365.46,106.0
365.53,122.0
365.59,115.0
365.65,129.0
365.71,107.0
365.78,103.0
365.84,97.0
365.9,78.0
365.97,105.0
366.03,104.0
366.09,96.0
366.16,71.0
366.22,89.0
366.28,95.0
366.34,64.0
366.41,74.0
366.47,104.0
366.53,96.0
366.6,83.0
366.66,103.0
366.72,85.0
366.79,104.0
366.85,81.0
366.91,78.0
366.97,83.0
367.04,67.0
367.1,73.0
367.16,71.0
367.23,43.0
367.29,60.0
367.35,39.0
367.42,56.0
367.48,80.0
367.54,65.0
367.6,88.0
367.67,91.0
367.73,116.0
367.79,119.0
367.86,97.0
367.92,146.0
367.98,106.0
368.05,141.0
368.11,129.0
368.17,115.0
368.23,140.0
368.3,132.0
368.36,119.0
368.42,177.0
368.49,150.0
368.55,147.0
368.61,155.0
368.68,126.0
368.74,166.0
368.8,125.0
368.86,111.0
368.93,108.0
368.99,99.0
369.05,100.0
369.12,86.0
369.18,99.0
369.24,108.0
369.31,93.0
369.37,107.0
369.43,94.0
369.49,89.0
369.56,114.0
369.62,90.0
369.68,94.0
369.75,60.0
369.81,67.0
369.87,63.0
369.94,26.0
370.0,63.0
370.06,56.0
370.12,49.0
370.19,78.0
370.25,74.0
370.31,97.0
370.38,78.0
370.44,77.0
370.5,90.0
370.57,70.0
370.63,105.0
370.69,113.0
370.75,92.0
370.82,108.0
370.88,99.0
370.94,92.0
371.01,88.0
371.07,85.0
371.13,107.0
371.2,81.0
371.26,77.0
371.32,50.0
371.38,60.0
371.45,81.0
371.51,59.0
371.57,50.0
371.64,53.0
371.7,40.0
371.76,39.0
371.83,38.0
371.89,44.0
371.95,37.0
372.01,31.0
372.08,21.0
372.14,29.0
372.2,17.0
372.27,28.0
372.33,13.0
372.39,15.0
372.46,17.0
372.52,-1.0
372.58,-4.0
372.64,11.0
372.71,17.0
372.77,7.0
372.83,7.0
372.9,-17.0
372.96,-8.0
373.02,16.0
373.09,22.0
373.15,44.0
373.21,42.0
373.27,56.0
373.34,34.0
373.4,39.0
373.46,35.0
373.53,32.0
373.59,43.0
373.65,49.0
373.72,64.0
373.78,59.0
373.84,82.0
373.9,60.0
373.97,92.0
374.03,76.0
374.09,51.0
374.16,89.0
374.22,51.0
374.28,62.0
374.35,65.0
374.41,44.0
374.47,53.0
374.53,62.0
374.6,46.0
374.66,67.0
374.72,50.0
374.79,39.0
374.85,62.0
374.91,48.0
374.98,57.0
375.04,47.0
375.1,39.0
375.16,20.0
375.23,33.0
375.29,24.0
375.35,4.0
375.42,9.0
375.48,14.0
375.54,-4.0
375.61,13.0
375.67,-6.0
375.73,23.0
375.79,15.0
375.86,21.0
375.92,41.0
375.98,26.0
376.05,28.0
376.11,12.0
376.17,46.0
376.24,47.0
376.3,41.0
376.36,56.0
376.42,54.0
376.49,48.0
376.55,55.0
376.61,68.0
376.68,65.0
376.74,92.0
376.8,79.0
376.87,85.0
376.93,88.0
376.99,93.0
377.05,102.0
377.12,100.0
377.18,128.0
377.24,93.0
377.31,143.0
377.37,89.0
377.43,115.0
377.5,116.0
377.56,114.0
377.62,135.0
377.68,127.0
377.75,119.0
377.81,133.0
377.87,130.0
377.94,112.0
378.0,117.0
378.06,140.0
378.13,102.0
378.19,127.0
378.25,102.0
378.31,134.0
378.38,117.0
378.44,114.0
378.5,132.0
378.57,95.0
378.63,103.0
378.69,110.0
378.76,116.0
378.82,118.0
378.88,142.0
378.94,150.0
379.01,92.0
379.07,135.0
379.13,112.0
379.2,122.0
379.26,133.0
379.32,110.0
379.39,164.0
379.45,129.0
379.51,137.0
379.57,134.0
379.64,164.0
379.7,160.0
379.76,156.0
379.83,158.0
379.89,147.0
379.95,147.0
380.02,141.0
380.08,154.0
380.14,152.0
380.2,158.0
380.27,159.0
380.33,157.0
380.39,176.0
380.46,177.0
380.52,186.0
380.58,182.0
380.65,178.0
380.71,188.0
380.77,191.0
380.83,197.0
380.9,169.0
380.96,149.0
381.02,178.0
381.09,164.0
381.15,169.0
381.21,183.0
381.28,184.0
381.34,163.0
381.4,185.0
381.46,176.0
381.53,184.0
381.59,167.0
381.65,152.0
381.72,163.0
381.78,159.0
381.84,145.0
381.91,170.0
381.97,154.0
382.03,156.0
382.09,188.0
382.16,186.0
382.22,180.0
382.28,161.0
382.35,164.0
382.41,168.0
382.47,169.0
382.54,158.0
382.6,175.0
382.66,141.0
382.72,191.0
382.79,155.0
382.85,120.0
382.91,176.0
382.98,172.0
383.04,185.0
383.1,184.0
383.17,137.0
383.23,183.0
383.29,156.0
383.35,158.0
383.42,180.0
383.48,150.0
383.54,173.0
383.61,144.0
383.67,150.0
383.73,175.0
383.8,125.0
383.86,165.0
383.92,151.0
383.98,172.0
384.05,159.0
384.11,161.0
384.17,175.0
384.24,165.0
384.3,170.0
384.36,125.0
384.43,151.0
384.49,130.0
384.55,146.0
384.61,143.0
384.68,120.0
384.74,146.0
384.8,155.0
384.87,132.0
384.93,151.0
384.99,166.0
385.06,169.0
385.12,173.0
385.18,193.0
385.24,167.0
385.31,162.0
385.37,128.0
385.43,155.0
385.5,153.0
385.56,163.0
385.62,170.0
385.69,157.0
385.75,162.0
385.81,158.0
385.87,151.0
385.94,157.0
386.0,151.0
386.06,138.0
386.13,131.0
386.19,154.0
386.25,136.0
386.32,140.0
386.38,172.0
386.44,159.0
386.5,173.0
386.57,164.0
386.63,145.0
386.69,169.0
386.76,160.0
386.82,174.0
386.88,160.0
386.95,155.0
387.01,164.0
387.07,140.0
387.13,173.0
387.2,152.0
387.26,176.0
387.32,161.0
387.39,180.0
387.45,169.0
387.51,177.0
387.58,174.0
387.64,133.0
387.7,165.0
387.76,154.0
387.83,159.0
387.89,153.0
387.95,153.0
388.02,146.0
388.08,111.0
388.14,120.0
388.21,101.0
388.27,127.0
388.33,123.0
388.39,133.0
388.46,111.0
388.52,125.0
388.58,107.0
388.65,119.0
388.71,118.0
388.77,95.0
388.84,118.0
388.9,100.0
388.96,120.0
389.02,110.0
389.09,121.0
389.15,137.0
389.21,102.0
389.28,120.0
389.34,117.0
389.4,124.0
389.47,134.0
389.53,113.0
389.59,135.0
389.65,112.0
389.72,96.0
389.78,76.0
389.84,99.0
389.91,96.0
389.97,77.0
390.03,106.0
390.1,88.0
390.16,81.0
390.22,75.0
390.28,76.0
390.35,96.0
390.41,72.0
390.47,61.0
390.54,49.0
390.6,62.0
390.66,59.0
390.73,78.0
390.79,71.0
390.85,64.0
390.91,56.0
390.98,68.0
391.04,68.0
391.1,82.0
391.17,81.0
391.23,89.0
391.29,59.0
391.36,96.0
391.42,109.0
391.48,115.0
391.54,114.0
391.61,112.0
391.67,137.0
391.73,110.0
391.8,91.0
391.86,98.0
391.92,112.0
391.99,88.0
392.05,96.0
392.11,79.0
392.17,110.0
392.24,98.0
392.3,121.0
392.36,110.0
392.43,107.0
392.49,122.0
392.55,116.0
392.62,92.0
392.68,68.0
392.74,113.0
392.8,103.0
392.87,114.0
392.93,83.0
392.99,98.0
393.06,114.0
393.12,90.0
393.18,114.0
393.25,126.0
393.31,108.0
393.37,100.0
393.43,117.0
393.5,107.0
393.56,155.0
393.62,134.0
393.69,117.0
393.75,115.0
393.81,81.0
393.88,115.0
393.94,103.0
394.0,104.0
394.06,156.0
394.13,131.0
394.19,115.0
394.25,119.0
394.32,122.0
394.38,101.0
394.44,123.0
394.51,137.0
394.57,137.0
394.63,124.0
394.69,125.0
394.76,146.0
394.82,136.0
394.88,114.0
394.95,125.0
395.01,122.0
395.07,125.0
395.14,91.0
395.2,137.0
395.26,113.0
395.32,126.0
395.39,136.0
395.45,132.0
395.51,136.0
395.58,143.0
395.64,127.0
395.7,138.0
395.77,141.0
395.83,151.0
395.89,142.0
395.95,110.0
396.02,117.0
396.08,126.0
396.14,153.0
396.21,161.0
396.27,126.0
396.33,142.0
396.4,143.0
396.46,144.0
396.52,134.0
396.58,123.0
396.65,121.0
396.71,112.0
396.77,118.0
396.84,117.0
396.9,110.0
396.96,128.0
397.03,131.0
397.09,98.0
397.15,127.0
397.21,118.0
397.28,132.0
397.34,96.0
397.4,101.0
397.47,124.0
397.53,100.0
397.59,103.0
397.66,101.0
397.72,130.0
397.78,150.0
397.84,148.0
397.91,134.0
397.97,124.0
398.03,115.0
398.1,163.0
398.16,153.0
398.22,147.0
398.29,134.0
398.35,140.0
398.41,161.0
398.47,144.0
398.54,131.0
398.6,137.0
398.66,131.0
398.73,152.0
398.79,127.0
398.85,116.0
398.92,100.0
398.98,114.0
399.04,117.0
399.1,118.0
399.17,105.0
399.23,96.0
399.29,103.0
399.36,116.0
399.42,70.0
399.48,94.0
399.55,80.0
399.61,90.0
399.67,69.0
399.73,116.0
399.8,84.0
399.86,111.0
399.92,102.0
399.99,98.0
400.05,124.0
400.11,116.0
400.18,115.0
400.24,136.0
400.3,116.0
400.36,128.0
400.43,137.0
400.49,133.0
400.55,129.0
400.62,114.0
400.68,128.0
400.74,129.0
400.81,114.0
400.87,129.0
400.93,136.0
400.99,104.0
401.06,65.0
401.12,88.0
401.18,86.0
401.25,120.0
401.31,109.0
401.37,95.0
401.44,100.0
401.5,86.0
401.56,105.0
401.62,109.0
401.69,119.0
401.75,111.0
401.81,115.0
401.88,128.0
401.94,94.0
402.0,134.0
402.07,89.0
402.13,115.0
402.19,126.0
402.25,119.0
402.32,148.0
402.38,118.0
402.44,149.0
402.51,136.0
402.57,117.0
402.63,130.0
402.7,130.0
402.76,119.0
402.82,112.0
402.88,125.0
402.95,128.0
403.01,131.0
403.07,96.0
403.14,103.0
403.2,106.0
403.26,106.0
403.33,107.0
403.39,90.0
403.45,77.0
403.51,104.0
403.58,90.0
403.64,113.0
403.7,81.0
403.77,76.0
403.83,79.0
403.89,81.0
403.96,93.0
404.02,77.0
404.08,87.0
404.14,81.0
404.21,88.0
404.27,85.0
404.33,91.0
404.4,74.0
404.46,94.0
404.52,79.0
404.59,55.0
404.65,85.0
404.71,64.0
404.77,76.0
404.84,70.0
404.9,75.0
404.96,76.0
405.03,50.0
405.09,55.0
405.15,80.0
405.22,70.0
405.28,88.0
405.34,94.0
405.4,98.0
405.47,74.0
405.53,52.0
405.59,49.0
405.66,50.0
405.72,74.0
405.78,78.0
405.85,68.0
405.91,90.0
405.97,61.0
406.03,75.0
406.1,61.0
406.16,52.0
406.22,29.0
406.29,36.0
406.35,76.0
406.41,59.0
406.48,49.0
406.54,75.0
406.6,70.0
406.66,89.0
406.73,104.0
406.79,121.0
406.85,53.0
406.92,79.0
406.98,96.0
407.04,86.0
407.11,82.0
407.17,63.0
407.23,75.0
407.29,67.0
407.36,70.0
407.42,59.0
407.48,63.0
407.55,63.0
407.61,81.0
407.67,85.0
407.74,56.0
407.8,36.0
407.86,48.0
407.92,58.0
407.99,52.0
408.05,53.0
408.11,70.0
408.18,44.0
408.24,86.0
408.3,51.0
408.37,59.0
408.43,76.0
408.49,79.0
408.55,104.0
408.62,119.0
408.68,99.0
408.74,133.0
408.81,81.0
408.87,111.0
408.93,86.0
409.0,96.0
409.06,109.0
409.12,84.0
409.18,113.0
409.25,145.0
409.31,98.0
409.37,125.0
409.44,107.0
409.5,100.0
409.56,101.0
409.63,104.0
409.69,90.0
409.75,123.0
409.81,104.0
409.88,136.0
409.94,92.0
410.0,96.0
410.07,134.0
410.13,130.0
410.19,139.0
410.26,141.0
410.32,148.0
410.38,110.0
410.44,122.0
410.51,130.0
410.57,122.0
410.63,123.0
410.7,109.0
410.76,143.0
410.82,103.0
410.89,121.0
410.95,93.0
411.01,104.0
411.07,92.0
411.14,120.0
411.2,95.0
411.26,85.0
411.33,123.0
411.39,118.0
411.45,138.0
411.52,103.0
411.58,125.0
411.64,126.0
411.7,132.0
411.77,141.0
411.83,134.0
411.89,108.0
411.96,140.0
412.02,131.0
412.08,149.0
412.15,119.0
412.21,157.0
412.27,160.0
412.33,60.0
412.4,131.0
412.46,74.0
412.52,110.0
412.59,111.0
412.65,81.0
412.71,99.0
412.78,92.0
412.84,115.0
412.9,127.0
412.96,98.0
413.03,119.0
413.09,144.0
413.15,147.0
413.22,142.0
413.28,136.0
413.34,209.0
413.41,176.0
413.47,147.0
413.53,185.0
413.59,172.0
413.66,134.0
413.72,170.0
413.78,159.0
413.85,173.0
413.91,195.0
413.97,158.0
414.04,174.0
414.1,165.0
414.16,172.0
414.22,182.0
414.29,189.0
414.35,180.0
414.41,184.0
414.48,179.0
414.54,129.0
414.6,175.0
414.67,148.0
414.73,135.0
414.79,119.0
414.85,155.0
414.92,148.0
414.98,121.0
415.04,114.0
415.11,137.0
415.17,131.0
415.23,118.0
415.3,129.0
415.36,110.0
415.42,105.0
415.48,72.0
415.55,118.0
415.61,123.0
415.67,89.0
415.74,84.0
415.8,92.0
415.86,77.0
415.93,87.0
415.99,85.0
416.05,104.0
416.11,112.0
416.18,70.0
416.24,139.0
416.3,74.0
416.37,147.0
416.43,110.0
416.49,99.0
416.56,121.0
416.62,44.0
416.68,75.0
416.74,85.0
416.81,77.0
416.87,98.0
416.93,75.0
417.0,100.0
417.06,80.0
417.12,71.0
417.19,72.0
417.25,74.0
417.31,66.0
417.37,81.0
417.44,100.0
417.5,121.0
417.56,99.0
417.63,78.0
417.69,100.0
417.75,96.0
417.82,115.0
417.88,106.0
417.94,95.0
418.0,96.0
418.07,88.0
418.13,88.0
418.19,87.0
418.26,79.0
418.32,112.0
418.38,112.0
418.45,93.0
418.51,93.0
418.57,81.0
418.63,65.0
418.7,68.0
418.76,89.0
418.82,83.0
418.89,110.0
418.95,99.0
419.01,101.0
419.08,92.0
419.14,87.0
419.2,104.0
419.26,129.0
419.33,143.0
419.39,107.0
419.45,115.0
419.52,136.0
419.58,124.0
419.64,143.0
419.71,98.0
419.77,112.0
419.83,82.0
419.89,68.0
419.96,69.0
420.02,60.0
420.08,67.0
420.15,85.0
420.21,92.0
420.27,84.0
420.34,114.0
420.4,92.0
420.46,72.0
420.52,102.0
420.59,60.0
420.65,70.0
420.71,57.0
420.78,55.0
420.84,62.0
420.9,43.0
420.97,85.0
421.03,65.0
421.09,58.0
421.15,52.0
421.22,33.0
421.28,48.0
421.34,74.0
421.41,45.0
421.47,54.0
421.53,77.0
421.6,66.0
421.66,74.0
421.72,80.0
421.78,61.0
421.85,45.0
421.91,33.0
421.97,51.0
422.04,33.0
422.1,62.0
422.16,41.0
422.23,40.0
422.29,55.0
422.35,73.0
422.41,37.0
422.48,23.0
422.54,34.0
422.6,17.0
422.67,23.0
422.73,2.0
422.79,42.0
422.86,57.0
422.92,43.0
422.98,42.0
423.04,48.0
423.11,65.0
423.17,46.0
423.23,54.0
423.3,63.0
423.36,63.0
423.42,33.0
423.49,17.0
423.55,16.0
423.61,54.0
423.67,78.0
423.74,70.0
423.8,48.0
423.86,98.0
423.93,68.0
423.99,31.0
424.05,67.0
424.12,61.0
424.18,81.0
424.24,104.0
424.3,58.0
424.37,97.0
424.43,82.0
424.49,64.0
424.56,46.0
424.62,65.0
424.68,63.0
424.75,56.0
424.81,52.0
424.87,43.0
424.93,39.0
425.0,54.0
425.06,41.0
425.12,2.0
425.19,-25.0
425.25,-48.0
425.31,-41.0
425.38,-24.0
425.44,-33.0
425.5,-24.0
425.56,18.0
425.63,4.0
425.69,-16.0
425.75,-27.0
425.82,-13.0
425.88,-36.0
425.94,2.0
426.01,5.0
426.07,43.0
426.13,50.0
426.19,18.0
426.26,29.0
426.32,39.0
426.38,-4.0
426.45,7.0
426.51,45.0
426.57,19.0
426.64,10.0
426.7,6.0
426.76,4.0
426.82,14.0
426.89,12.0
426.95,-1.0
427.01,-4.0
427.08,2.0
427.14,17.0
427.2,21.0
427.27,30.0
427.33,87.0
427.39,64.0
427.45,45.0
427.52,69.0
427.58,55.0
427.64,69.0
427.71,71.0
427.77,45.0
427.83,123.0
427.9,119.0
427.96,107.0
428.02,127.0
428.08,96.0
428.15,55.0
428.21,91.0
428.27,91.0
428.34,128.0
428.4,164.0
428.46,209.0
428.53,259.0
428.59,243.0
428.65,156.0
428.71,122.0
428.78,85.0
428.84,112.0
428.9,103.0
428.97,128.0
429.03,115.0
429.09,126.0
429.16,109.0
429.22,111.0
429.28,69.0
429.34,93.0
429.41,114.0
429.47,96.0
429.53,112.0
429.6,122.0
429.66,183.0
429.72,260.0
429.79,226.0
429.85,213.0
429.91,248.0
429.97,215.0
430.04,206.0
430.1,127.0
430.16,149.0
430.23,208.0
430.29,259.0
430.35,260.0
430.42,218.0
430.48,223.0
430.54,142.0
430.6,154.0
430.67,123.0
430.73,84.0
430.79,79.0
430.86,19.0
430.92,74.0
430.98,110.0
431.05,137.0
431.11,119.0
431.17,106.0
431.23,87.0
431.3,63.0
431.36,96.0
431.42,120.0
431.49,110.0
431.55,123.0
431.61,117.0
431.68,173.0
431.74,197.0
431.8,206.0
431.86,222.0
431.93,223.0
431.99,212.0
432.05,193.0
432.12,208.0
432.18,178.0
432.24,179.0
432.31,156.0
432.37,122.0
432.43,138.0
432.49,174.0
432.56,200.0
432.62,177.0
432.68,177.0
432.75,135.0
432.81,98.0
432.87,76.0
432.94,69.0
433.0,42.0
433.06,53.0
433.12,128.0
433.19,211.0
433.25,163.0
433.31,179.0
433.38,186.0
433.44,91.0
433.5,74.0
433.57,34.0
433.63,42.0
433.69,78.0
433.75,116.0
433.82,154.0
433.88,194.0
433.94,209.0
434.01,208.0
434.07,149.0
434.13,125.0
434.2,56.0
434.26,29.0
434.32,-20.0
434.38,-14.0
434.45,54.0
434.51,136.0
434.57,245.0
434.64,260.0
434.7,278.0
434.76,290.0
434.83,263.0
434.89,251.0
434.95,249.0
435.01,236.0
435.08,209.0
435.14,187.0
435.2,216.0
435.27,218.0
435.33,214.0
435.39,269.0
435.46,263.0
435.52,237.0
435.58,184.0
435.64,132.0
435.71,110.0
435.77,66.0
435.83,73.0
435.9,68.0
435.96,115.0
436.02,110.0
436.09,133.0
436.15,166.0
436.21,198.0
436.27,247.0
436.34,246.0
436.4,223.0
436.46,178.0
436.53,148.0
436.59,116.0
436.65,83.0
436.72,98.0
436.78,78.0
436.84,134.0
436.9,110.0
436.97,126.0
437.03,181.0
437.09,127.0
437.16,174.0
437.22,148.0
437.28,185.0
437.35,220.0
437.41,228.0
437.47,299.0
437.53,277.0
437.6,273.0
437.66,264.0
437.72,221.0
437.79,172.0
437.85,174.0
437.91,171.0
437.98,82.0
438.04,10.0
438.1,-8.0
438.16,17.0
438.23,61.0
438.29,91.0
438.35,111.0
438.42,75.0
438.48,49.0
438.54,68.0
438.61,75.0
438.67,169.0
438.73,219.0
438.79,258.0
438.86,274.0
438.92,278.0
438.98,271.0
439.05,249.0
439.11,305.0
439.17,310.0
439.24,294.0
439.3,256.0
439.36,177.0
439.42,157.0
439.49,115.0
439.55,25.0
439.61,3.0
439.68,-74.0
439.74,-90.0
439.8,-20.0
439.87,-5.0
439.93,-5.0
439.99,13.0
440.05,73.0
440.12,61.0
440.18,84.0
440.24,115.0
440.31,123.0
440.37,174.0
440.43,209.0
440.5,251.0
440.56,291.0
440.62,318.0
440.68,346.0
440.75,334.0
440.81,285.0
440.87,284.0
440.94,281.0
441.0,218.0
441.06,206.0
441.13,169.0
441.19,161.0
441.25,155.0
441.31,95.0
441.38,54.0
441.44,63.0
441.5,56.0
441.57,18.0
441.63,51.0
441.69,51.0
441.76,62.0
441.82,59.0
441.88,43.0
441.94,45.0
442.01,-5.0
442.07,15.0
442.13,-18.0
442.2,24.0
442.26,84.0
442.32,115.0
442.39,106.0
442.45,76.0
442.51,114.0
442.57,103.0
442.64,86.0
442.7,84.0
442.76,85.0
442.83,91.0
442.89,125.0
442.95,123.0
443.02,132.0
443.08,174.0
443.14,192.0
443.2,219.0
443.27,249.0
443.33,256.0
443.39,209.0
443.46,206.0
443.52,174.0
443.58,124.0
443.65,62.0
443.71,77.0
443.77,87.0
443.83,91.0
443.9,79.0
443.96,84.0
444.02,77.0
444.09,70.0
444.15,57.0
444.21,-9.0
444.28,0.0
444.34,13.0
444.4,24.0
444.46,-5.0
444.53,-1.0
444.59,5.0
444.65,-2.0
444.72,14.0
444.78,-4.0
444.84,9.0
444.91,61.0
444.97,113.0
445.03,101.0
445.09,100.0
445.16,125.0
445.22,161.0
445.28,172.0
445.35,166.0
445.41,166.0
445.47,131.0
445.54,110.0
445.6,89.0
445.66,125.0
445.72,150.0
445.79,86.0
445.85,41.0
445.91,25.0
445.98,0.0
446.04,-8.0
446.1,7.0
446.17,47.0
446.23,87.0
446.29,101.0
446.35,77.0
446.42,35.0
446.48,44.0
446.54,69.0
446.61,103.0
446.67,102.0
446.73,136.0
446.8,126.0
446.86,93.0
446.92,92.0
446.98,167.0
447.05,131.0
447.11,108.0
447.17,139.0
447.24,145.0
447.3,146.0
447.36,142.0
447.43,150.0
447.49,149.0
447.55,148.0
447.61,128.0
447.68,166.0
447.74,190.0
447.8,192.0
447.87,165.0
447.93,165.0
447.99,193.0
448.06,180.0
448.12,216.0
448.18,190.0
448.24,186.0
448.31,206.0
448.37,248.0
448.43,247.0
448.5,264.0
448.56,248.0
448.62,187.0
448.69,172.0
448.75,233.0
448.81,225.0
448.87,168.0
448.94,160.0
449.0,112.0
449.06,81.0
449.13,42.0
449.19,43.0
449.25,11.0
449.32,24.0
449.38,-26.0
449.44,-57.0
449.5,-88.0
449.57,-66.0
449.63,-16.0
449.69,0.0
449.76,13.0
449.82,4.0
449.88,30.0
449.95,3.0
450.01,-39.0
450.07,-2.0
450.13,39.0
450.2,83.0
450.26,86.0
450.32,77.0
450.39,116.0
450.45,169.0
450.51,147.0
450.58,164.0
450.64,182.0
450.7,154.0
450.76,119.0
450.83,63.0
450.89,70.0
450.95,94.0
451.02,114.0
451.08,143.0
451.14,160.0
451.21,189.0
451.27,219.0
451.33,212.0
451.39,216.0
451.46,190.0
451.52,141.0
451.58,124.0
451.65,123.0
451.71,151.0
451.77,181.0
451.84,219.0
451.9,214.0
451.96,210.0
452.02,180.0
452.09,188.0
452.15,162.0
452.21,134.0
452.28,151.0
452.34,170.0
452.4,148.0
452.47,123.0
452.53,130.0
452.59,167.0
452.65,219.0
452.72,225.0
452.78,233.0
452.84,190.0
452.91,102.0
452.97,36.0
453.03,13.0
453.1,20.0
453.16,68.0
453.22,69.0
453.28,39.0
453.35,57.0
453.41,65.0
453.47,93.0
453.54,134.0
453.6,153.0
453.66,164.0
453.73,198.0
453.79,180.0
453.85,207.0
453.91,222.0
453.98,203.0
454.04,167.0
454.1,162.0
454.17,147.0
454.23,130.0
454.29,143.0
454.36,123.0
454.42,90.0
454.48,67.0
454.54,69.0
454.61,88.0
454.67,85.0
454.73,127.0
454.8,181.0
454.86,197.0
454.92,236.0
454.99,209.0
455.05,225.0
455.11,224.0
455.17,222.0
455.24,217.0
455.3,237.0
455.36,258.0
455.43,233.0
455.49,234.0
455.55,270.0
455.62,251.0
455.68,204.0
455.74,190.0
455.8,172.0
455.87,130.0
455.93,109.0
455.99,93.0
456.06,132.0
456.12,154.0
456.18,189.0
456.25,180.0
456.31,162.0
456.37,110.0
456.43,77.0
456.5,85.0
456.56,81.0
456.62,101.0
456.69,115.0
456.75,148.0
456.81,119.0
456.88,92.0
456.94,95.0
457.0,98.0
457.06,96.0
457.13,110.0
457.19,117.0
457.25,88.0
457.32,70.0
457.38,25.0
457.44,61.0
457.51,39.0
457.57,54.0
457.63,55.0
457.69,43.0
457.76,36.0
457.82,39.0
457.88,83.0
457.95,116.0
458.01,122.0
458.07,157.0
458.14,156.0
458.2,181.0
458.26,147.0
458.32,134.0
458.39,160.0
458.45,171.0
458.51,156.0
458.58,169.0
458.64,135.0
458.7,75.0
458.77,76.0
458.83,53.0
458.89,22.0
458.95,21.0
459.02,25.0
459.08,44.0
459.14,22.0
459.21,-1.0
459.27,-6.0
459.33,16.0
459.4,1.0
459.46,36.0
459.52,89.0
459.58,144.0
459.65,182.0
459.71,201.0
459.77,173.0
459.84,155.0
459.9,134.0
459.96,114.0
460.03,114.0
460.09,138.0
460.15,136.0
460.21,143.0
460.28,119.0
460.34,100.0
460.4,91.0
460.47,86.0
460.53,111.0
460.59,87.0
460.66,116.0
460.72,120.0
460.78,129.0
460.84,113.0
460.91,108.0
460.97,119.0
461.03,129.0
461.1,148.0
461.16,119.0
461.22,161.0
461.29,148.0
461.35,117.0
461.41,129.0
461.47,129.0
461.54,119.0
461.6,78.0
461.66,91.0
461.73,103.0
461.79,94.0
461.85,85.0
461.92,112.0
461.98,104.0
462.04,109.0
462.1,107.0
462.17,85.0
462.23,82.0
462.29,103.0
462.36,93.0
462.42,88.0
462.48,126.0
462.55,166.0
462.61,161.0
462.67,164.0
462.73,173.0
462.8,178.0
462.86,177.0
462.92,136.0
462.99,125.0
463.05,148.0
463.11,127.0
463.18,103.0
463.24,78.0
463.3,152.0
463.36,174.0
463.43,166.0
463.49,133.0
463.55,97.0
463.62,119.0
463.68,90.0
463.74,73.0
463.81,107.0
463.87,166.0
463.93,220.0
463.99,205.0
464.06,195.0
464.12,207.0
464.18,196.0
464.25,130.0
464.31,130.0
464.37,128.0
464.44,125.0
464.5,151.0
464.56,162.0
464.62,151.0
464.69,157.0
464.75,177.0
464.81,185.0
464.88,217.0
464.94,227.0
465.0,270.0
465.07,249.0
465.13,227.0
465.19,206.0
465.25,191.0
465.32,154.0
465.38,128.0
465.44,113.0
465.51,118.0
465.57,120.0
465.63,145.0
465.7,164.0
465.76,160.0
465.82,157.0
465.88,75.0
465.95,19.0
466.01,-35.0
466.07,-59.0
466.14,-68.0
466.2,-29.0
466.26,18.0
466.33,71.0
466.39,86.0
466.45,62.0
466.51,61.0
466.58,66.0
466.64,68.0
466.7,89.0
466.77,126.0
466.83,130.0
466.89,170.0
466.96,169.0
467.02,144.0
467.08,138.0
467.14,158.0
467.21,176.0
467.27,172.0
467.33,185.0
467.4,192.0
467.46,189.0
467.52,204.0
467.59,200.0
467.65,213.0
467.71,165.0
467.77,148.0
467.84,129.0
467.9,75.0
467.96,53.0
468.03,39.0
468.09,60.0
468.15,67.0
468.22,74.0
468.28,68.0
468.34,37.0
468.4,33.0
468.47,-9.0
468.53,-15.0
468.59,-17.0
468.66,-1.0
468.72,6.0
468.78,-11.0
468.85,16.0
468.91,54.0
468.97,78.0
469.03,136.0
469.1,162.0
469.16,166.0
469.22,191.0
469.29,158.0
469.35,142.0
469.41,112.0
469.48,99.0
469.54,101.0
469.6,130.0
469.66,140.0
469.73,166.0
469.79,206.0
469.85,176.0
469.92,192.0
469.98,166.0
470.04,145.0
470.11,152.0
470.17,146.0
470.23,182.0
470.29,207.0
470.36,203.0
470.42,248.0
470.48,207.0
470.55,174.0
470.61,148.0
470.67,121.0
470.74,141.0
470.8,116.0
470.86,107.0
470.92,126.0
470.99,173.0
471.05,171.0
471.11,117.0
471.18,77.0
471.24,89.0
471.3,70.0
471.37,56.0
471.43,49.0
471.49,29.0
471.55,37.0
471.62,30.0
471.68,35.0
471.74,-6.0
471.81,11.0
471.87,38.0
471.93,42.0
472.0,38.0
472.06,51.0
472.12,100.0
472.18,99.0
472.25,82.0
472.31,78.0
472.37,88.0
472.44,89.0
472.5,100.0
472.56,92.0
472.63,105.0
472.69,107.0
472.75,90.0
472.81,70.0
472.88,56.0
472.94,59.0
473.0,88.0
473.07,50.0
473.13,38.0
473.19,25.0
473.26,33.0
473.32,33.0
473.38,22.0
473.44,60.0
473.51,85.0
473.57,91.0
473.63,100.0
473.7,118.0
473.76,132.0
473.82,108.0
473.89,99.0
473.95,89.0
474.01,97.0
474.07,73.0
474.14,58.0
474.2,59.0
474.26,58.0
474.33,39.0
474.39,39.0
474.45,60.0
474.52,64.0
474.58,36.0
474.64,34.0
474.7,37.0
474.77,59.0
474.83,96.0
474.89,134.0
474.96,154.0
475.02,173.0
475.08,104.0
475.15,75.0
475.21,8.0
475.27,-27.0
475.33,-13.0
475.4,-21.0
475.46,-25.0
475.52,-35.0
475.59,-57.0
475.65,-57.0
475.71,-54.0
475.78,-33.0
475.84,-35.0
475.9,-33.0
475.96,-41.0
476.03,-40.0
476.09,-7.0
476.15,47.0
476.22,76.0
476.28,86.0
476.34,91.0
476.41,81.0
476.47,73.0
476.53,106.0
476.59,106.0
476.66,100.0
476.72,131.0
476.78,99.0
476.85,72.0
476.91,82.0
476.97,73.0
477.04,91.0
477.1,88.0
477.16,108.0
477.22,110.0
477.29,106.0
477.35,92.0
477.41,76.0
477.48,57.0
477.54,36.0
477.6,31.0
477.67,18.0
477.73,29.0
477.79,53.0
477.85,97.0
477.92,129.0
477.98,113.0
478.04,112.0
478.11,103.0
478.17,99.0
478.23,106.0
478.3,86.0
478.36,74.0
478.42,81.0
478.48,104.0
478.55,131.0
478.61,116.0
478.67,136.0
478.74,115.0
478.8,118.0
478.86,121.0
478.93,137.0
478.99,151.0
479.05,136.0
479.11,118.0
479.18,135.0
479.24,169.0
479.3,185.0
479.37,210.0
479.43,231.0
479.49,191.0
479.56,153.0
479.62,100.0
479.68,59.0
479.74,63.0
479.81,81.0
479.87,75.0
479.93,106.0
480.0,81.0
480.06,58.0
480.12,66.0
480.19,31.0
480.25,43.0
480.31,53.0
480.37,91.0
480.44,93.0
480.5,71.0
480.56,100.0
480.63,132.0
480.69,149.0
480.75,145.0
480.82,147.0
480.88,141.0
480.94,117.0
481.0,119.0
481.07,149.0
481.13,186.0
481.19,178.0
481.26,164.0
481.32,139.0
481.38,135.0
481.45,130.0
481.51,124.0
481.57,117.0
481.63,111.0
481.7,123.0
481.76,121.0
481.82,106.0
481.89,106.0
481.95,115.0
482.01,119.0
482.08,134.0
482.14,157.0
482.2,179.0
482.26,214.0
482.33,212.0
482.39,200.0
482.45,209.0
482.52,175.0
482.58,141.0
482.64,168.0
482.71,167.0
482.77,155.0
482.83,108.0
482.89,98.0
482.96,106.0
483.02,91.0
483.08,61.0
483.15,72.0
483.21,85.0
483.27,77.0
483.34,102.0
483.4,64.0
483.46,80.0
483.52,102.0
483.59,96.0
483.65,106.0
483.71,119.0
483.78,152.0
483.84,173.0
483.9,150.0
483.97,122.0
484.03,145.0
484.09,132.0
484.15,102.0
484.22,80.0
484.28,40.0
484.34,30.0
484.41,10.0
484.47,7.0
484.53,24.0
484.6,40.0
484.66,80.0
484.72,101.0
484.78,101.0
484.85,90.0
484.91,72.0
484.97,88.0
485.04,111.0
485.1,105.0
485.16,103.0
485.23,98.0
485.29,79.0
485.35,104.0
485.41,131.0
485.48,146.0
485.54,186.0
485.6,174.0
485.67,171.0
485.73,168.0
485.79,209.0
485.86,199.0
485.92,190.0
485.98,179.0
486.04,194.0
486.11,214.0
486.17,217.0
486.23,244.0
486.3,245.0
486.36,211.0
486.42,215.0
486.49,198.0
486.55,187.0
486.61,178.0
486.67,171.0
486.74,175.0
486.8,198.0
486.86,203.0
486.93,226.0
486.99,232.0
487.05,269.0
487.12,280.0
487.18,282.0
487.24,284.0
487.3,283.0
487.37,276.0
487.43,271.0
487.49,264.0
487.56,252.0
487.62,248.0
487.68,230.0
487.75,191.0
487.81,186.0
487.87,180.0
487.93,180.0
488.0,152.0
488.06,142.0
488.12,135.0
488.19,130.0
488.25,117.0
488.31,127.0
488.38,133.0
488.44,146.0
488.5,143.0
488.56,151.0
488.63,137.0
488.69,121.0
488.75,133.0
488.82,119.0
488.88,133.0
488.94,127.0
489.01,132.0
489.07,142.0
489.13,146.0
489.19,167.0
489.26,201.0
489.32,212.0
489.38,219.0
489.45,219.0
489.51,214.0
489.57,185.0
489.64,178.0
489.7,164.0
489.76,182.0
489.82,185.0
489.89,211.0
489.95,179.0
490.01,164.0
490.08,156.0
490.14,128.0
490.2,136.0
490.27,133.0
490.33,100.0
490.39,111.0
490.45,113.0
490.52,116.0
490.58,148.0
490.64,155.0
490.71,154.0
490.77,155.0
490.83,156.0
490.9,149.0
490.96,165.0
491.02,143.0
491.08,151.0
491.15,146.0
491.21,162.0
491.27,164.0
491.34,144.0
491.4,149.0
491.46,166.0
491.53,188.0
491.59,178.0
491.65,166.0
491.71,150.0
491.78,126.0
491.84,144.0
491.9,145.0
491.97,132.0
492.03,137.0
492.09,160.0
492.16,169.0
492.22,178.0
492.28,168.0
492.34,143.0
492.41,97.0
492.47,102.0
492.53,137.0
492.6,102.0
492.66,125.0
492.72,144.0
492.79,126.0
492.85,142.0
492.91,136.0
492.97,130.0
493.04,121.0
493.1,113.0
493.16,117.0
493.23,127.0
493.29,99.0
493.35,84.0
493.42,99.0
493.48,116.0
493.54,106.0
493.6,97.0
493.67,91.0
493.73,51.0
493.79,9.0
493.86,24.0
493.92,49.0
493.98,69.0
494.05,91.0
494.11,108.0
494.17,139.0
494.23,133.0
494.3,125.0
494.36,137.0
494.42,124.0
494.49,102.0
494.55,103.0
494.61,99.0
494.68,105.0
494.74,109.0
494.8,107.0
494.86,109.0
494.93,119.0
494.99,123.0
495.05,147.0
495.12,161.0
495.18,158.0
495.24,146.0
495.31,128.0
495.37,129.0
495.43,108.0
495.49,133.0
495.56,149.0
495.62,166.0
495.68,158.0
495.75,162.0
495.81,157.0
495.87,144.0
495.94,117.0
496.0,111.0
496.06,131.0
496.12,107.0
496.19,103.0
496.25,110.0
496.31,131.0
496.38,136.0
496.44,139.0
496.5,132.0
496.57,130.0
496.63,114.0
496.69,97.0
496.75,87.0
496.82,99.0
496.88,92.0
496.94,108.0
497.01,116.0
497.07,115.0
497.13,125.0
497.2,117.0
497.26,131.0
497.32,149.0
497.38,161.0
497.45,178.0
497.51,201.0
497.57,229.0
497.64,256.0
497.7,284.0
497.76,261.0
497.83,244.0
497.89,201.0
497.95,173.0
498.01,147.0
498.08,125.0
498.14,126.0
498.2,117.0
498.27,106.0
498.33,97.0
498.39,114.0
498.46,104.0
498.52,88.0
498.58,94.0
498.64,95.0
498.71,88.0
498.77,81.0
498.83,98.0
498.9,134.0
498.96,142.0
499.02,138.0
499.09,124.0
499.15,114.0
499.21,119.0
499.27,107.0
499.34,103.0
499.4,125.0
499.46,110.0
499.53,133.0
499.59,144.0
499.65,135.0
499.72,148.0
499.78,149.0
499.84,166.0
499.9,168.0
499.97,158.0
500.03,150.0
500.09,155.0
500.16,152.0
500.22,165.0
500.28,167.0
500.35,169.0
500.41,166.0
500.47,183.0
500.53,179.0
500.6,172.0
500.66,149.0
500.72,152.0
500.79,165.0
500.85,189.0
500.91,205.0
500.98,202.0
501.04,191.0
501.1,138.0
501.16,161.0
501.23,158.0
501.29,128.0
501.35,139.0
501.42,123.0
501.48,122.0
501.54,130.0
501.61,136.0
501.67,139.0
501.73,155.0
501.79,152.0
501.86,156.0
501.92,135.0
501.98,143.0
502.05,132.0
502.11,147.0
502.17,180.0
502.24,180.0
502.3,195.0
502.36,195.0
502.42,179.0
502.49,197.0
502.55,197.0
502.61,188.0
502.68,177.0
502.74,154.0
502.8,145.0
502.87,138.0
502.93,131.0
502.99,103.0
503.05,102.0
503.12,108.0
503.18,149.0
503.24,143.0
503.31,135.0
503.37,135.0
503.43,136.0
503.5,117.0
503.56,91.0
503.62,138.0
503.68,146.0
503.75,126.0
503.81,182.0
503.87,203.0
503.94,185.0
504.0,198.0
504.06,207.0
504.13,183.0
504.19,190.0
504.25,187.0
504.31,208.0
504.38,198.0
504.44,222.0
504.5,202.0
504.57,189.0
504.63,185.0
504.69,185.0
504.76,178.0
504.82,177.0
504.88,173.0
504.94,166.0
505.01,165.0
505.07,168.0
505.13,177.0
505.2,160.0
505.26,159.0
505.32,156.0
505.39,183.0
505.45,161.0
505.51,158.0
505.57,165.0
505.64,165.0
505.7,193.0
505.76,156.0
505.83,133.0
505.89,133.0
505.95,126.0
506.02,125.0
506.08,115.0
506.14,118.0
506.2,128.0
506.27,123.0
506.33,123.0
506.39,131.0
506.46,122.0
506.52,116.0
506.58,116.0
506.65,129.0
506.71,128.0
506.77,151.0
506.83,160.0
506.9,160.0
506.96,161.0
507.02,154.0
507.09,151.0
507.15,143.0
507.21,147.0
507.28,133.0
507.34,142.0
507.4,135.0
507.46,120.0
507.53,125.0
507.59,95.0
507.65,105.0
507.72,107.0
507.78,85.0
507.84,92.0
507.91,115.0
507.97,134.0
508.03,123.0
508.09,110.0
508.16,114.0
508.22,131.0
508.28,139.0
508.35,130.0
508.41,102.0
508.47,103.0
508.54,116.0
508.6,115.0
508.66,62.0
508.72,71.0
508.79,75.0
508.85,61.0
508.91,65.0
508.98,63.0
509.04,38.0
509.1,62.0
509.17,93.0
509.23,68.0
509.29,55.0
509.35,82.0
509.42,80.0
509.48,67.0
509.54,66.0
509.61,84.0
509.67,73.0
509.73,82.0
509.8,87.0
509.86,115.0
509.92,120.0
509.98,124.0
510.05,126.0
510.11,119.0
510.17,113.0
510.24,110.0
510.3,116.0
510.36,122.0
510.43,100.0
510.49,109.0
510.55,131.0
510.61,107.0
510.68,100.0
510.74,103.0
510.8,88.0
510.87,53.0
510.93,47.0
510.99,31.0
511.06,11.0
511.12,34.0
511.18,32.0
511.24,23.0
511.31,48.0
511.37,32.0
511.43,26.0
511.5,25.0
511.56,39.0
511.62,32.0
511.69,25.0
511.75,26.0
511.81,8.0
511.87,17.0
511.94,43.0
512.0,46.0
512.06,38.0
512.13,50.0
512.19,26.0
512.25,6.0
512.32,51.0
512.38,71.0
512.44,99.0
512.5,100.0
512.57,132.0
512.63,131.0
512.69,115.0
512.76,113.0
512.82,110.0
512.88,100.0
512.95,97.0
513.01,96.0
513.07,86.0
513.13,96.0
513.2,78.0
513.26,59.0
513.32,64.0
513.39,70.0
513.45,66.0
513.51,70.0
513.58,73.0
513.64,83.0
513.7,84.0
513.76,131.0
513.83,139.0
513.89,125.0
513.95,117.0
514.02,128.0
514.08,119.0
514.14,111.0
514.21,110.0
514.27,107.0
514.33,109.0
514.39,84.0
514.46,80.0
514.52,98.0
514.58,108.0
514.65,98.0
514.71,100.0
514.77,64.0
514.84,82.0
514.9,83.0
514.96,86.0
515.02,69.0
515.09,58.0
515.15,94.0
515.21,98.0
515.28,88.0
515.34,104.0
515.4,90.0
515.47,104.0
515.53,111.0
515.59,133.0
515.65,140.0
515.72,117.0
515.78,124.0
515.84,141.0
515.91,141.0
515.97,154.0
516.03,117.0
516.1,120.0
516.16,124.0
516.22,135.0
516.28,120.0
516.35,105.0
516.41,133.0
516.47,140.0
516.54,125.0
516.6,142.0
516.66,147.0
516.73,144.0
516.79,114.0
516.85,121.0
516.91,152.0
516.98,145.0
517.04,134.0
517.1,146.0
517.17,144.0
517.23,112.0
517.29,138.0
517.36,150.0
517.42,158.0
517.48,172.0
517.54,164.0
517.61,147.0
517.67,115.0
517.73,138.0
517.8,136.0
517.86,115.0
517.92,132.0
517.99,128.0
518.05,129.0
518.11,122.0
518.17,137.0
518.24,127.0
518.3,120.0
518.36,152.0
518.43,170.0
518.49,157.0
518.55,158.0
518.62,138.0
518.68,148.0
518.74,147.0
518.8,135.0
518.87,139.0
518.93,107.0
518.99,132.0
519.06,133.0
519.12,137.0
519.18,150.0
519.25,155.0
519.31,174.0
519.37,198.0
519.43,207.0
519.5,196.0
519.56,194.0
519.62,199.0
519.69,201.0
519.75,195.0
519.81,180.0
519.88,175.0
519.94,175.0
520.0,170.0
520.06,160.0
520.13,170.0
520.19,174.0
520.25,151.0
520.32,148.0
520.38,159.0
520.44,152.0
520.51,139.0
520.57,160.0
520.63,181.0
520.69,150.0
520.76,171.0
520.82,193.0
520.88,194.0
520.95,179.0
521.01,178.0
521.07,182.0
521.14,179.0
521.2,173.0
521.26,180.0
521.32,188.0
521.39,172.0
521.45,174.0
521.51,183.0
521.58,188.0
521.64,204.0
521.7,211.0
521.77,193.0
521.83,171.0
521.89,159.0
521.95,153.0
522.02,157.0
522.08,147.0
522.14,102.0
522.21,100.0
522.27,109.0
522.33,102.0
522.4,118.0
522.46,106.0
522.52,86.0
522.58,77.0
522.65,104.0
522.71,120.0
522.77,120.0
522.84,131.0
522.9,134.0
522.96,158.0
523.03,164.0
523.09,163.0
523.15,148.0
523.21,117.0
523.28,125.0
523.34,133.0
523.4,142.0
523.47,132.0
523.53,112.0
523.59,137.0
523.66,138.0
523.72,133.0
523.78,125.0
523.84,123.0
523.91,96.0
523.97,116.0
524.03,110.0
524.1,95.0
524.16,86.0
524.22,86.0
524.29,91.0
524.35,98.0
524.41,87.0
524.47,88.0
524.54,71.0
524.6,74.0
524.66,62.0
524.73,51.0
524.79,59.0
524.85,66.0
524.92,48.0
524.98,36.0
525.04,71.0
525.1,83.0
525.17,105.0
525.23,130.0
525.29,117.0
525.36,114.0
525.42,144.0
525.48,141.0
525.55,101.0
525.61,76.0
525.67,55.0
525.73,62.0
525.8,51.0
525.86,39.0
525.92,35.0
525.99,49.0
526.05,33.0
526.11,27.0
526.18,40.0
526.24,62.0
526.3,77.0
526.36,70.0
526.43,44.0
526.49,66.0
526.55,60.0
526.62,47.0
526.68,43.0
526.74,47.0
526.81,61.0
526.87,54.0
526.93,51.0
526.99,37.0
527.06,28.0
527.12,43.0
527.18,48.0
527.25,42.0
527.31,50.0
527.37,47.0
527.44,65.0
527.5,70.0
527.56,73.0
527.62,48.0
527.69,58.0
527.75,73.0
527.81,101.0
527.88,127.0
527.94,146.0
528.0,151.0
528.07,136.0
528.13,111.0
528.19,89.0
528.25,97.0
528.32,76.0
528.38,75.0
528.44,69.0
528.51,87.0
528.57,98.0
528.63,102.0
528.7,93.0
528.76,105.0
528.82,93.0
528.88,90.0
528.95,89.0
529.01,124.0
529.07,119.0
529.14,133.0
529.2,105.0
529.26,120.0
529.33,130.0
529.39,89.0
529.45,119.0
529.51,98.0
529.58,88.0
529.64,97.0
529.7,110.0
529.77,131.0
529.83,120.0
529.89,72.0
529.96,80.0
530.02,83.0
530.08,83.0
530.14,93.0
530.21,95.0
530.27,97.0
530.33,113.0
530.4,110.0
530.46,103.0
530.52,116.0
530.59,117.0
530.65,119.0
530.71,122.0
530.77,127.0
530.84,124.0
530.9,117.0
530.96,110.0
531.03,105.0
531.09,121.0
531.15,119.0
531.22,131.0
531.28,127.0
531.34,136.0
531.4,139.0
531.47,139.0
531.53,133.0
531.59,121.0
531.66,110.0
531.72,117.0
531.78,89.0
531.85,109.0
531.91,121.0
531.97,95.0
532.03,120.0
532.1,133.0
532.16,123.0
532.22,94.0
532.29,119.0
532.35,117.0
532.41,130.0
532.48,117.0
532.54,137.0
532.6,147.0
532.66,153.0
532.73,149.0
532.79,141.0
532.85,146.0
532.92,153.0
532.98,142.0
533.04,131.0
533.11,138.0
533.17,133.0
533.23,139.0
533.29,116.0
533.36,92.0
533.42,98.0
533.48,92.0
533.55,96.0
533.61,111.0
533.67,106.0
533.74,130.0
533.8,136.0
533.86,131.0
533.92,132.0
533.99,124.0
534.05,111.0
534.11,118.0
534.18,114.0
534.24,81.0
534.3,107.0
534.37,127.0
534.43,107.0
534.49,102.0
534.55,108.0
534.62,107.0
534.68,109.0
534.74,125.0
534.81,122.0
534.87,143.0
534.93,147.0
535.0,158.0
535.06,171.0
535.12,169.0
535.18,171.0
535.25,157.0
535.31,164.0
535.37,161.0
535.44,157.0
535.5,176.0
535.56,181.0
535.63,175.0
535.69,176.0
535.75,177.0
535.81,181.0
535.88,176.0
535.94,157.0
536.0,165.0
536.07,163.0
536.13,166.0
536.19,160.0
536.26,188.0
536.32,190.0
536.38,182.0
536.44,168.0
536.51,172.0
536.57,190.0
536.63,177.0
536.7,161.0
536.76,165.0
536.82,170.0
536.89,165.0
536.95,150.0
537.01,172.0
537.07,184.0
537.14,154.0
537.2,143.0
537.26,141.0
537.33,137.0
537.39,128.0
537.45,126.0
537.52,143.0
537.58,149.0
537.64,139.0
537.7,131.0
537.77,136.0
537.83,143.0
537.89,149.0
537.96,144.0
538.02,135.0
538.08,136.0
538.15,158.0
538.21,159.0
538.27,172.0
538.33,177.0
538.4,193.0
538.46,165.0
538.52,165.0
538.59,135.0
538.65,137.0
538.71,161.0
538.78,147.0
538.84,153.0
538.9,142.0
538.96,135.0
539.03,116.0
539.09,128.0
539.15,126.0
539.22,130.0
539.28,125.0
539.34,113.0
539.41,125.0
539.47,147.0
539.53,143.0
539.59,150.0
539.66,143.0
539.72,119.0
539.78,116.0
539.85,111.0
539.91,108.0
539.97,113.0
540.04,90.0
540.1,72.0
540.16,90.0
540.22,106.0
540.29,98.0
540.35,102.0
540.41,91.0
540.48,96.0
540.54,92.0
540.6,104.0
540.67,85.0
540.73,83.0
540.79,96.0
540.85,98.0
540.92,85.0
540.98,88.0
541.04,90.0
541.11,81.0
541.17,68.0
541.23,66.0
541.3,80.0
541.36,73.0
541.42,88.0
541.48,97.0
541.55,85.0
541.61,80.0
541.67,70.0
541.74,64.0
541.8,80.0
541.86,73.0
541.93,74.0
541.99,76.0
542.05,62.0
542.11,83.0
542.18,63.0
542.24,89.0
542.3,119.0
542.37,98.0
542.43,69.0
542.49,54.0
542.56,58.0
542.62,59.0
542.68,70.0
542.74,50.0
542.81,49.0
542.87,61.0
542.93,70.0
543.0,89.0
543.06,80.0
543.12,65.0
543.19,57.0
543.25,78.0
543.31,81.0
543.37,87.0
543.44,113.0
543.5,77.0
543.56,71.0
543.63,88.0
543.69,63.0
543.75,65.0
543.82,65.0
543.88,75.0
543.94,88.0
544.0,91.0
544.07,108.0
544.13,109.0
544.19,106.0
544.26,116.0
544.32,112.0
544.38,120.0
544.45,109.0
544.51,88.0
544.57,81.0
544.63,104.0
544.7,100.0
544.76,80.0
544.82,83.0
544.89,67.0
544.95,51.0
545.01,69.0
545.08,81.0
545.14,62.0
545.2,68.0
545.26,69.0
545.33,66.0
545.39,65.0
545.45,46.0
545.52,74.0
545.58,94.0
545.64,99.0
545.71,97.0
545.77,100.0
545.83,104.0
545.89,103.0
545.96,108.0
546.02,99.0
546.08,106.0
546.15,96.0
546.21,92.0
546.27,88.0
546.34,101.0
546.4,116.0
546.46,102.0
546.52,115.0
546.59,120.0
546.65,117.0
546.71,103.0
546.78,100.0
546.84,94.0
546.9,94.0
546.97,97.0
547.03,74.0
547.09,92.0
547.15,91.0
547.22,91.0
547.28,102.0
547.34,107.0
547.41,116.0
547.47,116.0
547.53,119.0
547.6,152.0
547.66,139.0
547.72,138.0
547.78,119.0
547.85,125.0
547.91,121.0
547.97,109.0
548.04,124.0
548.1,122.0
548.16,117.0
548.23,111.0
548.29,131.0
548.35,130.0
548.41,118.0
548.48,142.0
548.54,157.0
548.6,158.0
548.67,131.0
548.73,131.0
548.79,139.0
548.86,142.0
548.92,146.0
548.98,139.0
549.04,106.0
549.11,114.0
549.17,117.0
549.23,124.0
549.3,126.0
549.36,115.0
549.42,98.0
549.49,106.0
549.55,114.0
549.61,127.0
549.67,108.0
549.74,103.0
549.8,116.0
549.86,124.0
549.93,152.0
549.99,147.0
550.05,164.0
550.12,161.0
550.18,136.0
550.24,136.0
550.3,125.0
550.37,126.0
550.43,108.0
550.49,116.0
550.56,109.0
550.62,108.0
550.68,127.0
550.75,138.0
550.81,139.0
550.87,121.0
550.93,113.0
551.0,102.0
551.06,120.0
551.12,133.0
551.19,112.0
551.25,107.0
551.31,119.0
551.38,119.0
551.44,128.0
551.5,154.0
551.56,159.0
551.63,132.0
551.69,153.0
551.75,163.0
551.82,128.0
551.88,109.0
551.94,135.0
552.01,133.0
552.07,141.0
552.13,137.0
552.19,148.0
552.26,147.0
552.32,149.0
552.38,167.0
552.45,151.0
552.51,157.0
552.57,153.0
552.64,180.0
552.7,169.0
552.76,165.0
552.82,175.0
552.89,171.0
552.95,177.0
553.01,178.0
553.08,166.0
553.14,183.0
553.2,168.0
553.27,160.0
553.33,165.0
553.39,164.0
553.45,170.0
553.52,185.0
553.58,193.0
553.64,191.0
553.71,175.0
553.77,179.0
553.83,182.0
553.9,167.0
553.96,164.0
554.02,155.0
554.08,162.0
554.15,177.0
554.21,149.0
554.27,165.0
554.34,177.0
554.4,158.0
554.46,165.0
554.53,190.0
554.59,180.0
554.65,150.0
554.71,139.0
554.78,137.0
554.84,148.0
554.9,142.0
554.97,146.0
555.03,157.0
555.09,149.0
555.16,133.0
555.22,159.0
555.28,168.0
555.34,142.0
555.41,144.0
555.47,164.0
555.53,165.0
555.6,172.0
555.66,171.0
555.72,161.0
555.79,149.0
555.85,129.0
555.91,150.0
555.97,139.0
556.04,138.0
556.1,124.0
556.16,122.0
556.23,130.0
556.29,129.0
556.35,143.0
556.42,125.0
556.48,117.0
556.54,125.0
556.6,128.0
556.67,114.0
556.73,118.0
556.79,127.0
556.86,91.0
556.92,121.0
556.98,131.0
557.05,119.0
557.11,136.0
557.17,148.0
557.23,136.0
557.3,132.0
557.36,119.0
557.42,133.0
557.49,131.0
557.55,128.0
557.61,111.0
557.68,93.0
557.74,115.0
557.8,113.0
557.86,114.0
557.93,125.0
557.99,121.0
558.05,107.0
558.12,107.0
558.18,96.0
558.24,101.0
558.31,115.0
558.37,126.0
558.43,142.0
558.49,154.0
558.56,178.0
558.62,190.0
558.68,191.0
558.75,170.0
558.81,172.0
558.87,161.0
558.94,148.0
559.0,150.0
559.06,137.0
559.12,145.0
559.19,150.0
559.25,164.0
559.31,146.0
559.38,122.0
559.44,103.0
559.5,128.0
559.57,123.0
559.63,144.0
559.69,150.0
559.75,136.0
559.82,131.0
559.88,123.0
559.94,115.0
560.01,110.0
560.07,105.0
560.13,93.0
560.2,101.0
560.26,103.0
560.32,96.0
560.38,78.0
560.45,88.0
560.51,88.0
560.57,90.0
560.64,95.0
560.7,72.0
560.76,78.0
560.83,71.0
560.89,58.0
560.95,76.0
561.01,64.0
561.08,80.0
561.14,103.0
561.2,87.0
561.27,98.0
561.33,103.0
561.39,104.0
561.46,110.0
561.52,113.0
561.58,103.0
561.64,103.0
561.71,99.0
561.77,99.0
561.83,76.0
561.9,85.0
561.96,90.0
562.02,85.0
562.09,104.0
562.15,96.0
562.21,73.0
562.27,61.0
562.34,63.0
562.4,67.0
562.46,74.0
562.53,82.0
562.59,82.0
562.65,93.0
562.72,91.0
562.78,75.0
562.84,75.0
562.9,89.0
562.97,75.0
563.03,94.0
563.09,89.0
563.16,78.0
563.22,77.0
563.28,83.0
563.35,100.0
563.41,80.0
563.47,81.0
563.53,91.0
563.6,84.0
563.66,87.0
563.72,95.0
563.79,113.0
563.85,119.0
563.91,106.0
563.98,82.0
564.04,96.0
564.1,113.0
564.16,100.0
564.23,85.0
564.29,100.0
564.35,96.0
564.42,90.0
564.48,101.0
564.54,112.0
564.61,94.0
564.67,94.0
564.73,90.0
564.79,76.0
564.86,80.0
564.92,87.0
564.98,76.0
565.05,75.0
565.11,89.0
565.17,95.0
565.24,82.0
565.3,94.0
565.36,108.0
565.42,117.0
565.49,108.0
565.55,100.0
565.61,111.0
565.68,105.0
565.74,116.0
565.8,123.0
565.87,151.0
565.93,116.0
565.99,102.0
566.05,111.0
566.12,133.0
566.18,135.0
566.24,120.0
566.31,102.0
566.37,118.0
566.43,136.0
566.5,117.0
566.56,103.0
566.62,97.0
566.68,88.0
566.75,88.0
566.81,88.0
566.87,91.0
566.94,83.0
567.0,84.0
567.06,106.0
567.13,103.0
567.19,88.0
567.25,69.0
567.31,64.0
567.38,67.0
567.44,73.0
567.5,72.0
567.57,83.0
567.63,73.0
567.69,75.0
567.76,73.0
567.82,67.0
567.88,76.0
567.94,80.0
568.01,82.0
568.07,97.0
568.13,80.0
568.2,87.0
568.26,117.0
568.32,108.0
568.39,115.0
568.45,141.0
568.51,141.0
568.57,146.0
568.64,151.0
568.7,144.0
568.76,142.0
568.83,139.0
568.89,122.0
568.95,118.0
569.02,99.0
569.08,113.0
569.14,124.0
569.2,107.0
569.27,113.0
569.33,106.0
569.39,114.0
569.46,128.0
569.52,115.0
569.58,122.0
569.65,110.0
569.71,118.0
569.77,129.0
569.83,105.0
569.9,120.0
569.96,123.0
570.02,142.0
570.09,147.0
570.15,161.0
570.21,148.0
570.28,154.0
570.34,163.0
570.4,155.0
570.46,143.0
570.53,131.0
570.59,146.0
570.65,149.0
570.72,146.0
570.78,145.0
570.84,144.0
570.91,146.0
570.97,157.0
571.03,152.0
571.09,167.0
571.16,167.0
571.22,164.0
571.28,174.0
571.35,155.0
571.41,135.0
571.47,139.0
571.54,160.0
571.6,155.0
571.66,156.0
571.72,140.0
571.79,143.0
571.85,128.0
571.91,140.0
571.98,135.0
572.04,136.0
572.1,142.0
572.17,128.0
572.23,132.0
572.29,120.0
572.35,147.0
572.42,149.0
572.48,144.0
572.54,142.0
572.61,137.0
572.67,140.0
572.73,135.0
572.8,146.0
572.86,158.0
572.92,161.0
572.98,152.0
573.05,160.0
573.11,150.0
573.17,157.0
573.24,158.0
573.3,161.0
573.36,160.0
573.43,155.0
573.49,158.0
573.55,147.0
573.61,156.0
573.68,151.0
573.74,148.0
573.8,143.0
573.87,144.0
573.93,146.0
573.99,153.0
574.06,149.0
574.12,167.0
574.18,170.0
574.24,138.0
574.31,149.0
574.37,154.0
574.43,144.0
574.5,132.0
574.56,106.0
574.62,142.0
574.69,150.0
574.75,112.0
574.81,135.0
574.87,125.0
574.94,141.0
575.0,140.0
575.06,131.0
575.13,113.0
575.19,110.0
575.25,135.0
575.32,134.0
575.38,135.0
575.44,139.0
575.5,141.0
575.57,128.0
575.63,139.0
575.69,113.0
575.76,108.0
575.82,103.0
575.88,105.0
575.95,126.0
576.01,113.0
576.07,122.0
576.13,126.0
576.2,135.0
576.26,119.0
576.32,125.0
576.39,124.0
576.45,136.0
576.51,137.0
576.58,114.0
576.64,114.0
576.7,130.0
576.76,120.0
576.83,116.0
576.89,112.0
576.95,121.0
577.02,116.0
577.08,102.0
577.14,101.0
577.21,105.0
577.27,93.0
577.33,92.0
577.39,89.0
577.46,90.0
577.52,91.0
577.58,88.0
577.65,102.0
577.71,100.0
577.77,77.0
577.84,93.0
577.9,94.0
577.96,114.0
578.02,109.0
578.09,114.0
578.15,106.0
578.21,114.0
578.28,119.0
578.34,108.0
578.4,128.0
578.47,116.0
578.53,129.0
578.59,125.0
578.65,121.0
578.72,124.0
578.78,118.0
578.84,127.0
578.91,145.0
578.97,142.0
579.03,121.0
579.1,124.0
579.16,125.0
579.22,120.0
579.28,131.0
579.35,118.0
579.41,138.0
579.47,131.0
579.54,119.0
579.6,138.0
579.66,146.0
579.73,149.0
579.79,136.0
579.85,144.0
579.91,141.0
579.98,130.0
580.04,134.0
580.1,148.0
580.17,133.0
580.23,144.0
580.29,150.0
580.36,137.0
580.42,139.0
580.48,137.0
580.54,148.0
580.61,134.0
580.67,127.0
580.73,124.0
580.8,127.0
580.86,135.0
580.92,138.0
580.99,162.0
581.05,159.0
581.11,143.0
581.17,164.0
581.24,162.0
581.3,146.0
581.36,127.0
581.43,142.0
581.49,154.0
581.55,145.0
581.62,150.0
581.68,144.0
581.74,156.0
581.8,155.0
581.87,128.0
581.93,122.0
581.99,106.0
582.06,103.0
582.12,113.0
582.18,95.0
582.25,105.0
582.31,121.0
582.37,120.0
582.43,94.0
582.5,93.0
582.56,78.0
582.62,81.0
582.69,66.0
582.75,83.0
582.81,86.0
582.88,89.0
582.94,99.0
583.0,91.0
583.06,114.0
583.13,135.0
583.19,118.0
583.25,130.0
583.32,116.0
583.38,111.0
583.44,116.0
583.51,104.0
583.57,103.0
583.63,86.0
583.69,80.0
583.76,99.0
583.82,115.0
583.88,105.0
583.95,111.0
584.01,121.0
584.07,129.0
584.14,125.0
584.2,119.0
584.26,101.0
584.32,100.0
584.39,101.0
584.45,98.0
584.51,91.0
584.58,81.0
584.64,106.0
584.7,96.0
584.77,100.0
584.83,94.0
584.89,106.0
584.95,118.0
585.02,109.0
585.08,99.0
585.14,97.0
585.21,93.0
585.27,84.0
585.33,98.0
585.4,115.0
585.46,115.0
585.52,125.0
585.58,126.0
585.65,106.0
585.71,102.0
585.77,127.0
585.84,116.0
585.9,117.0
585.96,115.0
586.03,124.0
586.09,120.0
586.15,121.0
586.21,117.0
586.28,123.0
586.34,113.0
586.4,127.0
586.47,116.0
586.53,126.0
586.59,131.0
586.66,125.0
586.72,106.0
586.78,129.0
586.84,143.0
586.91,135.0
586.97,133.0
587.03,139.0
587.1,134.0
587.16,131.0
587.22,117.0
587.29,108.0
587.35,136.0
587.41,135.0
587.47,150.0
587.54,156.0
587.6,125.0
587.66,146.0
587.73,143.0
587.79,150.0
587.85,144.0
587.92,146.0
587.98,169.0
588.04,139.0
588.1,122.0
588.17,128.0
588.23,130.0
588.29,119.0
588.36,106.0
588.42,114.0
588.48,125.0
588.55,123.0
588.61,122.0
588.67,128.0
588.73,102.0
588.8,111.0
588.86,117.0
588.92,128.0
588.99,132.0
589.05,141.0
589.11,124.0
589.18,130.0
589.24,153.0
589.3,135.0
589.36,127.0
589.43,139.0
589.49,132.0
589.55,121.0
589.62,128.0
589.68,132.0
589.74,123.0
589.81,133.0
589.87,121.0
589.93,111.0
589.99,122.0
590.06,113.0
590.12,108.0
590.18,120.0
590.25,111.0
590.31,121.0
590.37,97.0
590.44,94.0
590.5,86.0
590.56,74.0
590.62,61.0
590.69,57.0
590.75,77.0
590.81,69.0
590.88,77.0
590.94,88.0
591.0,76.0
591.07,83.0
591.13,78.0
591.19,85.0
591.25,91.0
591.32,87.0
591.38,103.0
591.44,87.0
591.51,91.0
591.57,85.0
591.63,98.0
591.7,94.0
591.76,92.0
591.82,104.0
591.88,101.0
591.95,101.0
592.01,101.0
592.07,105.0
592.14,83.0
592.2,73.0
592.26,83.0
592.33,89.0
592.39,74.0
592.45,79.0
592.51,68.0
592.58,61.0
592.64,64.0
592.7,73.0
592.77,75.0
592.83,82.0
592.89,101.0
592.96,109.0
593.02,107.0
593.08,88.0
593.14,91.0
593.21,101.0
593.27,106.0
593.33,103.0
593.4,106.0
593.46,104.0
593.52,128.0
593.59,108.0
593.65,95.0
593.71,108.0
593.77,103.0
593.84,92.0
593.9,102.0
593.96,84.0
594.03,77.0
594.09,73.0
594.15,83.0
594.22,86.0
594.28,92.0
594.34,97.0
594.4,110.0
594.47,125.0
594.53,117.0
594.59,133.0
594.66,108.0
594.72,105.0
594.78,107.0
594.85,111.0
594.91,123.0
594.97,121.0
595.03,127.0
595.1,121.0
595.16,133.0
595.22,125.0
595.29,135.0
595.35,126.0
595.41,113.0
595.48,138.0
595.54,130.0
595.6,126.0
595.66,132.0
595.73,118.0
595.79,113.0
595.85,113.0
595.92,96.0
595.98,109.0
596.04,135.0
596.11,128.0
596.17,131.0
596.23,117.0
596.29,126.0
596.36,100.0
596.42,101.0
596.48,113.0
596.55,116.0
596.61,100.0
596.67,91.0
596.74,99.0
596.8,89.0
596.86,102.0
596.92,96.0
596.99,125.0
597.05,119.0
597.11,117.0
597.18,105.0
597.24,128.0
597.3,126.0
597.37,155.0
597.43,160.0
597.49,128.0
597.55,141.0
597.62,151.0
597.68,162.0
597.74,177.0
597.81,150.0
597.87,147.0
597.93,164.0
598.0,167.0
598.06,182.0
598.12,179.0
598.18,174.0
598.25,165.0
598.31,166.0
598.37,177.0
598.44,160.0
598.5,139.0
598.56,144.0
598.63,153.0
598.69,152.0
598.75,172.0
598.81,165.0
598.88,161.0
598.94,141.0
599.0,151.0
599.07,161.0
599.13,162.0
599.19,144.0
599.26,150.0
599.32,147.0
599.38,147.0
599.44,149.0
599.51,169.0
599.57,160.0
599.63,148.0
599.7,132.0
599.76,146.0
599.82,130.0
599.89,135.0
599.95,140.0
600.01,138.0
600.07,145.0
600.14,143.0
600.2,151.0
600.26,147.0
600.33,156.0
600.39,172.0
600.45,159.0
600.52,154.0
600.58,142.0
600.64,136.0
600.7,132.0
600.77,143.0
600.83,167.0
600.89,150.0
600.96,139.0
601.02,150.0
601.08,118.0
601.15,147.0
601.21,148.0
601.27,150.0
601.33,159.0
601.4,176.0
601.46,167.0
601.52,165.0
601.59,164.0
601.65,157.0
601.71,167.0
601.78,164.0
601.84,171.0
601.9,166.0
601.96,143.0
602.03,128.0
602.09,157.0
602.15,157.0
602.22,157.0
602.28,168.0
602.34,161.0
602.41,160.0
602.47,153.0
602.53,147.0
602.59,146.0
602.66,135.0
602.72,139.0
602.78,128.0
602.85,143.0
602.91,129.0
602.97,146.0
603.04,161.0
603.1,161.0
603.16,148.0
603.22,158.0
603.29,150.0
603.35,146.0
603.41,169.0
603.48,166.0
603.54,169.0
603.6,189.0
603.67,192.0
603.73,192.0
603.79,190.0
603.85,195.0
603.92,199.0
603.98,202.0
604.04,186.0
604.11,187.0
604.17,184.0
604.23,197.0
604.3,197.0
604.36,190.0
604.42,184.0
604.48,196.0
604.55,181.0
604.61,194.0
604.67,199.0
604.74,209.0
604.8,202.0
604.86,197.0
604.93,193.0
604.99,196.0
605.05,204.0
605.11,191.0
605.18,200.0
605.24,199.0
605.3,219.0
605.37,200.0
605.43,196.0
605.49,188.0
605.56,177.0
605.62,177.0
605.68,175.0
605.74,181.0
605.81,200.0
605.87,201.0
605.93,182.0
606.0,167.0
606.06,177.0
606.12,182.0
606.19,173.0
606.25,181.0
606.31,174.0
606.37,193.0
606.44,186.0
606.5,181.0
606.56,176.0
606.63,168.0
606.69,179.0
606.75,173.0
606.82,176.0
606.88,191.0
606.94,196.0
607.0,158.0
607.07,159.0
607.13,156.0
607.19,157.0
607.26,145.0
607.32,185.0
607.38,186.0
607.45,177.0
607.51,165.0
607.57,147.0
607.63,167.0
607.7,147.0
607.76,142.0
607.82,146.0
607.89,114.0
607.95,145.0
608.01,132.0
608.08,122.0
608.14,118.0
608.2,126.0
608.26,118.0
608.33,138.0
608.39,132.0
608.45,130.0
608.52,145.0
608.58,148.0
608.64,126.0
608.71,131.0
608.77,121.0
608.83,127.0
608.89,126.0
608.96,113.0
609.02,143.0
609.08,112.0
609.15,132.0
609.21,133.0
609.27,128.0
609.34,108.0
609.4,101.0
609.46,124.0
609.52,121.0
609.59,106.0
609.65,97.0
609.71,113.0
609.78,122.0
609.84,101.0
609.9,110.0
609.97,99.0
610.03,104.0
610.09,96.0
610.15,89.0
610.22,77.0
610.28,76.0
610.34,70.0
610.41,64.0
610.47,78.0
610.53,72.0
610.6,54.0
610.66,58.0
610.72,37.0
610.78,56.0
610.85,59.0
610.91,67.0
610.97,56.0
611.04,57.0
611.1,60.0
611.16,51.0
611.23,62.0
611.29,62.0
611.35,34.0
611.41,39.0
611.48,55.0
611.54,52.0
611.6,60.0
611.67,49.0
611.73,50.0
611.79,59.0
611.86,64.0
611.92,68.0
611.98,80.0
612.04,73.0
612.11,74.0
612.17,62.0
612.23,67.0
612.3,71.0
612.36,55.0
612.42,56.0
612.49,55.0
612.55,73.0
612.61,66.0
612.67,94.0
612.74,73.0
612.8,73.0
612.86,78.0
612.93,88.0
612.99,87.0
613.05,73.0
613.12,76.0
613.18,74.0
613.24,86.0
613.3,96.0
613.37,116.0
613.43,117.0
613.49,113.0
613.56,106.0
613.62,82.0
613.68,89.0
613.75,108.0
613.81,109.0
613.87,96.0
613.93,82.0
614.0,105.0
614.06,109.0
614.12,97.0
614.19,125.0
614.25,122.0
614.31,102.0
614.38,111.0
614.44,98.0
614.5,110.0
614.56,121.0
614.63,125.0
614.69,102.0
614.75,111.0
614.82,121.0
614.88,125.0
614.94,98.0
615.01,111.0
615.07,132.0
615.13,137.0
615.19,135.0
615.26,131.0
615.32,126.0
615.38,139.0
615.45,126.0
615.51,124.0
615.57,141.0
615.64,123.0
615.7,130.0
615.76,120.0
615.82,116.0
615.89,108.0
615.95,112.0
616.01,108.0
616.08,116.0
616.14,119.0
616.2,99.0
616.27,105.0
616.33,121.0
616.39,95.0
616.45,91.0
616.52,97.0
616.58,103.0
616.64,96.0
616.71,106.0
616.77,99.0
616.83,92.0
616.9,85.0
616.96,83.0
617.02,90.0
617.08,91.0
617.15,97.0
617.21,107.0
617.27,110.0
617.34,113.0
617.4,116.0
617.46,110.0
617.53,111.0
617.59,87.0
617.65,85.0
617.71,83.0
617.78,61.0
617.84,76.0
617.9,63.0
617.97,61.0
618.03,81.0
618.09,64.0
618.16,71.0
618.22,67.0
618.28,86.0
618.34,70.0
618.41,91.0
618.47,85.0
618.53,85.0
618.6,89.0
618.66,75.0
618.72,92.0
618.79,86.0
618.85,87.0
618.91,91.0
618.97,88.0
619.04,105.0
619.1,107.0
619.16,114.0
619.23,113.0
619.29,104.0
619.35,117.0
619.42,111.0
619.48,135.0
619.54,129.0
619.6,117.0
619.67,130.0
619.73,140.0
619.79,131.0
619.86,134.0
619.92,152.0
619.98,168.0
620.05,158.0
620.11,159.0
620.17,155.0
620.23,157.0
620.3,144.0
620.36,148.0
620.42,150.0
620.49,146.0
620.55,166.0
620.61,177.0
620.68,158.0
620.74,158.0
620.8,169.0
620.86,172.0
620.93,172.0
620.99,176.0
621.05,172.0
621.12,175.0
621.18,172.0
621.24,177.0
621.31,171.0
621.37,176.0
621.43,183.0
621.49,182.0
621.56,199.0
621.62,196.0
621.68,186.0
621.75,191.0
621.81,203.0
621.87,190.0
621.94,181.0
622.0,172.0
622.06,180.0
622.12,169.0
622.19,160.0
622.25,150.0
622.31,162.0
622.38,178.0
622.44,172.0
622.5,188.0
622.57,185.0
622.63,170.0
622.69,163.0
622.75,176.0
622.82,162.0
622.88,171.0
622.94,183.0
623.01,161.0
623.07,141.0
623.13,145.0
623.2,161.0
623.26,173.0
623.32,171.0
623.38,182.0
623.45,168.0
623.51,177.0
623.57,177.0
623.64,194.0
623.7,179.0
623.76,181.0
623.83,177.0
623.89,189.0
623.95,178.0
624.01,172.0
624.08,172.0
624.14,180.0
624.2,177.0
624.27,173.0
624.33,181.0
624.39,185.0
624.46,187.0
624.52,165.0
624.58,163.0
624.64,194.0
624.71,175.0
624.77,180.0
624.83,146.0
624.9,158.0
624.96,151.0
625.02,160.0
625.09,144.0
625.15,163.0
625.21,168.0
625.27,134.0
625.34,151.0
625.4,157.0
625.46,138.0
625.53,128.0
625.59,139.0
625.65,137.0
625.72,116.0
625.78,129.0
625.84,134.0
625.9,148.0
625.97,131.0
626.03,137.0
626.09,139.0
626.16,134.0
626.22,135.0
626.28,138.0
626.35,138.0
626.41,136.0
626.47,129.0
626.53,121.0
626.6,113.0
626.66,131.0
626.72,114.0
626.79,102.0
626.85,99.0
626.91,97.0
626.98,92.0
627.04,87.0
627.1,82.0
627.16,83.0
627.23,82.0
627.29,86.0
627.35,83.0
627.42,74.0
627.48,88.0
627.54,76.0
627.61,83.0
627.67,98.0
627.73,106.0
627.79,102.0
627.86,110.0
627.92,101.0
627.98,109.0
628.05,128.0
628.11,117.0
628.17,106.0
628.24,111.0
628.3,104.0
628.36,115.0
628.42,104.0
628.49,117.0
628.55,102.0
628.61,84.0
628.68,110.0
628.74,121.0
628.8,106.0
628.87,108.0
628.93,104.0
628.99,117.0
629.05,107.0
629.12,109.0
629.18,115.0
629.24,125.0
629.31,110.0
629.37,116.0
629.43,91.0
629.5,106.0
629.56,121.0
629.62,117.0
629.68,122.0
629.75,108.0
629.81,109.0
629.87,100.0
629.94,114.0
630.0,110.0
630.06,111.0
630.13,121.0
630.19,107.0
630.25,124.0
630.31,109.0
630.38,120.0
630.44,122.0
630.5,122.0
630.57,127.0
630.63,107.0
630.69,121.0
630.76,137.0
630.82,119.0
630.88,117.0
630.94,119.0
631.01,134.0
631.07,144.0
631.13,154.0
631.2,161.0
631.26,144.0
631.32,134.0
631.39,134.0
631.45,117.0
631.51,135.0
631.57,148.0
631.64,149.0
631.7,140.0
631.76,129.0
631.83,144.0
631.89,136.0
631.95,128.0
632.02,133.0
632.08,142.0
632.14,139.0
632.2,117.0
632.27,134.0
632.33,125.0
632.39,114.0
632.46,127.0
632.52,123.0
632.58,117.0
632.65,112.0
632.71,112.0
632.77,95.0
632.83,100.0
632.9,109.0
632.96,99.0
633.02,86.0
633.09,92.0
633.15,91.0
633.21,87.0
633.28,95.0
633.34,92.0
633.4,94.0
633.46,84.0
633.53,95.0
633.59,73.0
633.65,62.0
633.72,69.0
633.78,54.0
633.84,70.0
633.91,77.0
633.97,62.0
634.03,84.0
634.09,66.0
634.16,69.0
634.22,70.0
634.28,70.0
634.35,61.0
634.41,72.0
634.47,87.0
634.54,85.0
634.6,74.0
634.66,76.0
634.72,85.0
634.79,82.0
634.85,76.0
634.91,91.0
634.98,97.0
635.04,106.0
635.1,103.0
635.17,110.0
635.23,109.0
635.29,89.0
635.35,65.0
635.42,78.0
635.48,81.0
635.54,111.0
635.61,103.0
635.67,116.0
635.73,113.0
635.8,118.0
635.86,139.0
635.92,125.0
635.98,121.0
636.05,128.0
636.11,126.0
636.17,119.0
636.24,108.0
636.3,96.0
636.36,130.0
636.43,118.0
636.49,105.0
636.55,116.0
636.61,112.0
636.68,109.0
636.74,106.0
636.8,116.0
636.87,121.0
636.93,116.0
636.99,121.0
637.06,117.0
637.12,112.0
637.18,108.0
637.24,108.0
637.31,128.0
637.37,116.0
637.43,111.0
637.5,98.0
637.56,112.0
637.62,122.0
637.69,111.0
637.75,115.0
637.81,124.0
637.87,130.0
637.94,101.0
638.0,115.0
638.06,115.0
638.13,138.0
638.19,138.0
638.25,102.0
638.32,115.0
638.38,135.0
638.44,125.0
638.5,124.0
638.57,128.0
638.63,122.0
638.69,116.0
638.76,111.0
638.82,135.0
638.88,128.0
638.95,136.0
639.01,131.0
639.07,137.0
639.13,135.0
639.2,141.0
639.26,142.0
639.32,156.0
639.39,140.0
639.45,130.0
639.51,161.0
639.58,174.0
639.64,174.0
639.7,157.0
639.76,146.0
639.83,137.0
639.89,135.0
639.95,146.0
640.02,142.0
640.08,135.0
640.14,125.0
640.21,147.0
640.27,154.0
640.33,151.0
640.39,152.0
640.46,139.0
640.52,144.0
640.58,158.0
640.65,158.0
640.71,155.0
640.77,152.0
640.84,135.0
640.9,151.0
640.96,157.0
641.02,131.0
641.09,147.0
641.15,160.0
641.21,139.0
641.28,144.0
641.34,145.0
641.4,132.0
641.47,146.0
641.53,137.0
641.59,127.0
641.65,125.0
641.72,130.0
641.78,131.0
641.84,130.0
641.91,109.0
641.97,114.0
642.03,116.0
642.1,117.0
642.16,103.0
642.22,100.0
642.28,117.0
642.35,107.0
642.41,93.0
642.47,101.0
642.54,113.0
642.6,101.0
642.66,98.0
642.73,98.0
642.79,108.0
642.85,89.0
642.91,86.0
642.98,83.0
643.04,92.0
643.1,93.0
643.17,87.0
643.23,82.0
643.29,99.0
643.36,90.0
643.42,84.0
643.48,82.0
643.54,75.0
643.61,81.0
643.67,90.0
643.73,72.0
643.8,71.0
643.86,93.0
643.92,79.0
643.99,80.0
644.05,55.0
644.11,70.0
644.17,60.0
644.24,51.0
644.3,46.0
644.36,29.0
644.43,32.0
644.49,49.0
644.55,39.0
644.62,25.0
644.68,29.0
644.74,18.0
644.8,32.0
644.87,23.0
644.93,26.0
644.99,32.0
645.06,24.0
645.12,42.0
645.18,47.0
645.25,30.0
645.31,45.0
645.37,36.0
645.43,36.0
645.5,18.0
645.56,36.0
645.62,57.0
645.69,51.0
645.75,51.0
645.81,55.0
645.88,65.0
645.94,67.0
646.0,56.0
646.06,62.0
646.13,69.0
646.19,75.0
646.25,64.0
646.32,74.0
646.38,71.0
646.44,80.0
646.51,66.0
646.57,69.0
646.63,62.0
646.69,76.0
646.76,59.0
646.82,42.0
646.88,51.0
646.95,61.0
647.01,51.0
647.07,47.0
647.14,52.0
647.2,36.0
647.26,48.0
647.32,28.0
647.39,29.0
647.45,50.0
647.51,77.0
647.58,72.0
647.64,65.0
647.7,79.0
647.77,56.0
647.83,86.0
647.89,73.0
647.95,54.0
648.02,74.0
648.08,80.0
648.14,88.0
648.21,64.0
648.27,68.0
648.33,87.0
648.4,68.0
648.46,88.0
648.52,77.0
648.58,84.0
648.65,80.0
648.71,84.0
648.77,80.0
648.84,89.0
648.9,102.0
648.96,91.0
649.03,74.0
649.09,81.0
649.15,81.0
649.21,76.0
649.28,62.0
649.34,56.0
649.4,55.0
649.47,59.0
649.53,55.0
649.59,53.0
649.66,72.0
649.72,79.0
649.78,100.0
649.84,92.0
649.91,86.0
649.97,90.0
650.03,92.0
650.1,108.0
650.16,119.0
650.22,119.0
650.29,115.0
650.35,99.0
650.41,103.0
650.47,97.0
650.54,84.0
650.6,71.0
650.66,80.0
650.73,80.0
650.79,80.0
650.85,79.0
650.92,89.0
650.98,95.0
651.04,98.0
651.1,113.0
651.17,93.0
651.23,86.0
651.29,93.0
651.36,82.0
651.42,83.0
651.48,77.0
651.55,98.0
651.61,102.0
651.67,124.0
651.73,128.0
651.8,137.0
651.86,122.0
651.92,127.0
651.99,112.0
652.05,117.0
652.11,128.0
652.18,128.0
652.24,134.0
652.3,149.0
652.36,145.0
652.43,130.0
652.49,128.0
652.55,133.0
652.62,150.0
652.68,146.0
652.74,155.0
652.81,167.0
652.87,134.0
652.93,139.0
652.99,135.0
653.06,119.0
653.12,123.0
653.18,127.0
653.25,138.0
653.31,123.0
653.37,137.0
653.44,128.0
653.5,142.0
653.56,154.0
653.62,152.0
653.69,152.0
653.75,145.0
653.81,161.0
653.88,158.0
653.94,175.0
654.0,171.0
654.07,152.0
654.13,168.0
654.19,172.0
654.25,172.0
654.32,167.0
654.38,177.0
654.44,179.0
654.51,166.0
654.57,179.0
654.63,168.0
654.7,179.0
654.76,163.0
654.82,164.0
654.88,158.0
654.95,165.0
655.01,172.0
655.07,162.0
655.14,191.0
655.2,199.0
655.26,196.0
655.33,213.0
655.39,212.0
655.45,201.0
655.51,211.0
655.58,188.0
655.64,201.0
655.7,211.0
655.77,210.0
655.83,192.0
655.89,199.0
655.96,193.0
656.02,198.0
656.08,205.0
656.14,202.0
656.21,200.0
656.27,195.0
656.33,190.0
656.4,186.0
656.46,187.0
656.52,223.0
656.59,205.0
656.65,213.0
656.71,211.0
656.77,213.0
656.84,197.0
656.9,206.0
656.96,202.0
657.03,194.0
657.09,190.0
657.15,211.0
657.22,216.0
657.28,221.0
657.34,221.0
657.4,227.0
657.47,215.0
657.53,188.0
657.59,190.0
657.66,195.0
657.72,189.0
657.78,163.0
657.85,172.0
657.91,165.0
657.97,172.0
658.03,195.0
658.1,169.0
658.16,170.0
658.22,184.0
658.29,175.0
658.35,161.0
658.41,145.0
658.48,152.0
658.54,136.0
658.6,144.0
658.66,144.0
658.73,158.0
658.79,168.0
658.85,150.0
658.92,143.0
658.98,132.0
659.04,146.0
659.11,160.0
659.17,168.0
659.23,147.0
659.29,140.0
659.36,133.0
659.42,154.0
659.48,155.0
659.55,146.0
659.61,142.0
659.67,140.0
659.74,144.0
659.8,149.0
659.86,161.0
659.92,142.0
659.99,146.0
660.05,124.0
660.11,134.0
660.18,137.0
660.24,134.0
660.3,127.0
660.37,125.0
660.43,136.0
660.49,119.0
660.55,135.0
660.62,132.0
660.68,108.0
660.74,112.0
660.81,120.0
660.87,139.0
660.93,133.0
661.0,112.0
661.06,105.0
661.12,117.0
661.18,108.0
661.25,81.0
661.31,102.0
661.37,115.0
661.44,115.0
661.5,113.0
661.56,103.0
661.63,95.0
661.69,78.0
661.75,103.0
661.81,89.0
661.88,97.0
661.94,100.0
662.0,119.0
662.07,114.0
662.13,110.0
662.19,114.0
662.26,100.0
662.32,87.0
662.38,64.0
662.44,89.0
662.51,89.0
662.57,91.0
662.63,106.0
662.7,117.0
662.76,108.0
662.82,117.0
662.89,118.0
662.95,129.0
663.01,114.0
663.07,99.0
663.14,97.0
663.2,98.0
663.26,115.0
663.33,100.0
663.39,102.0
663.45,102.0
663.52,95.0
663.58,111.0
663.64,114.0
663.7,72.0
663.77,99.0
663.83,90.0
663.89,67.0
663.96,84.0
664.02,80.0
664.08,73.0
664.15,65.0
664.21,72.0
664.27,88.0
664.33,71.0
664.4,74.0
664.46,81.0
664.52,82.0
664.59,74.0
664.65,67.0
664.71,84.0
664.78,89.0
664.84,82.0
664.9,81.0
664.96,44.0
665.03,72.0
665.09,72.0
665.15,69.0
665.22,80.0
665.28,57.0
665.34,56.0
665.41,59.0
665.47,64.0
665.53,67.0
665.59,71.0
665.66,64.0
665.72,76.0
665.78,83.0
665.85,73.0
665.91,73.0
665.97,80.0
666.04,112.0
666.1,84.0
666.16,90.0
666.22,75.0
666.29,76.0
666.35,82.0
666.41,81.0
666.48,80.0
666.54,66.0
666.6,69.0
666.67,63.0
666.73,67.0
666.79,76.0
666.85,66.0
666.92,66.0
666.98,68.0
667.04,58.0
667.11,58.0
667.17,62.0
667.23,78.0
667.3,78.0
667.36,72.0
667.42,86.0
667.48,75.0
667.55,74.0
667.61,80.0
667.67,78.0
667.74,76.0
667.8,64.0
667.86,56.0
667.93,44.0
667.99,31.0
668.05,47.0
668.11,47.0
668.18,33.0
668.24,40.0
668.3,54.0
668.37,42.0
668.43,38.0
668.49,39.0
668.56,48.0
668.62,58.0
668.68,63.0
668.74,59.0
668.81,61.0
668.87,48.0
668.93,58.0
669.0,45.0
669.06,47.0
669.12,61.0
669.19,63.0
669.25,55.0
669.31,78.0
669.37,88.0
669.44,70.0
669.5,83.0
669.56,94.0
669.63,76.0
669.69,83.0
669.75,105.0
669.82,98.0
669.88,97.0
669.94,115.0
670.0,111.0
670.07,92.0
670.13,101.0
670.19,101.0
670.26,92.0
670.32,111.0
670.38,104.0
670.45,115.0
670.51,116.0
670.57,117.0
670.63,114.0
670.7,133.0
670.76,122.0
670.82,114.0
670.89,123.0
670.95,114.0
671.01,113.0
671.08,130.0
671.14,127.0
671.2,116.0
671.26,97.0
671.33,102.0
671.39,121.0
671.45,118.0
671.52,105.0
671.58,113.0
671.64,125.0
671.71,119.0
671.77,127.0
671.83,120.0
671.89,128.0
671.96,130.0
672.02,112.0
672.08,115.0
672.15,137.0
672.21,152.0
672.27,149.0
672.34,143.0
672.4,142.0
672.46,141.0
672.52,147.0
672.59,136.0
672.65,154.0
672.71,148.0
672.78,143.0
672.84,133.0
672.9,144.0
672.97,142.0
673.03,127.0
673.09,138.0
673.15,137.0
673.22,132.0
673.28,125.0
673.34,116.0
673.41,128.0
673.47,119.0
673.53,120.0
673.6,133.0
673.66,139.0
673.72,134.0
673.78,132.0
673.85,119.0
673.91,116.0
673.97,110.0
674.04,107.0
674.1,120.0
674.16,113.0
674.23,99.0
674.29,102.0
674.35,131.0
674.41,111.0
674.48,100.0
674.54,119.0
674.6,122.0
674.67,114.0
674.73,98.0
674.79,103.0
674.86,108.0
674.92,111.0
674.98,117.0
675.04,108.0
675.11,101.0
675.17,114.0
675.23,110.0
675.3,86.0
675.36,127.0
675.42,116.0
675.49,133.0
675.55,126.0
675.61,131.0
675.67,141.0
675.74,123.0
675.8,132.0
675.86,125.0
675.93,139.0
675.99,144.0
676.05,142.0
676.12,135.0
676.18,144.0
676.24,136.0
676.3,123.0
676.37,146.0
676.43,145.0
676.49,144.0
676.56,155.0
676.62,126.0
676.68,139.0
676.75,136.0
676.81,141.0
676.87,136.0
676.93,147.0
677.0,143.0
677.06,150.0
677.12,153.0
677.19,130.0
677.25,155.0
677.31,149.0
677.38,150.0
677.44,150.0
677.5,153.0
677.56,150.0
677.63,150.0
677.69,147.0
677.75,132.0
677.82,137.0
677.88,136.0
677.94,143.0
678.01,155.0
678.07,160.0
678.13,154.0
678.19,156.0
678.26,176.0
678.32,151.0
678.38,161.0
678.45,166.0
678.51,147.0
678.57,167.0
678.64,173.0
678.7,187.0
678.76,152.0
678.82,172.0
678.89,172.0
678.95,183.0
679.01,153.0
679.08,156.0
679.14,166.0
679.2,162.0
679.27,175.0
679.33,173.0
679.39,187.0
679.45,185.0
679.52,193.0
679.58,183.0
679.64,146.0
679.71,146.0
679.77,151.0
679.83,173.0
679.9,158.0
679.96,178.0
680.02,197.0
680.08,193.0
680.15,208.0
680.21,209.0
680.27,205.0
680.34,201.0
680.4,218.0
680.46,218.0
680.53,205.0
680.59,201.0
680.65,198.0
680.71,213.0
680.78,215.0
680.84,194.0
680.9,202.0
680.97,195.0
681.03,185.0
681.09,200.0
681.16,220.0
681.22,216.0
681.28,205.0
681.34,204.0
681.41,209.0
681.47,183.0
681.53,175.0
681.6,169.0
681.66,184.0
681.72,183.0
681.79,181.0
681.85,176.0
681.91,180.0
681.97,184.0
682.04,189.0
682.1,182.0
682.16,170.0
682.23,186.0
682.29,183.0
682.35,176.0
682.42,165.0
682.48,165.0
682.54,145.0
682.6,154.0
682.67,155.0
682.73,168.0
682.79,161.0
682.86,144.0
682.92,139.0
682.98,128.0
683.05,138.0
683.11,134.0
683.17,127.0
683.23,113.0
683.3,106.0
683.36,95.0
683.42,106.0
683.49,113.0
683.55,120.0
683.61,86.0
683.68,89.0
683.74,86.0
683.8,94.0
683.86,91.0
683.93,92.0
683.99,91.0
684.05,91.0
684.12,76.0
684.18,80.0
684.24,78.0
684.31,56.0
684.37,62.0
684.43,25.0
684.49,44.0
684.56,69.0
684.62,51.0
684.68,48.0
684.75,38.0
684.81,34.0
684.87,52.0
684.94,47.0
685.0,35.0
685.06,55.0
685.12,70.0
685.19,58.0
685.25,52.0
685.31,50.0
685.38,66.0
685.44,55.0
685.5,62.0
685.57,63.0
685.63,68.0
685.69,59.0
685.75,45.0
685.82,58.0
685.88,66.0
685.94,41.0
686.01,53.0
686.07,58.0
686.13,64.0
686.2,64.0
686.26,68.0
686.32,73.0
686.38,83.0
686.45,95.0
686.51,87.0
686.57,95.0
686.64,102.0
686.7,107.0
686.76,105.0
686.83,109.0
686.89,113.0
686.95,126.0
687.01,100.0
687.08,113.0
687.14,143.0
687.2,141.0
687.27,131.0
687.33,135.0
687.39,144.0
687.46,123.0
687.52,129.0
687.58,151.0
687.64,133.0
687.71,144.0
687.77,147.0
687.83,124.0
687.9,123.0
687.96,113.0
688.02,120.0
688.09,131.0
688.15,117.0
688.21,119.0
688.27,117.0
688.34,119.0
688.4,147.0
688.46,147.0
688.53,142.0
688.59,133.0
688.65,118.0
688.72,149.0
688.78,141.0
688.84,140.0
688.9,127.0
688.97,141.0
689.03,146.0
689.09,146.0
689.16,168.0
689.22,126.0
689.28,135.0
689.35,128.0
689.41,108.0
689.47,117.0
689.53,117.0
689.6,143.0
689.66,152.0
689.72,128.0
689.79,137.0
689.85,142.0
689.91,131.0
689.98,152.0
690.04,131.0
690.1,141.0
690.16,144.0
690.23,122.0
690.29,138.0
690.35,143.0
690.42,120.0
690.48,110.0
690.54,127.0
690.61,131.0
690.67,122.0
690.73,118.0
690.79,122.0
690.86,132.0
690.92,124.0
690.98,117.0
691.05,107.0
691.11,142.0
691.17,116.0
691.24,132.0
691.3,131.0
691.36,141.0
691.42,157.0
691.49,138.0
691.55,127.0
691.61,111.0
691.68,135.0
691.74,100.0
691.8,138.0
691.87,138.0
691.93,140.0
691.99,150.0
692.05,134.0
692.12,139.0
692.18,134.0
692.24,139.0
692.31,144.0
692.37,135.0
692.43,127.0
692.5,111.0
692.56,134.0
692.62,124.0
692.68,121.0
692.75,116.0
692.81,116.0
692.87,117.0
692.94,118.0
693.0,106.0
693.06,107.0
693.13,124.0
693.19,94.0
693.25,80.0
693.31,88.0
693.38,89.0
693.44,79.0
693.5,76.0
693.57,76.0
693.63,100.0
693.69,98.0
693.76,102.0
693.82,87.0
693.88,89.0
693.94,95.0
694.01,105.0
694.07,98.0
694.13,88.0
694.2,91.0
694.26,84.0
694.32,86.0
694.39,83.0
694.45,90.0
694.51,93.0
694.57,80.0
694.64,75.0
694.7,99.0
694.76,97.0
694.83,84.0
694.89,107.0
694.95,105.0
695.02,109.0
695.08,94.0
695.14,98.0
695.2,117.0
695.27,120.0
695.33,101.0
695.39,101.0
695.46,132.0
695.52,111.0
695.58,102.0
695.65,98.0
695.71,90.0
695.77,105.0
695.83,91.0
695.9,93.0
695.96,107.0
696.02,113.0
696.09,111.0
696.15,114.0
696.21,103.0
696.28,117.0
696.34,115.0
696.4,119.0
696.46,125.0
696.53,131.0
696.59,125.0
696.65,130.0
696.72,122.0
696.78,113.0
696.84,120.0
696.91,106.0
696.97,95.0
697.03,87.0
697.09,97.0
697.16,98.0
697.22,91.0
697.28,120.0
697.35,105.0
697.41,129.0
697.47,123.0
697.54,112.0
697.6,125.0
697.66,122.0
697.72,102.0
697.79,87.0
697.85,105.0
697.91,109.0
697.98,111.0
698.04,108.0
698.1,110.0
698.17,116.0
698.23,119.0
698.29,128.0
698.35,128.0
698.42,114.0
698.48,116.0
698.54,98.0
698.61,106.0
698.67,106.0
698.73,95.0
698.8,120.0
698.86,98.0
698.92,81.0
698.98,91.0
699.05,70.0
699.11,68.0
699.17,77.0
699.24,67.0
699.3,78.0
699.36,67.0
699.43,76.0
699.49,96.0
699.55,80.0
699.61,79.0
699.68,72.0
699.74,73.0
699.8,85.0
699.87,79.0
699.93,97.0
699.99,85.0
700.06,75.0
700.12,85.0
700.18,64.0
700.24,48.0
700.31,42.0
700.37,69.0
700.43,54.0
700.5,33.0
700.56,40.0
700.62,30.0
700.69,36.0
700.75,22.0
700.81,27.0
700.87,11.0
700.94,22.0
701.0,15.0
701.06,18.0
701.13,46.0
701.19,20.0
701.25,36.0
701.32,14.0
701.38,32.0
701.44,45.0
701.5,41.0
701.57,39.0
701.63,33.0
701.69,57.0
701.76,52.0
701.82,67.0
701.88,55.0
701.95,58.0
702.01,75.0
702.07,96.0
702.13,84.0
702.2,78.0
702.26,72.0
702.32,84.0
702.39,76.0
702.45,69.0
702.51,76.0
702.58,98.0
702.64,108.0
702.7,83.0
702.76,87.0
702.83,78.0
702.89,96.0
702.95,110.0
703.02,91.0
703.08,83.0
703.14,76.0
703.21,70.0
703.27,73.0
703.33,120.0
703.39,114.0
703.46,130.0
703.52,128.0
703.58,132.0
703.65,131.0
703.71,130.0
703.77,130.0
703.84,158.0
703.9,164.0
703.96,157.0
704.02,168.0
704.09,193.0
704.15,173.0
704.21,171.0
704.28,174.0
704.34,176.0
704.4,193.0
704.47,179.0
704.53,181.0
704.59,184.0
704.65,188.0
704.72,182.0
704.78,183.0
704.84,183.0
704.91,190.0
704.97,180.0
705.03,184.0
705.1,189.0
705.16,191.0
705.22,190.0
705.28,188.0
705.35,201.0
705.41,202.0
705.47,201.0
705.54,200.0
705.6,201.0
705.66,191.0
705.73,225.0
705.79,243.0
705.85,234.0
705.91,229.0
705.98,227.0
706.04,237.0
706.1,267.0
706.17,220.0
706.23,231.0
706.29,232.0
706.36,237.0
706.42,236.0
706.48,229.0
706.54,239.0
706.61,211.0
706.67,244.0
706.73,232.0
706.8,227.0
706.86,231.0
706.92,255.0
706.99,256.0
707.05,268.0
707.11,266.0
707.17,240.0
707.24,247.0
707.3,243.0
707.36,249.0
707.43,251.0
707.49,244.0
707.55,223.0
707.62,243.0
707.68,240.0
707.74,220.0
707.8,236.0
707.87,243.0
707.93,226.0
707.99,222.0
708.06,233.0
708.12,230.0
708.18,213.0
708.25,210.0
708.31,222.0
708.37,214.0
708.43,211.0
708.5,211.0
708.56,196.0
708.62,194.0
708.69,186.0
708.75,188.0
708.81,210.0
708.88,190.0
708.94,178.0
709.0,173.0
709.06,168.0
709.13,190.0
709.19,183.0
709.25,177.0
709.32,173.0
709.38,168.0
709.44,179.0
709.51,172.0
709.57,175.0
709.63,164.0
709.69,162.0
709.76,166.0
709.82,173.0
709.88,165.0
709.95,181.0
710.01,169.0
710.07,175.0
710.14,150.0
710.2,166.0
710.26,146.0
710.32,154.0
710.39,147.0
710.45,148.0
710.51,161.0
710.58,139.0
710.64,146.0
710.7,131.0
710.77,124.0
710.83,120.0
710.89,102.0
710.95,122.0
711.02,132.0
711.08,141.0
711.14,150.0
711.21,157.0
711.27,140.0
711.33,147.0
711.4,155.0
711.46,142.0
711.52,146.0
711.58,126.0
711.65,113.0
711.71,128.0
711.77,156.0
711.84,137.0
711.9,116.0
711.96,126.0
712.03,135.0
712.09,120.0
712.15,115.0
712.21,118.0
712.28,107.0
712.34,110.0
712.4,128.0
712.47,141.0
712.53,124.0
712.59,117.0
712.66,122.0
712.72,122.0
712.78,130.0
712.84,122.0
712.91,134.0
712.97,136.0
713.03,144.0
713.1,153.0
713.16,141.0
713.22,127.0
713.29,135.0
713.35,121.0
713.41,134.0
713.47,138.0
713.54,139.0
713.6,143.0
713.66,150.0
713.73,150.0
713.79,127.0
713.85,133.0
713.92,153.0
713.98,144.0
714.04,133.0
714.1,120.0
714.17,118.0
714.23,120.0
714.29,108.0
714.36,100.0
714.42,117.0
714.48,131.0
714.55,141.0
714.61,140.0
714.67,155.0
714.73,153.0
714.8,141.0
714.86,139.0
714.92,150.0
714.99,148.0
715.05,142.0
715.11,131.0
715.18,141.0
715.24,136.0
715.3,102.0
715.36,97.0
715.43,98.0
715.49,107.0
715.55,118.0
715.62,133.0
715.68,133.0
715.74,116.0
715.81,116.0
715.87,103.0
715.93,115.0
715.99,127.0
716.06,106.0
716.12,84.0
716.18,107.0
716.25,100.0
716.31,125.0
716.37,112.0
716.44,108.0
716.5,85.0
716.56,78.0
716.62,108.0
716.69,91.0
716.75,92.0
716.81,104.0
716.88,73.0
716.94,87.0
717.0,63.0
717.07,87.0
717.13,89.0
717.19,79.0
717.25,92.0
717.32,72.0
717.38,87.0
717.44,87.0
717.51,67.0
717.57,66.0
717.63,62.0
717.7,62.0
717.76,58.0
717.82,51.0
717.88,42.0
717.95,49.0
718.01,60.0
718.07,45.0
718.14,67.0
718.2,65.0
718.26,53.0
718.33,37.0
718.39,51.0
718.45,46.0
718.51,52.0
718.58,41.0
718.64,37.0
718.7,56.0
718.77,32.0
718.83,54.0
718.89,39.0
718.96,22.0
719.02,35.0
719.08,30.0
719.14,30.0
719.21,22.0
719.27,20.0
719.33,20.0
719.4,14.0
719.46,26.0
719.52,38.0
719.59,18.0
719.65,2.0
719.71,18.0
719.77,16.0
719.84,32.0
719.9,40.0
719.96,37.0
720.03,35.0
720.09,36.0
720.15,46.0
720.22,39.0
720.28,25.0
720.34,29.0
720.4,15.0
720.47,33.0
720.53,45.0
720.59,40.0
720.66,47.0
720.72,60.0
720.78,40.0
720.85,64.0
720.91,68.0
720.97,65.0
721.03,58.0
721.1,65.0
721.16,62.0
721.22,72.0
721.29,88.0
721.35,63.0
721.41,78.0
721.48,82.0
721.54,89.0
721.6,74.0
721.66,72.0
721.73,81.0
721.79,82.0
721.85,99.0
721.92,102.0
721.98,106.0
722.04,106.0
722.11,125.0
722.17,114.0
722.23,126.0
722.29,119.0
722.36,103.0
722.42,119.0
722.48,103.0
722.55,113.0
722.61,120.0
722.67,130.0
722.74,121.0
722.8,138.0
722.86,135.0
722.92,119.0
722.99,116.0
723.05,101.0
723.11,103.0
723.18,120.0
723.24,118.0
723.3,122.0
723.37,125.0
723.43,122.0
723.49,133.0
723.55,121.0
723.62,133.0
723.68,138.0
723.74,142.0
723.81,130.0
723.87,139.0
723.93,134.0
724.0,138.0
724.06,136.0
724.12,127.0
724.18,127.0
724.25,130.0
724.31,139.0
724.37,156.0
724.44,154.0
724.5,168.0
724.56,147.0
724.63,140.0
724.69,157.0
724.75,141.0
724.81,157.0
724.88,160.0
724.94,162.0
725.0,152.0
725.07,149.0
725.13,156.0
725.19,132.0
725.26,126.0
725.32,131.0
725.38,125.0
725.44,127.0
725.51,127.0
725.57,120.0
725.63,104.0
725.7,111.0
725.76,118.0
725.82,117.0
725.89,122.0
725.95,109.0
726.01,95.0
726.07,99.0
726.14,99.0
726.2,95.0
726.26,94.0
726.33,91.0
726.39,105.0
726.45,91.0
726.52,89.0
726.58,108.0
726.64,119.0
726.7,110.0
726.77,91.0
726.83,99.0
726.89,97.0
726.96,86.0
727.02,101.0
727.08,80.0
727.15,99.0
727.21,81.0
727.27,82.0
727.33,75.0
727.4,99.0
727.46,95.0
727.52,108.0
727.59,106.0
727.65,110.0
727.71,109.0
727.78,122.0
727.84,128.0
727.9,123.0
727.96,126.0
728.03,119.0
728.09,120.0
728.15,112.0
728.22,112.0
728.28,122.0
728.34,130.0
728.41,135.0
728.47,156.0
728.53,138.0
728.59,155.0
728.66,147.0
728.72,147.0
728.78,150.0
728.85,128.0
728.91,109.0
728.97,127.0
729.04,102.0
729.1,124.0
729.16,136.0
729.22,135.0
729.29,135.0
729.35,138.0
729.41,150.0
729.48,150.0
729.54,148.0
729.6,152.0
729.67,150.0
729.73,168.0
729.79,161.0
729.85,163.0
729.92,180.0
729.98,164.0
730.04,163.0
730.11,139.0
730.17,153.0
730.23,150.0
730.3,143.0
730.36,167.0
730.42,157.0
730.48,178.0
730.55,183.0
730.61,168.0
730.67,155.0
730.74,148.0
730.8,168.0
730.86,209.0
730.93,191.0
730.99,158.0
731.05,170.0
731.11,168.0
731.18,183.0
731.24,203.0
731.3,194.0
731.37,214.0
731.43,190.0
731.49,193.0
731.56,189.0
731.62,191.0
731.68,187.0
731.74,175.0
731.81,162.0
731.87,171.0
731.93,179.0
732.0,182.0
732.06,194.0
732.12,191.0
732.19,180.0
732.25,201.0
732.31,198.0
732.37,195.0
732.44,190.0
732.5,173.0
732.56,150.0
732.63,147.0
732.69,184.0
732.75,160.0
732.82,173.0
732.88,169.0
732.94,169.0
733.0,179.0
733.07,160.0
733.13,168.0
733.19,166.0
733.26,132.0
733.32,152.0
733.38,136.0
733.45,151.0
733.51,165.0
733.57,167.0
733.63,160.0
733.7,142.0
733.76,169.0
733.82,174.0
733.89,166.0
733.95,160.0
734.01,157.0
734.08,151.0
734.14,148.0
734.2,141.0
734.26,117.0
734.33,148.0
734.39,139.0
734.45,133.0
734.52,132.0
734.58,115.0
734.64,136.0
734.71,137.0
734.77,143.0
734.83,110.0
734.89,117.0
734.96,122.0
735.02,102.0
735.08,101.0
735.15,106.0
735.21,73.0
735.27,95.0
735.34,88.0
735.4,97.0
735.46,100.0
735.52,112.0
735.59,101.0
735.65,100.0
735.71,105.0
735.78,102.0
735.84,106.0
735.9,131.0
735.97,97.0
736.03,92.0
736.09,101.0
736.15,94.0
736.22,98.0
736.28,87.0
736.34,69.0
736.41,94.0
736.47,82.0
736.53,73.0
736.6,80.0
736.66,105.0
736.72,94.0
736.78,97.0
736.85,113.0
736.91,126.0
736.97,105.0
737.04,114.0
737.1,112.0
737.16,131.0
737.23,124.0
737.29,125.0
737.35,142.0
737.41,124.0
737.48,117.0
737.54,135.0
737.6,126.0
737.67,119.0
737.73,152.0
737.79,161.0
737.86,159.0
737.92,172.0
737.98,186.0
738.04,158.0
738.11,160.0
738.17,157.0
738.23,152.0
738.3,158.0
738.36,138.0
738.42,146.0
738.49,150.0
738.55,144.0
738.61,156.0
738.67,163.0
738.74,165.0
738.8,168.0
738.86,161.0
738.93,154.0
738.99,133.0
739.05,135.0
739.12,152.0
739.18,131.0
739.24,154.0
739.3,157.0
739.37,158.0
739.43,174.0
739.49,193.0
739.56,198.0
739.62,186.0
739.68,180.0
739.75,191.0
739.81,182.0
739.87,197.0
739.93,207.0
740.0,215.0
740.06,209.0
740.12,202.0
740.19,210.0
740.25,197.0
740.31,175.0
740.38,174.0
740.44,174.0
740.5,205.0
740.56,199.0
740.63,183.0
740.69,176.0
740.75,165.0
740.82,180.0
740.88,161.0
740.94,164.0
741.01,176.0
741.07,168.0
741.13,186.0
741.19,193.0
741.26,175.0
741.32,173.0
741.38,168.0
741.45,179.0
741.51,154.0
741.57,156.0
741.64,183.0
741.7,165.0
741.76,165.0
741.82,151.0
741.89,150.0
741.95,176.0
742.01,163.0
742.08,164.0
742.14,182.0
742.2,174.0
742.27,164.0
742.33,149.0
742.39,166.0
742.45,200.0
742.52,160.0
742.58,190.0
742.64,175.0
742.71,168.0
742.77,189.0
742.83,169.0
742.9,161.0
742.96,163.0
743.02,154.0
743.08,145.0
743.15,160.0
743.21,144.0
743.27,129.0
743.34,127.0
743.4,126.0
743.46,121.0
743.53,145.0
743.59,107.0
743.65,122.0
743.71,150.0
743.78,138.0
743.84,139.0
743.9,117.0
743.97,109.0
744.03,113.0
744.09,122.0
744.16,124.0
744.22,111.0
744.28,97.0
744.34,102.0
744.41,116.0
744.47,121.0
744.53,108.0
744.6,92.0
744.66,100.0
744.72,95.0
744.79,124.0
744.85,129.0
744.91,95.0
744.97,100.0
745.04,114.0
745.1,124.0
745.16,109.0
745.23,111.0
745.29,112.0
745.35,102.0
745.42,113.0
745.48,105.0
745.54,81.0
745.6,95.0
745.67,69.0
745.73,83.0
745.79,69.0
745.86,71.0
745.92,75.0
745.98,67.0
746.05,69.0
746.11,66.0
746.17,60.0
746.23,57.0
746.3,100.0
746.36,109.0
746.42,105.0
746.49,105.0
746.55,110.0
746.61,112.0
746.68,101.0
746.74,109.0
746.8,115.0
746.86,89.0
746.93,108.0
746.99,111.0
747.05,113.0
747.12,116.0
747.18,109.0
747.24,124.0
747.31,104.0
747.37,91.0
747.43,111.0
747.49,124.0
747.56,115.0
747.62,115.0
747.68,116.0
747.75,94.0
747.81,114.0
747.87,131.0
747.94,118.0
748.0,108.0
748.06,114.0
748.12,109.0
748.19,103.0
748.25,93.0
748.31,113.0
748.38,109.0
748.44,98.0
748.5,120.0
748.57,109.0
748.63,135.0
748.69,135.0
748.75,128.0
748.82,104.0
748.88,110.0
748.94,121.0
749.01,124.0
749.07,137.0
749.13,139.0
749.2,117.0
749.26,109.0
749.32,110.0
749.38,113.0
749.45,106.0
749.51,84.0
749.57,100.0
749.64,86.0
749.7,73.0
749.76,79.0
749.83,73.0
749.89,91.0
749.95,69.0
750.01,82.0
750.08,58.0
750.14,62.0
750.2,59.0
750.27,53.0
750.33,67.0
750.39,51.0
750.46,61.0
750.52,40.0
750.58,40.0
750.64,73.0
750.71,53.0
750.77,53.0
750.83,64.0
750.9,62.0
750.96,77.0
751.02,54.0
751.09,46.0
751.15,45.0
751.21,25.0
751.27,22.0
751.34,36.0
751.4,24.0
751.46,14.0
751.53,2.0
751.59,-3.0
751.65,28.0
751.72,20.0
751.78,17.0
751.84,14.0
751.9,9.0
751.97,4.0
752.03,6.0
752.09,15.0
752.16,19.0
752.22,4.0
752.28,2.0
752.35,5.0
752.41,2.0
752.47,26.0
752.53,25.0
752.6,10.0
752.66,6.0
752.72,10.0
752.79,28.0
752.85,42.0
752.91,14.0
752.98,32.0
753.04,39.0
753.1,19.0
753.16,44.0
753.23,32.0
753.29,40.0
753.35,42.0
753.42,36.0
753.48,45.0
753.54,27.0
753.61,42.0
753.67,47.0
753.73,40.0
753.79,65.0
753.86,62.0
753.92,48.0
753.98,69.0
754.05,68.0
754.11,78.0
754.17,72.0
754.24,75.0
754.3,86.0
754.36,97.0
754.42,83.0
754.49,92.0
754.55,109.0
754.61,105.0
754.68,96.0
754.74,83.0
754.8,90.0
754.87,81.0
754.93,95.0
754.99,94.0
755.05,103.0
755.12,119.0
755.18,116.0
755.24,135.0
755.31,138.0
755.37,139.0
755.43,157.0
755.5,144.0
755.56,114.0
755.62,125.0
755.68,128.0
755.75,153.0
755.81,140.0
755.87,137.0
755.94,154.0
756.0,145.0
756.06,136.0
756.13,153.0
756.19,142.0
756.25,151.0
756.31,158.0
756.38,159.0
756.44,161.0
756.5,158.0
756.57,144.0
756.63,128.0
756.69,130.0
756.76,101.0
756.82,122.0
756.88,119.0
756.94,128.0
757.01,138.0
757.07,116.0
757.13,118.0
757.2,112.0
757.26,117.0
757.32,122.0
757.39,115.0
757.45,122.0
757.51,127.0
757.57,127.0
757.64,117.0
757.7,122.0
757.76,151.0
757.83,139.0
757.89,143.0
757.95,118.0
758.02,145.0
758.08,141.0
758.14,139.0
758.2,130.0
758.27,153.0
758.33,156.0
758.39,153.0
758.46,147.0
758.52,130.0
758.58,168.0
758.65,163.0
758.71,153.0
758.77,158.0
758.83,163.0
758.9,157.0
758.96,169.0
759.02,154.0
759.09,164.0
759.15,153.0
759.21,153.0
759.28,177.0
759.34,171.0
759.4,189.0
759.46,158.0
759.53,158.0
759.59,178.0
759.65,168.0
759.72,179.0
759.78,141.0
759.84,164.0
759.91,153.0
759.97,170.0
760.03,145.0
760.09,154.0
760.16,158.0
760.22,145.0
760.28,146.0
760.35,145.0
760.41,158.0
760.47,145.0
760.54,143.0
760.6,164.0
760.66,142.0
760.72,147.0
760.79,117.0
760.85,116.0
760.91,105.0
760.98,118.0
761.04,102.0
761.1,100.0
761.17,119.0
761.23,124.0
761.29,116.0
761.35,100.0
761.42,102.0
761.48,119.0
761.54,122.0
761.61,117.0
761.67,126.0
761.73,131.0
761.8,146.0
761.86,145.0
761.92,132.0
761.98,138.0
762.05,153.0
762.11,140.0
762.17,125.0
762.24,116.0
762.3,122.0
762.36,138.0
762.43,148.0
762.49,134.0
762.55,139.0
762.61,139.0
762.68,146.0
762.74,160.0
762.8,168.0
762.87,167.0
762.93,163.0
762.99,163.0
763.06,145.0
763.12,135.0
763.18,120.0
763.24,139.0
763.31,134.0
763.37,142.0
763.43,133.0
763.5,140.0
763.56,152.0
763.62,134.0
763.69,136.0
763.75,148.0
763.81,144.0
763.87,155.0
763.94,153.0
764.0,167.0
764.06,164.0
764.13,174.0
764.19,169.0
764.25,164.0
764.32,171.0
764.38,175.0
764.44,173.0
764.5,182.0
764.57,187.0
764.63,170.0
764.69,174.0
764.76,161.0
764.82,170.0
764.88,163.0
764.95,142.0
765.01,167.0
765.07,167.0
765.13,175.0
765.2,163.0
765.26,160.0
765.32,171.0
765.39,152.0
765.45,144.0
765.51,163.0
765.58,149.0
765.64,161.0
765.7,158.0
765.76,149.0
765.83,151.0
765.89,153.0
765.95,134.0
766.02,137.0
766.08,149.0
766.14,142.0
766.21,138.0
766.27,155.0
766.33,138.0
766.39,128.0
766.46,137.0
766.52,146.0
766.58,135.0
766.65,134.0
766.71,129.0
766.77,132.0
766.84,119.0
766.9,122.0
766.96,130.0
767.02,125.0
767.09,115.0
767.15,106.0
767.21,110.0
767.28,105.0
767.34,111.0
767.4,90.0
767.47,122.0
767.53,98.0
767.59,101.0
767.65,119.0
767.72,102.0
767.78,100.0
767.84,84.0
767.91,83.0
767.97,69.0
768.03,61.0
768.1,69.0
768.16,68.0
768.22,55.0
768.28,58.0
768.35,65.0
768.41,66.0
768.47,79.0
768.54,69.0
768.6,58.0
768.66,71.0
768.73,51.0
768.79,51.0
768.85,65.0
768.91,61.0
768.98,59.0
769.04,56.0
769.1,64.0
769.17,57.0
769.23,46.0
769.29,43.0
769.36,46.0
769.42,50.0
769.48,62.0
769.54,46.0
769.61,40.0
769.67,48.0
769.73,51.0
769.8,50.0
769.86,65.0
769.92,52.0
769.99,39.0
770.05,53.0
770.11,66.0
770.17,56.0
770.24,71.0
770.3,83.0
770.36,70.0
770.43,84.0
770.49,89.0
770.55,100.0
770.62,86.0
770.68,88.0
770.74,94.0
770.8,89.0
770.87,101.0
770.93,89.0
770.99,82.0
771.06,79.0
771.12,84.0
771.18,101.0
771.25,100.0
771.31,107.0
771.37,108.0
771.43,110.0
771.5,112.0
771.56,116.0
771.62,111.0
771.69,114.0
771.75,111.0
771.81,116.0
771.88,108.0
771.94,105.0
772.0,121.0
772.06,136.0
772.13,124.0
772.19,107.0
772.25,111.0
772.32,129.0
772.38,122.0
772.44,137.0
772.51,119.0
772.57,119.0
772.63,135.0
772.69,130.0
772.76,131.0
772.82,117.0
772.88,120.0
772.95,130.0
773.01,135.0
773.07,149.0
773.14,140.0
773.2,156.0
773.26,170.0
773.32,152.0
773.39,155.0
773.45,152.0
773.51,145.0
773.58,146.0
773.64,141.0
773.7,134.0
773.77,135.0
773.83,142.0
773.89,150.0
773.95,139.0
774.02,126.0
774.08,139.0
774.14,148.0
774.21,150.0
774.27,146.0
774.33,154.0
774.4,150.0
774.46,153.0
774.52,169.0
774.58,173.0
774.65,184.0
774.71,169.0
774.77,182.0
774.84,178.0
774.9,177.0
774.96,180.0
775.03,168.0
775.09,172.0
775.15,171.0
775.21,199.0
775.28,193.0
775.34,172.0
775.4,162.0
775.47,175.0
775.53,163.0
775.59,155.0
775.66,131.0
775.72,168.0
775.78,163.0
775.84,157.0
775.91,161.0
775.97,149.0
776.03,165.0
776.1,153.0
776.16,157.0
776.22,127.0
776.29,142.0
776.35,150.0
776.41,136.0
776.47,143.0
776.54,149.0
776.6,140.0
776.66,160.0
776.73,131.0
776.79,135.0
776.85,138.0
776.92,131.0
776.98,127.0
777.04,109.0
777.1,136.0
777.17,121.0
777.23,111.0
777.29,117.0
777.36,118.0
777.42,111.0
777.48,112.0
777.55,121.0
777.61,136.0
777.67,124.0
777.73,143.0
777.8,144.0
777.86,142.0
777.92,146.0
777.99,150.0
778.05,133.0
778.11,135.0
778.18,134.0
778.24,136.0
778.3,141.0
778.36,128.0
778.43,137.0
778.49,132.0
778.55,138.0
778.62,139.0
778.68,135.0
778.74,138.0
778.81,132.0
778.87,139.0
778.93,141.0
778.99,144.0
779.06,133.0
779.12,136.0
779.18,116.0
779.25,127.0
779.31,126.0
779.37,111.0
779.44,125.0
779.5,112.0
779.56,133.0
779.62,137.0
779.69,133.0
779.75,125.0
779.81,125.0
779.88,136.0
779.94,126.0
780.0,115.0
780.07,119.0
780.13,127.0
780.19,111.0
780.25,105.0
780.32,117.0
780.38,101.0
780.44,139.0
780.51,142.0
780.57,126.0
780.63,117.0
780.7,116.0
780.76,117.0
780.82,148.0
780.88,148.0
780.95,162.0
781.01,163.0
781.07,142.0
781.14,136.0
781.2,145.0
781.26,154.0
781.33,153.0
781.39,166.0
781.45,164.0
781.51,169.0
781.58,156.0
781.64,166.0
781.7,164.0
781.77,156.0
781.83,163.0
781.89,160.0
781.96,148.0
782.02,160.0
782.08,144.0
782.14,152.0
782.21,147.0
782.27,173.0
782.33,167.0
782.4,145.0
782.46,160.0
782.52,139.0
782.59,137.0
782.65,138.0
782.71,145.0
782.77,116.0
782.84,122.0
782.9,138.0
782.96,146.0
783.03,154.0
783.09,127.0
783.15,130.0
783.22,142.0
783.28,140.0
783.34,109.0
783.4,134.0
783.47,141.0
783.53,147.0
783.59,137.0
783.66,134.0
783.72,142.0
783.78,103.0
783.85,124.0
783.91,108.0
783.97,102.0
784.03,124.0
784.1,123.0
784.16,111.0
784.22,123.0
784.29,123.0
784.35,124.0
784.41,116.0
784.48,128.0
784.54,131.0
784.6,101.0
784.66,91.0
784.73,128.0
784.79,92.0
784.85,103.0
784.92,93.0
784.98,89.0
785.04,100.0
785.11,77.0
785.17,90.0
785.23,93.0
785.29,97.0
785.36,113.0
785.42,108.0
785.48,116.0
785.55,134.0
785.61,118.0
785.67,103.0
785.74,105.0
785.8,126.0
785.86,111.0
785.92,99.0
785.99,102.0
786.05,105.0
786.11,108.0
786.18,95.0
786.24,103.0
786.3,66.0
786.37,79.0
786.43,121.0
786.49,96.0
786.55,111.0
786.62,98.0
786.68,108.0
786.74,101.0
786.81,97.0
786.87,102.0
786.93,90.0
787.0,96.0
787.06,108.0
787.12,103.0
787.18,103.0
787.25,100.0
787.31,105.0
787.37,105.0
787.44,120.0
787.5,122.0
787.56,134.0
787.63,126.0
787.69,127.0
787.75,140.0
787.81,115.0
787.88,138.0
787.94,142.0
788.0,132.0
788.07,154.0
788.13,152.0
788.19,134.0
788.26,137.0
788.32,160.0
788.38,161.0
788.44,169.0
788.51,177.0
788.57,161.0
788.63,152.0
788.7,130.0
788.76,147.0
788.82,157.0
788.89,151.0
788.95,154.0
789.01,153.0
789.07,145.0
789.14,146.0
789.2,150.0
789.26,153.0
789.33,160.0
789.39,156.0
789.45,125.0
789.52,139.0
789.58,159.0
789.64,156.0
789.7,177.0
789.77,164.0
789.83,161.0
789.89,173.0
789.96,172.0
790.02,164.0
790.08,162.0
790.15,165.0
790.21,161.0
790.27,178.0
790.33,203.0
790.4,182.0
790.46,181.0
790.52,160.0
790.59,165.0
790.65,175.0
790.71,187.0
790.78,190.0
790.84,186.0
790.9,202.0
790.96,192.0
791.03,186.0
791.09,193.0
791.15,164.0
791.22,162.0
791.28,155.0
791.34,168.0
791.41,164.0
791.47,163.0
791.53,194.0
791.59,190.0
791.66,184.0
791.72,178.0
791.78,186.0
791.85,174.0
791.91,190.0
791.97,201.0
792.04,206.0
792.1,182.0
792.16,194.0
792.22,200.0
792.29,194.0
792.35,216.0
792.41,197.0
792.48,179.0
792.54,205.0
792.6,183.0
792.67,166.0
792.73,178.0
792.79,193.0
792.85,181.0
792.92,179.0
792.98,167.0
793.04,172.0
793.11,173.0
793.17,182.0
793.23,171.0
793.3,170.0
793.36,170.0
793.42,153.0
793.48,140.0
793.55,149.0
793.61,144.0
793.67,156.0
793.74,150.0
793.8,141.0
793.86,142.0
793.93,139.0
793.99,153.0
794.05,130.0
794.11,142.0
794.18,146.0
794.24,154.0
794.3,145.0
794.37,159.0
794.43,147.0
794.49,154.0
794.56,146.0
794.62,123.0
794.68,128.0
794.74,134.0
794.81,129.0
794.87,135.0
794.93,120.0
795.0,119.0
795.06,119.0
795.12,128.0
795.19,149.0
795.25,140.0
795.31,157.0
795.37,167.0
795.44,163.0
795.5,183.0
795.56,151.0
795.63,161.0
795.69,159.0
795.75,173.0
795.82,158.0
795.88,142.0
795.94,160.0
796.0,166.0
796.07,165.0
796.13,175.0
796.19,153.0
796.26,164.0
796.32,187.0
796.38,173.0
796.45,155.0
796.51,165.0
796.57,156.0
796.63,142.0
796.7,168.0
796.76,154.0
796.82,171.0
796.89,165.0
796.95,170.0
797.01,153.0
797.08,149.0
797.14,138.0
797.2,148.0
797.26,165.0
797.33,155.0
797.39,137.0
797.45,130.0
797.52,132.0
797.58,123.0
797.64,140.0
797.71,114.0
797.77,145.0
797.83,150.0
797.89,126.0
797.96,149.0
798.02,127.0
798.08,129.0
798.15,132.0
798.21,138.0
798.27,118.0
798.34,129.0
798.4,119.0
798.46,119.0
798.52,122.0
798.59,128.0
798.65,124.0
798.71,135.0
798.78,109.0
798.84,128.0
798.9,133.0
798.97,122.0
799.03,112.0
799.09,108.0
799.15,109.0
799.22,102.0
799.28,120.0
799.34,109.0
799.41,125.0
799.47,101.0
799.53,117.0
799.6,128.0
799.66,118.0
799.72,115.0
799.78,120.0
799.85,129.0
799.91,116.0
799.97,128.0
800.04,98.0
800.1,110.0
800.16,100.0
800.23,86.0
800.29,98.0
800.35,90.0
800.41,96.0
800.48,92.0
800.54,90.0
800.6,91.0
800.67,113.0
800.73,82.0
800.79,95.0
800.86,89.0
800.92,78.0
800.98,93.0
801.04,90.0
801.11,98.0
801.17,77.0
801.23,86.0
801.3,76.0
801.36,73.0
801.42,80.0
801.49,66.0
801.55,65.0
801.61,80.0
801.67,70.0
801.74,87.0
801.8,85.0
801.86,98.0
801.93,92.0
801.99,95.0
802.05,88.0
802.12,83.0
802.18,94.0
802.24,92.0
802.3,76.0
802.37,85.0
802.43,108.0
802.49,104.0
802.56,105.0
802.62,106.0
802.68,86.0
802.75,87.0
802.81,101.0
802.87,109.0
802.93,87.0
803.0,67.0
803.06,72.0
803.12,76.0
803.19,92.0
803.25,79.0
803.31,59.0
803.38,76.0
803.44,67.0
803.5,61.0
803.56,60.0
803.63,71.0
803.69,67.0
803.75,55.0
803.82,73.0
803.88,82.0
803.94,105.0
804.01,66.0
804.07,67.0
804.13,71.0
804.19,83.0
804.26,90.0
804.32,80.0
804.38,83.0
804.45,72.0
804.51,84.0
804.57,71.0
804.64,79.0
804.7,81.0
804.76,83.0
804.82,94.0
804.89,111.0
804.95,67.0
805.01,58.0
805.08,69.0
805.14,78.0
805.2,88.0
805.27,87.0
805.33,99.0
805.39,105.0
805.45,85.0
805.52,97.0
805.58,114.0
805.64,108.0
805.71,92.0
805.77,72.0
805.83,87.0
805.9,98.0
805.96,87.0
806.02,100.0
806.08,118.0
806.15,112.0
806.21,120.0
806.27,130.0
806.34,132.0
806.4,131.0
806.46,124.0
806.53,135.0
806.59,155.0
806.65,162.0
806.71,146.0
806.78,128.0
806.84,130.0
806.9,138.0
806.97,95.0
807.03,105.0
807.09,119.0
807.16,108.0
807.22,122.0
807.28,122.0
807.34,120.0
807.41,140.0
807.47,140.0
807.53,128.0
807.6,133.0
807.66,131.0
807.72,157.0
807.79,157.0
807.85,142.0
807.91,140.0
807.97,150.0
808.04,127.0
808.1,120.0
808.16,136.0
808.23,124.0
808.29,134.0
808.35,135.0
808.42,126.0
808.48,129.0
808.54,126.0
808.6,117.0
808.67,116.0
808.73,110.0
808.79,105.0
808.86,100.0
808.92,93.0
808.98,116.0
809.05,120.0
809.11,109.0
809.17,120.0
809.23,112.0
809.3,109.0
809.36,101.0
809.42,141.0
809.49,130.0
809.55,137.0
809.61,127.0
809.68,141.0
809.74,133.0
809.8,140.0
809.86,119.0
809.93,121.0
809.99,123.0
810.05,111.0
810.12,113.0
810.18,128.0
810.24,138.0
810.31,135.0
810.37,124.0
810.43,145.0
810.49,135.0
810.56,112.0
810.62,106.0
810.68,114.0
810.75,113.0
810.81,109.0
810.87,106.0
810.94,105.0
811.0,109.0
811.06,85.0
811.12,105.0
811.19,109.0
811.25,104.0
811.31,110.0
811.38,126.0
811.44,116.0
811.5,109.0
811.57,106.0
811.63,103.0
811.69,95.0
811.75,86.0
811.82,87.0
811.88,87.0
811.94,74.0
812.01,75.0
812.07,70.0
812.13,82.0
812.2,73.0
812.26,82.0
812.32,89.0
812.38,94.0
812.45,82.0
812.51,95.0
812.57,95.0
812.64,93.0
812.7,106.0
812.76,108.0
812.83,103.0
812.89,103.0
812.95,100.0
813.01,86.0
813.08,105.0
813.14,115.0
813.2,105.0
813.27,119.0
813.33,127.0
813.39,138.0
813.46,132.0
813.52,120.0
813.58,124.0
813.64,116.0
813.71,127.0
813.77,142.0
813.83,149.0
813.9,150.0
813.96,131.0
814.02,124.0
814.09,127.0
814.15,123.0
814.21,121.0
814.27,123.0
814.34,112.0
814.4,130.0
814.46,119.0
814.53,142.0
814.59,133.0
814.65,139.0
814.72,131.0
814.78,131.0
814.84,139.0
814.9,117.0
814.97,125.0
815.03,145.0
815.09,133.0
815.16,134.0
815.22,136.0
815.28,134.0
815.35,142.0
815.41,147.0
815.47,152.0
815.53,144.0
815.6,142.0
815.66,139.0
815.72,137.0
815.79,134.0
815.85,147.0
815.91,135.0
815.98,126.0
816.04,127.0
816.1,114.0
816.16,142.0
816.23,120.0
816.29,126.0
816.35,121.0
816.42,111.0
816.48,114.0
816.54,115.0
816.61,100.0
816.67,113.0
816.73,114.0
816.79,119.0
816.86,116.0
816.92,94.0
816.98,103.0
817.05,97.0
817.11,103.0
817.17,113.0
817.24,106.0
817.3,113.0
817.36,100.0
817.42,102.0
817.49,102.0
817.55,106.0
817.61,86.0
817.68,77.0
817.74,66.0
817.8,87.0
817.87,77.0
817.93,90.0
817.99,79.0
818.05,75.0
818.12,82.0
818.18,76.0
818.24,72.0
818.31,66.0
818.37,60.0
818.43,78.0
818.5,61.0
818.56,69.0
818.62,79.0
818.68,73.0
818.75,68.0
818.81,56.0
818.87,61.0
818.94,64.0
819.0,67.0
819.06,70.0
819.13,63.0
819.19,65.0
819.25,67.0
819.31,77.0
819.38,70.0
819.44,82.0
819.5,75.0
819.57,54.0
819.63,59.0
819.69,65.0
819.76,42.0
819.82,42.0
819.88,58.0
819.94,60.0
820.01,40.0
820.07,59.0
820.13,40.0
820.2,40.0
820.26,50.0
820.32,46.0
820.39,49.0
820.45,57.0
820.51,76.0
820.57,79.0
820.64,76.0
820.7,58.0
820.76,76.0
820.83,70.0
820.89,65.0
820.95,84.0
821.02,78.0
821.08,81.0
821.14,92.0
821.2,98.0
821.27,75.0
821.33,89.0
821.39,109.0
821.46,116.0
821.52,125.0
821.58,130.0
821.65,118.0
821.71,106.0
821.77,101.0
821.83,108.0
821.9,108.0
821.96,109.0
822.02,105.0
822.09,120.0
822.15,107.0
822.21,105.0
822.28,114.0
822.34,131.0
822.4,131.0
822.46,139.0
822.53,156.0
822.59,149.0
822.65,152.0
822.72,145.0
822.78,133.0
822.84,135.0
822.91,141.0
822.97,147.0
823.03,145.0
823.09,166.0
823.16,153.0
823.22,140.0
823.28,143.0
823.35,139.0
823.41,131.0
823.47,138.0
823.54,160.0
823.6,150.0
823.66,141.0
823.72,153.0
823.79,153.0
823.85,153.0
823.91,163.0
823.98,165.0
824.04,159.0
824.1,136.0
824.17,143.0
824.23,151.0
824.29,160.0
824.35,156.0
824.42,155.0
824.48,160.0
824.54,140.0
824.61,167.0
824.67,153.0
824.73,169.0
824.8,152.0
824.86,157.0
824.92,168.0
824.98,168.0
825.05,157.0
825.11,150.0
825.17,168.0
825.24,189.0
825.3,180.0
825.36,194.0
825.43,176.0
825.49,166.0
825.55,173.0
825.61,150.0
825.68,177.0
825.74,157.0
825.8,169.0
825.87,181.0
825.93,162.0
825.99,189.0
826.06,161.0
826.12,174.0
826.18,180.0
826.24,164.0
826.31,193.0
826.37,169.0
826.43,171.0
826.5,159.0
826.56,149.0
826.62,160.0
826.69,149.0
826.75,166.0
826.81,170.0
826.87,158.0
826.94,154.0
827.0,171.0
827.06,143.0
827.13,150.0
827.19,159.0
827.25,156.0
827.32,159.0
827.38,138.0
827.44,134.0
827.5,142.0
827.57,138.0
827.63,138.0
827.69,115.0
827.76,135.0
827.82,140.0
827.88,131.0
827.95,125.0
828.01,123.0
828.07,106.0
828.13,110.0
828.2,117.0
828.26,125.0
828.32,134.0
828.39,108.0
828.45,92.0
828.51,107.0
828.58,108.0
828.64,110.0
828.7,129.0
828.76,116.0
828.83,98.0
828.89,116.0
828.95,105.0
829.02,119.0
829.08,124.0
829.14,127.0
829.21,133.0
829.27,147.0
829.33,139.0
829.39,147.0
829.46,143.0
829.52,140.0
829.58,139.0
829.65,139.0
829.71,127.0
829.77,134.0
829.84,149.0
829.9,137.0
829.96,146.0
830.02,152.0
830.09,142.0
830.15,132.0
830.21,127.0
830.28,130.0
830.34,155.0
830.4,149.0
830.47,147.0
830.53,144.0
830.59,134.0
830.65,155.0
830.72,131.0
830.78,135.0
830.84,127.0
830.91,124.0
830.97,154.0
831.03,150.0
831.1,133.0
831.16,134.0
831.22,127.0
831.28,128.0
831.35,127.0
831.41,122.0
831.47,119.0
831.54,126.0
831.6,138.0
831.66,140.0
831.73,139.0
831.79,127.0
831.85,138.0
831.91,151.0
831.98,174.0
832.04,160.0
832.1,144.0
832.17,154.0
832.23,144.0
832.29,160.0
832.36,160.0
832.42,146.0
832.48,164.0
832.54,166.0
832.61,155.0
832.67,151.0
832.73,153.0
832.8,134.0
832.86,138.0
832.92,138.0
832.99,145.0
833.05,131.0
833.11,111.0
833.17,102.0
833.24,113.0
833.3,130.0
833.36,140.0
833.43,146.0
833.49,129.0
833.55,138.0
833.62,120.0
833.68,109.0
833.74,122.0
833.8,130.0
833.87,112.0
833.93,111.0
833.99,122.0
834.06,93.0
834.12,80.0
834.18,93.0
834.25,89.0
834.31,98.0
834.37,87.0
834.43,94.0
834.5,94.0
834.56,84.0
834.62,74.0
834.69,50.0
834.75,77.0
834.81,83.0
834.88,94.0
834.94,92.0
835.0,67.0
835.06,84.0
835.13,103.0
835.19,93.0
835.25,86.0
835.32,67.0
835.38,56.0
835.44,80.0
835.51,59.0
835.57,65.0
835.63,59.0
835.69,44.0
835.76,37.0
835.82,27.0
835.88,52.0
835.95,36.0
836.01,20.0
836.07,39.0
836.14,19.0
836.2,9.0
836.26,15.0
836.32,20.0
836.39,20.0
836.45,28.0
836.51,34.0
836.58,35.0
836.64,42.0
836.7,35.0
836.77,54.0
836.83,33.0
836.89,22.0
836.95,29.0
837.02,44.0
837.08,21.0
837.14,33.0
837.21,35.0
837.27,51.0
837.33,49.0
837.4,58.0
837.46,42.0
837.52,39.0
837.58,54.0
837.65,46.0
837.71,77.0
837.77,59.0
837.84,70.0
837.9,51.0
837.96,76.0
838.03,68.0
838.09,72.0
838.15,122.0
838.21,98.0
838.28,111.0
838.34,115.0
838.4,98.0
838.47,116.0
838.53,117.0
838.59,129.0
838.66,116.0
838.72,137.0
838.78,130.0
838.84,133.0
838.91,135.0
838.97,134.0
839.03,127.0
839.1,120.0
839.16,120.0
839.22,142.0
839.29,130.0
839.35,129.0
839.41,140.0
839.47,149.0
839.54,143.0
839.6,146.0
839.66,142.0
839.73,138.0
839.79,161.0
839.85,145.0
839.92,143.0
839.98,155.0
840.04,157.0
840.1,149.0
840.17,163.0
840.23,153.0
840.29,158.0
840.36,174.0
840.42,175.0
840.48,156.0
840.55,163.0
840.61,169.0
840.67,190.0
840.73,182.0
840.8,185.0
840.86,172.0
840.92,182.0
840.99,210.0
841.05,187.0
841.11,188.0
841.18,194.0
841.24,187.0
841.3,183.0
841.36,182.0
841.43,178.0
841.49,193.0
841.55,193.0
841.62,201.0
841.68,212.0
841.74,195.0
841.81,197.0
841.87,195.0
841.93,200.0
841.99,206.0
842.06,204.0
842.12,220.0
842.18,214.0
842.25,233.0
842.31,236.0
842.37,215.0
842.44,238.0
842.5,227.0
842.56,212.0
842.62,205.0
842.69,201.0
842.75,194.0
842.81,208.0
842.88,208.0
842.94,192.0
843.0,208.0
843.07,199.0
843.13,209.0
843.19,224.0
843.25,222.0
843.32,217.0
843.38,210.0
843.44,204.0
843.51,206.0
843.57,218.0
843.63,207.0
843.7,209.0
843.76,230.0
843.82,219.0
843.88,200.0
843.95,196.0
844.01,185.0
844.07,174.0
844.14,160.0
844.2,164.0
844.26,178.0
844.33,171.0
844.39,165.0
844.45,185.0
844.51,172.0
844.58,175.0
844.64,160.0
844.7,150.0
844.77,158.0
844.83,152.0
844.89,168.0
844.96,169.0
845.02,160.0
845.08,167.0
845.14,170.0
845.21,167.0
845.27,149.0
845.33,166.0
845.4,157.0
845.46,147.0
845.52,140.0
845.59,139.0
845.65,151.0
845.71,140.0
845.77,119.0
845.84,137.0
845.9,164.0
845.96,143.0
846.03,148.0
846.09,139.0
846.15,154.0
846.22,149.0
846.28,139.0
846.34,155.0
846.4,142.0
846.47,147.0
846.53,142.0
846.59,171.0
846.66,138.0
846.72,152.0
846.78,174.0
846.85,159.0
846.91,158.0
846.97,164.0
847.03,162.0
847.1,183.0
847.16,180.0
847.22,171.0
847.29,158.0
847.35,178.0
847.41,186.0
847.48,167.0
847.54,166.0
847.6,162.0
847.66,163.0
847.73,144.0
847.79,137.0
847.85,163.0
847.92,153.0
847.98,147.0
848.04,138.0
848.11,133.0
848.17,168.0
848.23,170.0
848.29,156.0
848.36,158.0
848.42,160.0
848.48,170.0
848.55,179.0
848.61,161.0
848.67,155.0
848.74,145.0
848.8,142.0
848.86,156.0
848.92,159.0
848.99,164.0
849.05,155.0
849.11,144.0
849.18,152.0
849.24,151.0
849.3,138.0
849.37,128.0
849.43,128.0
849.49,128.0
849.55,123.0
849.62,130.0
849.68,132.0
849.74,126.0
849.81,114.0
849.87,109.0
849.93,121.0
850.0,123.0
850.06,100.0
850.12,113.0
850.18,124.0
850.25,104.0
850.31,108.0
850.37,120.0
850.44,126.0
850.5,133.0
850.56,135.0
850.63,124.0
850.69,139.0
850.75,142.0
850.81,120.0
850.88,130.0
850.94,123.0
851.0,126.0
851.07,116.0
851.13,127.0
851.19,99.0
851.26,84.0
851.32,92.0
851.38,114.0
851.44,95.0
851.51,112.0
851.57,119.0
851.63,123.0
851.7,123.0
851.76,112.0
851.82,107.0
851.89,92.0
851.95,96.0
852.01,100.0
852.07,100.0
852.14,98.0
852.2,90.0
852.26,75.0
852.33,67.0
852.39,72.0
852.45,73.0
852.52,52.0
852.58,65.0
852.64,51.0
852.7,30.0
852.77,28.0
852.83,12.0
852.89,23.0
852.96,36.0
853.02,36.0
853.08,9.0
853.15,34.0
853.21,33.0
853.27,35.0
853.33,21.0
853.4,19.0
853.46,37.0
853.52,14.0
853.59,15.0
853.65,20.0
853.71,29.0
853.78,23.0
853.84,6.0
853.9,7.0
853.96,24.0
854.03,15.0
854.09,36.0
854.15,26.0
854.22,20.0
854.28,28.0
854.34,34.0
854.41,51.0
854.47,48.0
854.53,36.0
854.59,27.0
854.66,54.0
854.72,56.0
854.78,79.0
854.85,76.0
854.91,50.0
854.97,62.0
855.04,81.0
855.1,59.0
855.16,68.0
855.22,64.0
855.29,73.0
855.35,59.0
855.41,58.0
855.48,63.0
855.54,79.0
855.6,84.0
855.67,62.0
855.73,79.0
855.79,65.0
855.85,69.0
855.92,67.0
855.98,90.0
856.04,87.0
856.11,59.0
856.17,64.0
856.23,35.0
856.3,59.0
856.36,58.0
856.42,67.0
856.48,74.0
856.55,93.0
856.61,92.0
856.67,85.0
856.74,96.0
856.8,97.0
856.86,86.0
856.93,87.0
856.99,85.0
857.05,87.0
857.11,83.0
857.18,81.0
857.24,101.0
857.3,109.0
857.37,94.0
857.43,106.0
857.49,122.0
857.56,121.0
857.62,125.0
857.68,138.0
857.74,120.0
857.81,130.0
857.87,115.0
857.93,109.0
858.0,129.0
858.06,118.0
858.12,112.0
858.19,145.0
858.25,151.0
858.31,147.0
858.37,153.0
858.44,144.0
858.5,151.0
858.56,149.0
858.63,155.0
858.69,172.0
858.75,150.0
858.82,121.0
858.88,142.0
858.94,136.0
859.0,138.0
859.07,128.0
859.13,127.0
859.19,163.0
859.26,168.0
859.32,179.0
859.38,149.0
859.45,141.0
859.51,175.0
859.57,166.0
859.63,157.0
859.7,149.0
859.76,133.0
859.82,136.0
859.89,123.0
859.95,139.0
860.01,153.0
860.08,133.0
860.14,125.0
860.2,134.0
860.26,116.0
860.33,135.0
860.39,139.0
860.45,126.0
860.52,133.0
860.58,111.0
860.64,131.0
860.71,121.0
860.77,119.0
860.83,139.0
860.89,119.0
860.96,106.0
861.02,117.0
861.08,102.0
861.15,111.0
861.21,98.0
861.27,90.0
861.34,103.0
861.4,111.0
861.46,91.0
861.52,96.0
861.59,93.0
861.65,78.0
861.71,89.0
861.78,100.0
861.84,114.0
861.9,73.0
861.97,88.0
862.03,103.0
862.09,98.0
862.15,69.0
862.22,94.0
862.28,87.0
862.34,116.0
862.41,103.0
862.47,118.0
862.53,110.0
862.6,77.0
862.66,104.0
862.72,86.0
862.78,109.0
862.85,131.0
862.91,127.0
862.97,116.0
863.04,114.0
863.1,103.0
863.16,113.0
863.23,112.0
863.29,88.0
863.35,86.0
863.41,91.0
863.48,97.0
863.54,102.0
863.6,101.0
863.67,99.0
863.73,78.0
863.79,86.0
863.86,89.0
863.92,75.0
863.98,61.0
864.04,75.0
864.11,83.0
864.17,73.0
864.23,74.0
864.3,101.0
864.36,91.0
864.42,64.0
864.49,83.0
864.55,96.0
864.61,98.0
864.67,101.0
864.74,102.0
864.8,106.0
864.86,105.0
864.93,106.0
864.99,82.0
865.05,67.0
865.12,87.0
865.18,86.0
865.24,90.0
865.3,110.0
865.37,111.0
865.43,108.0
865.49,105.0
865.56,104.0
865.62,115.0
865.68,122.0
865.75,138.0
865.81,125.0
865.87,131.0
865.93,120.0
866.0,108.0
866.06,125.0
866.12,120.0
866.19,122.0
866.25,116.0
866.31,127.0
866.38,125.0
866.44,115.0
866.5,110.0
866.56,102.0
866.63,105.0
866.69,110.0
866.75,102.0
866.82,95.0
866.88,116.0
866.94,124.0
867.01,132.0
867.07,131.0
867.13,124.0
867.19,131.0
867.26,134.0
867.32,124.0
867.38,146.0
867.45,157.0
867.51,142.0
867.57,123.0
867.64,123.0
867.7,128.0
867.76,124.0
867.82,120.0
867.89,128.0
867.95,134.0
868.01,142.0
868.08,136.0
868.14,121.0
868.2,134.0
868.27,156.0
868.33,150.0
868.39,151.0
868.45,131.0
868.52,133.0
868.58,126.0
868.64,140.0
868.71,143.0
868.77,136.0
868.83,142.0
868.9,141.0
868.96,124.0
869.02,127.0
869.08,104.0
869.15,100.0
869.21,109.0
869.27,134.0
869.34,117.0
869.4,114.0
869.46,125.0
869.53,120.0
869.59,124.0
869.65,108.0
869.71,120.0
869.78,122.0
869.84,119.0
869.9,116.0
869.97,119.0
870.03,111.0
870.09,101.0
870.16,93.0
870.22,100.0
870.28,101.0
870.34,98.0
870.41,82.0
870.47,101.0
870.53,100.0
870.6,87.0
870.66,92.0
870.72,100.0
870.79,76.0
870.85,79.0
870.91,78.0
870.97,78.0
871.04,103.0
871.1,103.0
871.16,105.0
871.23,96.0
871.29,100.0
871.35,103.0
871.42,105.0
871.48,98.0
871.54,97.0
871.6,91.0
871.67,111.0
871.73,113.0
871.79,102.0
871.86,87.0
871.92,101.0
871.98,124.0
872.05,106.0
872.11,108.0
872.17,116.0
872.23,124.0
872.3,129.0
872.36,107.0
872.42,98.0
872.49,95.0
872.55,91.0
872.61,117.0
872.68,131.0
872.74,109.0
872.8,127.0
872.86,128.0
872.93,103.0
872.99,127.0
873.05,143.0
873.12,117.0
873.18,156.0
873.24,144.0
873.31,133.0
873.37,137.0
873.43,122.0
873.49,139.0
873.56,139.0
873.62,144.0
873.68,141.0
873.75,189.0
873.81,159.0
873.87,166.0
873.94,163.0
874.0,162.0
874.06,166.0
874.12,164.0
874.19,164.0
874.25,164.0
874.31,173.0
874.38,182.0
874.44,183.0
874.5,178.0
874.57,175.0
874.63,164.0
874.69,153.0
874.75,168.0
874.82,163.0
874.88,167.0
874.94,177.0
875.01,172.0
875.07,173.0
875.13,158.0
875.2,179.0
875.26,184.0
875.32,164.0
875.38,174.0
875.45,176.0
875.51,170.0
875.57,189.0
875.64,212.0
875.7,213.0
875.76,205.0
875.83,206.0
875.89,191.0
875.95,204.0
876.01,177.0
876.08,175.0
876.14,190.0
876.2,184.0
876.27,182.0
876.33,184.0
876.39,212.0
876.46,174.0
876.52,179.0
876.58,199.0
876.64,196.0
876.71,204.0
876.77,193.0
876.83,197.0
876.9,196.0
876.96,184.0
877.02,160.0
877.09,166.0
877.15,178.0
877.21,164.0
877.27,178.0
877.34,193.0
877.4,181.0
877.46,185.0
877.53,172.0
877.59,183.0
877.65,193.0
877.72,168.0
877.78,188.0
877.84,204.0
877.9,180.0
877.97,183.0
878.03,164.0
878.09,168.0
878.16,165.0
878.22,175.0
878.28,156.0
878.35,158.0
878.41,139.0
878.47,138.0
878.53,146.0
878.6,146.0
878.66,168.0
878.72,167.0
878.79,142.0
878.85,152.0
878.91,138.0
878.98,149.0
879.04,167.0
879.1,158.0
879.16,154.0
879.23,130.0
879.29,140.0
879.35,150.0
879.42,141.0
879.48,151.0
879.54,149.0
879.61,144.0
879.67,146.0
879.73,149.0
879.79,153.0
879.86,124.0
879.92,139.0
879.98,123.0
880.05,114.0
880.11,124.0
880.17,149.0
880.24,121.0
880.3,107.0
880.36,127.0
880.42,105.0
880.49,107.0
880.55,131.0
880.61,123.0
880.68,131.0
880.74,133.0
880.8,153.0
880.87,140.0
880.93,142.0
880.99,149.0
881.05,145.0
881.12,130.0
881.18,150.0
881.24,163.0
881.31,160.0
881.37,177.0
881.43,157.0
881.5,160.0
881.56,171.0
881.62,178.0
881.68,167.0
881.75,150.0
881.81,129.0
881.87,162.0
881.94,160.0
882.0,160.0
882.06,163.0
882.13,141.0
882.19,142.0
882.25,128.0
882.31,141.0
882.38,130.0
882.44,122.0
882.5,123.0
882.57,94.0
882.63,95.0
882.69,109.0
882.76,99.0
882.82,129.0
882.88,109.0
882.94,100.0
883.01,96.0
883.07,100.0
883.13,89.0
883.2,108.0
883.26,120.0
883.32,86.0
883.39,103.0
883.45,117.0
883.51,128.0
883.57,125.0
883.64,112.0
883.7,114.0
883.76,126.0
883.83,151.0
883.89,137.0
883.95,133.0
884.02,149.0
884.08,124.0
884.14,129.0
884.2,120.0
884.27,120.0
884.33,106.0
884.39,103.0
884.46,119.0
884.52,109.0
884.58,128.0
884.65,120.0
884.71,113.0
884.77,104.0
884.83,80.0
884.9,100.0
884.96,109.0
885.02,122.0
885.09,82.0
885.15,81.0
885.21,94.0
885.28,83.0
885.34,86.0
885.4,75.0
885.46,83.0
885.53,61.0
885.59,72.0
885.65,92.0
885.72,77.0
885.78,80.0
885.84,77.0
885.91,87.0
885.97,84.0
886.03,53.0
886.09,79.0
886.16,68.0
886.22,62.0
886.28,65.0
886.35,56.0
886.41,74.0
886.47,53.0
886.54,54.0
886.6,53.0
886.66,25.0
886.72,56.0
886.79,48.0
886.85,64.0
886.91,70.0
886.98,75.0
887.04,100.0
887.1,83.0
887.17,85.0
887.23,98.0
887.29,80.0
887.35,89.0
887.42,100.0
887.48,68.0
887.54,72.0
887.61,108.0
887.67,106.0
887.73,100.0
887.8,105.0
887.86,103.0
887.92,115.0
887.98,118.0
888.05,107.0
888.11,102.0
888.17,80.0
888.24,95.0
888.3,91.0
888.36,116.0
888.43,110.0
888.49,107.0
888.55,78.0
888.61,93.0
888.68,108.0
888.74,69.0
888.8,70.0
888.87,100.0
888.93,93.0
888.99,106.0
889.06,83.0
889.12,71.0
889.18,100.0
889.24,83.0
889.31,88.0
889.37,101.0
889.43,89.0
889.5,98.0
889.56,124.0
889.62,87.0
889.69,72.0
889.75,83.0
889.81,89.0
889.87,68.0
889.94,73.0
890.0,68.0
890.06,83.0
890.13,85.0
890.19,94.0
890.25,116.0
890.32,101.0
890.38,95.0
890.44,115.0
890.5,109.0
890.57,112.0
890.63,92.0
890.69,92.0
890.76,103.0
890.82,105.0
890.88,101.0
890.95,96.0
891.01,98.0
891.07,87.0
891.13,91.0
891.2,104.0
891.26,106.0
891.32,117.0
891.39,132.0
891.45,108.0
891.51,118.0
891.58,134.0
891.64,127.0
891.7,113.0
891.76,135.0
891.83,144.0
891.89,126.0
891.95,123.0
892.02,124.0
892.08,132.0
892.14,153.0
892.21,139.0
892.27,162.0
892.33,207.0
892.39,186.0
892.46,177.0
892.52,182.0
892.58,191.0
892.65,172.0
892.71,184.0
892.77,183.0
892.84,177.0
892.9,159.0
892.96,179.0
893.02,177.0
893.09,181.0
893.15,186.0
893.21,196.0
893.28,199.0
893.34,193.0
893.4,204.0
893.47,180.0
893.53,177.0
893.59,174.0
893.65,194.0
893.72,196.0
893.78,186.0
893.84,189.0
893.91,155.0
893.97,177.0
894.03,172.0
894.1,188.0
894.16,175.0
894.22,175.0
894.28,166.0
894.35,178.0
894.41,164.0
894.47,186.0
894.54,167.0
894.6,170.0
894.66,166.0
894.73,157.0
894.79,178.0
894.85,205.0
894.91,168.0
894.98,172.0
895.04,195.0
895.1,186.0
895.17,204.0
895.23,197.0
895.29,193.0
895.36,194.0
895.42,204.0
895.48,181.0
895.54,180.0
895.61,187.0
895.67,218.0
895.73,187.0
895.8,175.0
895.86,205.0
895.92,182.0
895.99,196.0
896.05,161.0
896.11,167.0
896.17,190.0
896.24,210.0
896.3,207.0
896.36,192.0
896.43,180.0
896.49,183.0
896.55,189.0
896.62,215.0
896.68,212.0
896.74,207.0
896.8,218.0
896.87,233.0
896.93,239.0
896.99,209.0
897.06,194.0
897.12,216.0
897.18,220.0
897.25,204.0
897.31,207.0
897.37,207.0
897.43,193.0
897.5,201.0
897.56,199.0
897.62,215.0
897.69,199.0
897.75,183.0
897.81,190.0
897.88,185.0
897.94,192.0
898.0,178.0
898.06,172.0
898.13,177.0
898.19,167.0
898.25,174.0
898.32,169.0
898.38,177.0
898.44,178.0
898.51,176.0
898.57,167.0
898.63,169.0
898.69,166.0
898.76,171.0
898.82,175.0
898.88,171.0
898.95,192.0
899.01,187.0
899.07,191.0
899.14,164.0
899.2,186.0
899.26,189.0
899.32,185.0
899.39,166.0
899.45,167.0
899.51,178.0
899.58,156.0
899.64,153.0
899.7,171.0
899.77,152.0
899.83,144.0
899.89,157.0
899.95,188.0
900.02,181.0
900.08,176.0
900.14,173.0
900.21,156.0
900.27,134.0
900.33,148.0
900.4,130.0
900.46,132.0
900.52,127.0
900.58,126.0
900.65,147.0
900.71,129.0
900.77,144.0
900.84,117.0
900.9,127.0
900.96,114.0
901.03,136.0
901.09,152.0
901.15,133.0
901.21,114.0
901.28,120.0
901.34,124.0
901.4,98.0
901.47,110.0
901.53,122.0
901.59,118.0
901.66,113.0
901.72,115.0
901.78,113.0
901.84,110.0
901.91,99.0
901.97,84.0
902.03,81.0
902.1,91.0
902.16,92.0
902.22,89.0
902.29,97.0
902.35,94.0
902.41,82.0
902.47,71.0
902.54,79.0
902.6,97.0
902.66,99.0
902.73,90.0
902.79,107.0
902.85,92.0
902.92,68.0
902.98,87.0
903.04,75.0
903.1,85.0
903.17,78.0
903.23,71.0
903.29,79.0
903.36,72.0
903.42,58.0
903.48,63.0
903.55,48.0
903.61,64.0
903.67,78.0
903.73,72.0
903.8,81.0
903.86,95.0
903.92,83.0
903.99,58.0
904.05,65.0
904.11,46.0
904.18,34.0
904.24,53.0
904.3,49.0
904.36,65.0
904.43,44.0
904.49,54.0
904.55,58.0
904.62,48.0
904.68,40.0
904.74,47.0
904.81,63.0
904.87,44.0
904.93,35.0
904.99,56.0
905.06,63.0
905.12,58.0
905.18,43.0
905.25,54.0
905.31,59.0
905.37,64.0
905.44,61.0
905.5,27.0
905.56,56.0
905.62,37.0
905.69,20.0
905.75,20.0
905.81,31.0
905.88,35.0
905.94,34.0
906.0,40.0
906.07,28.0
906.13,37.0
906.19,43.0
906.25,31.0
906.32,53.0
906.38,42.0
906.44,49.0
906.51,65.0
906.57,61.0
906.63,68.0
906.7,69.0
906.76,73.0
906.82,67.0
906.88,46.0
906.95,65.0
907.01,66.0
907.07,71.0
907.14,54.0
907.2,61.0
907.26,53.0
907.33,50.0
907.39,64.0
907.45,89.0
907.51,86.0
907.58,50.0
907.64,50.0
907.7,36.0
907.77,53.0
907.83,43.0
907.89,36.0
907.96,53.0
908.02,67.0
908.08,76.0
908.14,79.0
908.21,64.0
908.27,74.0
908.33,73.0
908.4,68.0
908.46,74.0
908.52,79.0
908.59,71.0
908.65,82.0
908.71,68.0
908.77,65.0
908.84,84.0
908.9,75.0
908.96,61.0
909.03,94.0
909.09,72.0
909.15,72.0
909.22,105.0
909.28,106.0
909.34,107.0
909.4,103.0
909.47,106.0
909.53,98.0
909.59,78.0
909.66,84.0
909.72,100.0
909.78,114.0
909.85,109.0
909.91,112.0
909.97,87.0
910.03,114.0
910.1,106.0
910.16,100.0
910.22,109.0
910.29,128.0
910.35,118.0
910.41,112.0
910.48,149.0
910.54,112.0
910.6,120.0
910.66,116.0
910.73,116.0
910.79,142.0
910.85,138.0
910.92,120.0
910.98,122.0
911.04,122.0
911.11,124.0
911.17,118.0
911.23,117.0
911.29,120.0
911.36,102.0
911.42,101.0
911.48,100.0
911.55,100.0
911.61,92.0
911.67,75.0
911.74,81.0
911.8,73.0
911.86,76.0
911.92,72.0
911.99,93.0
912.05,83.0
912.11,100.0
912.18,92.0
912.24,62.0
912.3,61.0
912.37,62.0
912.43,64.0
912.49,46.0
912.55,58.0
912.62,72.0
912.68,76.0
912.74,89.0
912.81,89.0
912.87,76.0
912.93,92.0
913.0,90.0
913.06,90.0
913.12,88.0
913.18,98.0
913.25,113.0
913.31,124.0
913.37,112.0
913.44,111.0
913.5,120.0
913.56,106.0
913.63,109.0
913.69,120.0
913.75,106.0
913.81,106.0
913.88,95.0
913.94,83.0
914.0,91.0
914.07,90.0
914.13,113.0
914.19,97.0
914.26,94.0
914.32,102.0
914.38,97.0
914.44,98.0
914.51,97.0
914.57,106.0
914.63,112.0
914.7,101.0
914.76,86.0
914.82,125.0
914.89,107.0
914.95,106.0
915.01,107.0
915.07,107.0
915.14,98.0
915.2,105.0
915.26,89.0
915.33,114.0
915.39,120.0
915.45,107.0
915.52,114.0
915.58,109.0
915.64,100.0
915.7,100.0
915.77,98.0
915.83,103.0
915.89,73.0
915.96,98.0
916.02,101.0
916.08,97.0
916.15,105.0
916.21,105.0
916.27,118.0
916.33,127.0
916.4,114.0
916.46,123.0
916.52,102.0
916.59,91.0
916.65,98.0
916.71,116.0
916.78,100.0
916.84,101.0
916.9,91.0
916.96,96.0
917.03,114.0
917.09,109.0
917.15,115.0
917.22,108.0
917.28,104.0
917.34,101.0
917.41,130.0
917.47,103.0
917.53,102.0
917.59,119.0
917.66,115.0
917.72,138.0
917.78,130.0
917.85,111.0
917.91,127.0
917.97,135.0
918.04,133.0
918.1,131.0
918.16,122.0
918.22,112.0
918.29,107.0
918.35,124.0
918.41,110.0
918.48,101.0
918.54,104.0
918.6,105.0
918.67,105.0
918.73,98.0
918.79,109.0
918.85,104.0
918.92,104.0
918.98,97.0
919.04,93.0
919.11,95.0
919.17,91.0
919.23,107.0
919.3,105.0
919.36,105.0
919.42,109.0
919.48,90.0
919.55,117.0
919.61,92.0
919.67,85.0
919.74,94.0
919.8,87.0
919.86,124.0
919.93,120.0
919.99,115.0
920.05,78.0
920.11,68.0
920.18,76.0
920.24,101.0
920.3,105.0
920.37,116.0
920.43,131.0
920.49,119.0
920.56,131.0
920.62,92.0
920.68,114.0
920.74,109.0
920.81,125.0
920.87,116.0
920.93,119.0
921.0,123.0
921.06,113.0
921.12,109.0
921.19,96.0
921.25,97.0
921.31,101.0
921.37,106.0
921.44,118.0
921.5,114.0
921.56,109.0
921.63,114.0
921.69,106.0
921.75,136.0
921.82,145.0
921.88,126.0
921.94,121.0
922.0,123.0
922.07,114.0
922.13,123.0
922.19,121.0
922.26,102.0
922.32,94.0
922.38,108.0
922.45,83.0
922.51,92.0
922.57,88.0
922.63,110.0
922.7,111.0
922.76,111.0
922.82,105.0
922.89,97.0
922.95,104.0
923.01,124.0
923.08,107.0
923.14,100.0
923.2,118.0
923.26,102.0
923.33,135.0
923.39,101.0
923.45,116.0
923.52,119.0
923.58,117.0
923.64,111.0
923.71,111.0
923.77,118.0
923.83,106.0
923.89,117.0
923.96,96.0
924.02,105.0
924.08,106.0
924.15,122.0
924.21,116.0
924.27,113.0
924.34,134.0
924.4,97.0
924.46,94.0
924.52,117.0
924.59,125.0
924.65,127.0
924.71,136.0
924.78,134.0
924.84,123.0
924.9,132.0
924.97,119.0
925.03,126.0
925.09,95.0
925.15,116.0
925.22,129.0
925.28,136.0
925.34,138.0
925.41,119.0
925.47,144.0
925.53,146.0
925.6,134.0
925.66,146.0
925.72,170.0
925.78,142.0
925.85,159.0
925.91,175.0
925.97,177.0
926.04,152.0
926.1,148.0
926.16,180.0
926.23,177.0
926.29,178.0
926.35,194.0
926.41,187.0
926.48,202.0
926.54,164.0
926.6,180.0
926.67,211.0
926.73,196.0
926.79,171.0
926.86,168.0
926.92,204.0
926.98,199.0
927.04,203.0
927.11,210.0
927.17,187.0
927.23,191.0
927.3,199.0
927.36,188.0
927.42,183.0
927.49,181.0
927.55,174.0
927.61,160.0
927.67,168.0
927.74,175.0
927.8,164.0
927.86,138.0
927.93,170.0
927.99,177.0
928.05,163.0
928.12,182.0
928.18,161.0
928.24,164.0
928.3,151.0
928.37,153.0
928.43,161.0
928.49,182.0
928.56,171.0
928.62,147.0
928.68,149.0
928.75,167.0
928.81,161.0
928.87,176.0
928.93,173.0
929.0,162.0
929.06,168.0
929.12,161.0
929.19,151.0
929.25,151.0
929.31,159.0
929.38,156.0
929.44,144.0
929.5,131.0
929.56,109.0
929.63,124.0
929.69,137.0
929.75,148.0
929.82,147.0
929.88,167.0
929.94,156.0
930.01,152.0
930.07,166.0
930.13,185.0
930.19,160.0
930.26,191.0
930.32,174.0
930.38,151.0
930.45,150.0
930.51,143.0
930.57,164.0
930.64,151.0
930.7,158.0
930.76,155.0
930.82,150.0
930.89,169.0
930.95,140.0
931.01,125.0
931.08,135.0
931.14,125.0
931.2,124.0
931.27,136.0
931.33,147.0
931.39,130.0
931.45,131.0
931.52,122.0
931.58,116.0
931.64,134.0
931.71,150.0
931.77,140.0
931.83,146.0
931.9,152.0
931.96,130.0
932.02,136.0
932.08,153.0
932.15,134.0
932.21,141.0
932.27,148.0
932.34,166.0
932.4,145.0
932.46,109.0
932.53,139.0
932.59,149.0
932.65,146.0
932.71,145.0
932.78,138.0
932.84,134.0
932.9,128.0
932.97,130.0
933.03,146.0
933.09,167.0
933.16,160.0
933.22,147.0
933.28,137.0
933.34,136.0
933.41,160.0
933.47,164.0
933.53,160.0
933.6,152.0
933.66,147.0
933.72,129.0
933.79,127.0
933.85,129.0
933.91,111.0
933.97,101.0
934.04,110.0
934.1,76.0
934.16,71.0
934.23,111.0
934.29,105.0
934.35,108.0
934.42,91.0
934.48,99.0
934.54,87.0
934.6,70.0
934.67,89.0
934.73,103.0
934.79,100.0
934.86,94.0
934.92,122.0
934.98,106.0
935.05,120.0
935.11,127.0
935.17,127.0
935.23,106.0
935.3,111.0
935.36,109.0
935.42,87.0
935.49,94.0
935.55,96.0
935.61,80.0
935.68,79.0
935.74,80.0
935.8,73.0
935.86,78.0
935.93,84.0
935.99,73.0
936.05,76.0
936.12,79.0
936.18,74.0
936.24,79.0
936.31,79.0
936.37,100.0
936.43,76.0
936.49,106.0
936.56,104.0
936.62,87.0
936.68,98.0
936.75,108.0
936.81,94.0
936.87,98.0
936.94,81.0
937.0,90.0
937.06,85.0
937.12,90.0
937.19,88.0
937.25,83.0
937.31,57.0
937.38,64.0
937.44,63.0
937.5,69.0
937.57,69.0
937.63,61.0
937.69,77.0
937.75,83.0
937.82,69.0
937.88,86.0
937.94,98.0
938.01,92.0
938.07,75.0
938.13,61.0
938.2,58.0
938.26,62.0
938.32,63.0
938.38,83.0
938.45,65.0
938.51,69.0
938.57,72.0
938.64,70.0
938.7,64.0
938.76,61.0
938.83,67.0
938.89,71.0
938.95,75.0
939.01,75.0
939.08,56.0
939.14,53.0
939.2,54.0
939.27,54.0
939.33,57.0
939.39,48.0
939.46,44.0
939.52,56.0
939.58,61.0
939.64,61.0
939.71,57.0
939.77,77.0
939.83,64.0
939.9,57.0
939.96,62.0
940.02,64.0
940.09,67.0
940.15,62.0
940.21,59.0
940.27,62.0
940.34,63.0
940.4,68.0
940.46,54.0
940.53,72.0
940.59,62.0
940.65,47.0
940.72,45.0
940.78,54.0
940.84,51.0
940.9,75.0
940.97,80.0
941.03,87.0
941.09,68.0
941.16,68.0
941.22,64.0
941.28,45.0
941.35,58.0
941.41,58.0
941.47,56.0
941.53,53.0
941.6,30.0
941.66,67.0
941.72,39.0
941.79,32.0
941.85,76.0
941.91,69.0
941.98,63.0
942.04,70.0
942.1,54.0
942.16,71.0
942.23,65.0
942.29,74.0
942.35,74.0
942.42,85.0
942.48,75.0
942.54,68.0
942.61,77.0
942.67,85.0
942.73,98.0
942.79,93.0
942.86,92.0
942.92,108.0
942.98,138.0
943.05,132.0
943.11,131.0
943.17,123.0
943.24,119.0
943.3,138.0
943.36,119.0
943.42,127.0
943.49,131.0
943.55,137.0
943.61,154.0
943.68,150.0
943.74,131.0
943.8,162.0
943.87,147.0
943.93,160.0
943.99,153.0
944.05,159.0
944.12,165.0
944.18,153.0
944.24,165.0
944.31,164.0
944.37,168.0
944.43,177.0
944.5,162.0
944.56,171.0
944.62,178.0
944.68,153.0
944.75,179.0
944.81,152.0
944.87,156.0
944.94,182.0
945.0,150.0
945.06,175.0
945.13,183.0
945.19,182.0
945.25,181.0
945.31,180.0
945.38,173.0
945.44,167.0
945.5,169.0
945.57,182.0
945.63,151.0
945.69,149.0
945.76,166.0
945.82,156.0
945.88,176.0
945.94,149.0
946.01,144.0
946.07,171.0
946.13,171.0
946.2,163.0
946.26,177.0
946.32,182.0
946.39,199.0
946.45,199.0
946.51,194.0
946.57,183.0
946.64,169.0
946.7,158.0
946.76,173.0
946.83,177.0
946.89,187.0
946.95,189.0
947.02,191.0
947.08,179.0
947.14,175.0
947.2,167.0
947.27,169.0
947.33,193.0
947.39,189.0
947.46,182.0
947.52,208.0
947.58,193.0
947.65,201.0
947.71,184.0
947.77,193.0
947.83,188.0
947.9,193.0
947.96,183.0
948.02,202.0
948.09,196.0
948.15,185.0
948.21,167.0
948.28,184.0
948.34,188.0
948.4,176.0
948.46,199.0
948.53,193.0
948.59,175.0
948.65,178.0
948.72,187.0
948.78,169.0
948.84,175.0
948.91,199.0
948.97,182.0
949.03,186.0
949.09,177.0
949.16,188.0
949.22,168.0
949.28,167.0
949.35,184.0
949.41,182.0
949.47,166.0
949.54,165.0
949.6,185.0
949.66,195.0
949.72,170.0
949.79,181.0
949.85,192.0
949.91,168.0
949.98,174.0
950.04,172.0
950.1,156.0
950.17,159.0
950.23,185.0
950.29,185.0
950.35,172.0
950.42,183.0
950.48,173.0
950.54,164.0
950.61,174.0
950.67,156.0
950.73,166.0
950.8,169.0
950.86,167.0
950.92,160.0
950.98,199.0
951.05,190.0
951.11,181.0
951.17,169.0
951.24,166.0
951.3,146.0
951.36,142.0
951.43,156.0
951.49,169.0
951.55,187.0
951.61,171.0
951.68,157.0
951.74,179.0
951.8,157.0
951.87,148.0
951.93,146.0
951.99,138.0
952.06,149.0
952.12,143.0
952.18,124.0
952.24,134.0
952.31,152.0
952.37,144.0
952.43,138.0
952.5,130.0
952.56,135.0
952.62,137.0
952.69,145.0
952.75,167.0
952.81,138.0
952.87,139.0
952.94,149.0
953.0,130.0
953.06,137.0
953.13,142.0
953.19,167.0
953.25,171.0
953.32,142.0
953.38,140.0
953.44,131.0
953.5,117.0
953.57,139.0
953.63,120.0
953.69,130.0
953.76,127.0
953.82,121.0
953.88,103.0
953.95,98.0
954.01,117.0
954.07,106.0
954.13,130.0
954.2,136.0
954.26,112.0
954.32,105.0
954.39,124.0
954.45,111.0
954.51,116.0
954.58,134.0
954.64,109.0
954.7,103.0
954.76,117.0
954.83,136.0
954.89,111.0
954.95,111.0
955.02,107.0
955.08,96.0
955.14,95.0
955.21,110.0
955.27,99.0
955.33,125.0
955.39,109.0
955.46,91.0
955.52,81.0
955.58,81.0
955.65,102.0
955.71,95.0
955.77,103.0
955.84,116.0
955.9,72.0
955.96,74.0
956.02,87.0
956.09,76.0
956.15,86.0
956.21,70.0
956.28,53.0
956.34,79.0
956.4,85.0
956.47,65.0
956.53,76.0
956.59,79.0
956.65,85.0
956.72,95.0
956.78,69.0
956.84,86.0
956.91,78.0
956.97,105.0
957.03,109.0
957.1,75.0
957.16,84.0
957.22,91.0
957.28,73.0
957.35,77.0
957.41,86.0
957.47,84.0
957.54,87.0
957.6,89.0
957.66,85.0
957.73,93.0
957.79,87.0
957.85,96.0
957.91,102.0
957.98,94.0
958.04,80.0
958.1,73.0
958.17,94.0
958.23,97.0
958.29,91.0
958.36,83.0
958.42,100.0
958.48,78.0
958.54,90.0
958.61,91.0
958.67,72.0
958.73,77.0
958.8,98.0
958.86,83.0
958.92,81.0
958.99,88.0
959.05,67.0
959.11,103.0
959.17,90.0
959.24,60.0
959.3,69.0
959.36,72.0
959.43,70.0
959.49,69.0
959.55,83.0
959.62,85.0
959.68,75.0
959.74,95.0
959.8,96.0
959.87,95.0
959.93,104.0
959.99,100.0
960.06,109.0
960.12,86.0
960.18,100.0
960.25,105.0
960.31,124.0
960.37,116.0
960.43,114.0
960.5,123.0
960.56,127.0
960.62,126.0
960.69,104.0
960.75,129.0
960.81,126.0
960.88,133.0
960.94,108.0
961.0,129.0
961.06,149.0
961.13,138.0
961.19,104.0
961.25,115.0
961.32,116.0
961.38,98.0
961.44,101.0
961.51,82.0
961.57,78.0
961.63,73.0
961.69,96.0
961.76,102.0
961.82,113.0
961.88,124.0
961.95,134.0
962.01,119.0
962.07,130.0
962.14,133.0
962.2,116.0
962.26,123.0
962.32,134.0
962.39,133.0
962.45,139.0
962.51,133.0
962.58,139.0
962.64,156.0
962.7,149.0
962.77,131.0
962.83,125.0
962.89,135.0
962.95,109.0
963.02,114.0
963.08,110.0
963.14,102.0
963.21,105.0
963.27,92.0
963.33,86.0
963.4,85.0
963.46,77.0
963.52,78.0
963.58,82.0
963.65,73.0
963.71,85.0
963.77,87.0
963.84,94.0
963.9,100.0
963.96,91.0
964.03,93.0
964.09,93.0
964.15,102.0
964.21,112.0
964.28,88.0
964.34,114.0
964.4,127.0
964.47,106.0
964.53,123.0
964.59,130.0
964.66,116.0
964.72,133.0
964.78,126.0
964.84,109.0
964.91,110.0
964.97,136.0
965.03,137.0
965.1,128.0
965.16,123.0
965.22,117.0
965.29,135.0
965.35,156.0
965.41,160.0
965.47,141.0
965.54,128.0
965.6,108.0
965.66,120.0
965.73,118.0
965.79,105.0
965.85,116.0
965.92,123.0
965.98,140.0
966.04,118.0
966.1,125.0
966.17,118.0
966.23,131.0
966.29,128.0
966.36,126.0
966.42,99.0
966.48,124.0
966.55,136.0
966.61,108.0
966.67,143.0
966.73,135.0
966.8,109.0
966.86,97.0
966.92,85.0
966.99,96.0
967.05,112.0
967.11,108.0
967.18,87.0
967.24,97.0
967.3,94.0
967.36,80.0
967.43,92.0
967.49,92.0
967.55,92.0
967.62,70.0
967.68,80.0
967.74,67.0
967.81,87.0
967.87,83.0
967.93,63.0
967.99,100.0
968.06,104.0
968.12,92.0
968.18,96.0
968.25,97.0
968.31,105.0
968.37,105.0
968.44,102.0
968.5,100.0
968.56,95.0
968.62,107.0
968.69,109.0
968.75,122.0
968.81,99.0
968.88,87.0
968.94,87.0
969.0,96.0
969.07,116.0
969.13,105.0
969.19,91.0
969.25,100.0
969.32,94.0
969.38,93.0
969.44,74.0
969.51,99.0
969.57,116.0
969.63,82.0
969.7,110.0
969.76,104.0
969.82,99.0
969.88,105.0
969.95,98.0
970.01,75.0
970.07,94.0
970.14,94.0
970.2,100.0
970.26,90.0
970.33,87.0
970.39,97.0
970.45,81.0
970.51,77.0
970.58,76.0
970.64,82.0
970.7,87.0
970.77,88.0
970.83,75.0
970.89,67.0
970.96,68.0
971.02,58.0
971.08,86.0
971.14,69.0
971.21,102.0
971.27,99.0
971.33,103.0
971.4,96.0
971.46,87.0
971.52,107.0
971.59,104.0
971.65,92.0
971.71,94.0
971.77,94.0
971.84,80.0
971.9,67.0
971.96,74.0
972.03,83.0
972.09,76.0
972.15,66.0
972.22,83.0
972.28,89.0
972.34,51.0
972.4,77.0
972.47,69.0
972.53,81.0
972.59,87.0
972.66,60.0
972.72,83.0
972.78,62.0
972.85,78.0
972.91,49.0
972.97,47.0
973.03,72.0
973.1,72.0
973.16,75.0
973.22,56.0
973.29,79.0
973.35,74.0
973.41,73.0
973.48,75.0
973.54,62.0
973.6,74.0
973.66,76.0
973.73,84.0
973.79,95.0
973.85,74.0
973.92,69.0
973.98,71.0
974.04,65.0
974.11,90.0
974.17,90.0
974.23,92.0
974.29,92.0
974.36,100.0
974.42,89.0
974.48,107.0
974.55,72.0
974.61,98.0
974.67,89.0
974.74,116.0
974.8,127.0
974.86,122.0
974.92,136.0
974.99,128.0
975.05,133.0
975.11,138.0
975.18,114.0
975.24,128.0
975.3,142.0
975.37,127.0
975.43,117.0
975.49,109.0
975.55,116.0
975.62,117.0
975.68,104.0
975.74,125.0
975.81,140.0
975.87,145.0
975.93,146.0
976.0,141.0
976.06,147.0
976.12,155.0
976.18,157.0
976.25,142.0
976.31,149.0
976.37,152.0
976.44,162.0
976.5,150.0
976.56,148.0
976.63,168.0
976.69,188.0
976.75,178.0
976.81,179.0
976.88,185.0
976.94,165.0
977.0,172.0
977.07,165.0
977.13,167.0
977.19,181.0
977.26,175.0
977.32,175.0
977.38,154.0
977.44,177.0
977.51,166.0
977.57,163.0
977.63,159.0
977.7,164.0
977.76,177.0
977.82,179.0
977.89,179.0
977.95,188.0
978.01,182.0
978.07,184.0
978.14,179.0
978.2,187.0
978.26,181.0
978.33,162.0
978.39,164.0
978.45,181.0
978.52,183.0
978.58,160.0
978.64,183.0
978.7,158.0
978.77,167.0
978.83,165.0
978.89,169.0
978.96,175.0
979.02,194.0
979.08,197.0
979.15,192.0
979.21,193.0
979.27,194.0
979.33,160.0
979.4,175.0
979.46,181.0
979.52,164.0
979.59,153.0
979.65,180.0
979.71,178.0
979.78,148.0
979.84,143.0
979.9,157.0
979.96,155.0
980.03,164.0
980.09,166.0
980.15,174.0
980.22,155.0
980.28,174.0
980.34,172.0
980.41,167.0
980.47,177.0
980.53,181.0
980.59,184.0
980.66,200.0
980.72,196.0
980.78,192.0
980.85,189.0
980.91,217.0
980.97,204.0
981.04,207.0
981.1,211.0
981.16,211.0
981.22,228.0
981.29,222.0
981.35,190.0
981.41,199.0
981.48,210.0
981.54,187.0
981.6,208.0
981.67,201.0
981.73,205.0
981.79,220.0
981.85,219.0
981.92,242.0
981.98,216.0
982.04,219.0
982.11,215.0
982.17,201.0
982.23,188.0
982.3,190.0
982.36,208.0
982.42,202.0
982.48,198.0
982.55,188.0
982.61,167.0
982.67,190.0
982.74,190.0
982.8,206.0
982.86,201.0
982.93,202.0
982.99,195.0
983.05,182.0
983.11,185.0
983.18,173.0
983.24,187.0
983.3,160.0
983.37,163.0
983.43,175.0
983.49,179.0
983.56,190.0
983.62,164.0
983.68,172.0
983.74,177.0
983.81,169.0
983.87,177.0
983.93,174.0
984.0,167.0
984.06,163.0
984.12,178.0
984.19,186.0
984.25,178.0
984.31,161.0
984.37,160.0
984.44,168.0
984.5,180.0
984.56,161.0
984.63,144.0
984.69,149.0
984.75,149.0
984.82,142.0
984.88,153.0
984.94,149.0
985.0,138.0
985.07,141.0
985.13,133.0
985.19,152.0
985.26,169.0
985.32,160.0
985.38,153.0
985.45,149.0
985.51,170.0
985.57,144.0
985.63,132.0
985.7,120.0
985.76,115.0
985.82,127.0
985.89,107.0
985.95,110.0
986.01,128.0
986.08,119.0
986.14,110.0
986.2,109.0
986.26,132.0
986.33,131.0
986.39,106.0
986.45,102.0
986.52,111.0
986.58,110.0
986.64,87.0
986.71,86.0
986.77,97.0
986.83,105.0
986.89,93.0
986.96,90.0
987.02,87.0
987.08,76.0
987.15,73.0
987.21,81.0
987.27,59.0
987.34,53.0
987.4,74.0
987.46,47.0
987.52,58.0
987.59,61.0
987.65,65.0
987.71,82.0
987.78,81.0
987.84,90.0
987.9,74.0
987.97,84.0
988.03,78.0
988.09,109.0
988.15,105.0
988.22,91.0
988.28,99.0
988.34,89.0
988.41,80.0
988.47,91.0
988.53,86.0
988.6,76.0
988.66,92.0
988.72,73.0
988.78,64.0
988.85,58.0
988.91,73.0
988.97,86.0
989.04,61.0
989.1,69.0
989.16,81.0
989.23,57.0
989.29,72.0
989.35,67.0
989.41,73.0
989.48,54.0
989.54,51.0
989.6,40.0
989.67,49.0
989.73,49.0
989.79,56.0
989.86,68.0
989.92,75.0
989.98,88.0
990.04,83.0
990.11,80.0
990.17,72.0
990.23,81.0
990.3,59.0
990.36,72.0
990.42,69.0
990.49,37.0
990.55,35.0
990.61,45.0
990.67,63.0
990.74,61.0
990.8,51.0
990.86,59.0
990.93,81.0
990.99,81.0
991.05,89.0
991.12,68.0
991.18,83.0
991.24,101.0
991.3,79.0
991.37,98.0
991.43,85.0
991.49,75.0
991.56,96.0
991.62,82.0
991.68,82.0
991.75,98.0
991.81,101.0
991.87,91.0
991.93,94.0
992.0,89.0
992.06,95.0
992.12,83.0
992.19,98.0
992.25,80.0
992.31,74.0
992.38,95.0
992.44,89.0
992.5,115.0
992.56,96.0
992.63,106.0
992.69,104.0
992.75,91.0
992.82,99.0
992.88,97.0
992.94,105.0
993.01,101.0
993.07,98.0
993.13,99.0
993.19,100.0
993.26,82.0
993.32,84.0
993.38,59.0
993.45,80.0
993.51,96.0
993.57,83.0
993.64,74.0
993.7,106.0
993.76,118.0
993.82,130.0
993.89,137.0
993.95,118.0
994.01,122.0
994.08,140.0
994.14,138.0
994.2,139.0
994.27,142.0
994.33,145.0
994.39,144.0
994.45,168.0
994.52,160.0
994.58,156.0
994.64,158.0
994.71,136.0
994.77,148.0
994.83,156.0
994.9,153.0
994.96,158.0
995.02,177.0
995.08,161.0
995.15,155.0
995.21,149.0
995.27,132.0
995.34,142.0
995.4,167.0
995.46,151.0
995.53,156.0
995.59,164.0
995.65,163.0
995.71,149.0
995.78,153.0
995.84,152.0
995.9,140.0
995.97,150.0
996.03,151.0
996.09,161.0
996.16,142.0
996.22,155.0
996.28,172.0
996.34,158.0
996.41,148.0
996.47,175.0
996.53,182.0
996.6,166.0
996.66,160.0
996.72,137.0
996.79,159.0
996.85,175.0
996.91,170.0
996.97,186.0
997.04,177.0
997.1,162.0
997.16,169.0
997.23,162.0
997.29,184.0
997.35,193.0
997.42,193.0
997.48,191.0
997.54,164.0
997.6,181.0
997.67,182.0
997.73,180.0
997.79,175.0
997.86,196.0
997.92,178.0
997.98,192.0
998.05,182.0
998.11,176.0
998.17,180.0
998.23,169.0
998.3,168.0
998.36,171.0
998.42,167.0
998.49,172.0
998.55,160.0
998.61,175.0
998.68,163.0
998.74,160.0
998.8,173.0
998.86,200.0
998.93,180.0
998.99,189.0
999.05,194.0
999.12,183.0
999.18,173.0
999.24,166.0
999.31,185.0
999.37,183.0
999.43,164.0
999.49,160.0
999.56,166.0
999.62,158.0
999.68,187.0
999.75,177.0
999.81,186.0
999.87,176.0
