timestamp,intensity
0,-262.0
0.06,-260.0
0.13,-255.0
0.19,-249.0
0.25,-245.0
0.32,-265.0
0.38,-259.0
0.44,-244.0
0.5,-252.0
0.57,-255.0
0.63,-250.0
0.69,-234.0
0.76,-236.0
0.82,-262.0
0.88,-257.0
0.94,-248.0
1.01,-239.0
1.07,-237.0
1.13,-253.0
1.2,-216.0
1.26,-227.0
1.32,-234.0
1.39,-240.0
1.45,-245.0
1.51,-260.0
1.57,-248.0
1.64,-227.0
1.7,-230.0
1.76,-248.0
1.83,-249.0
1.89,-214.0
1.95,-217.0
2.02,-213.0
2.08,-215.0
2.14,-242.0
2.2,-213.0
2.27,-221.0
2.33,-230.0
2.39,-217.0
2.46,-206.0
2.52,-214.0
2.58,-199.0
2.65,-195.0
2.71,-195.0
2.77,-201.0
2.84,-178.0
2.9,-193.0
2.96,-226.0
3.02,-197.0
3.09,-202.0
3.15,-197.0
3.21,-180.0
3.28,-171.0
3.34,-181.0
3.4,-180.0
3.47,-167.0
3.53,-173.0
3.59,-187.0
3.65,-188.0
3.72,-191.0
3.78,-191.0
3.84,-189.0
3.91,-187.0
3.97,-190.0
4.03,-200.0
4.1,-191.0
4.16,-199.0
4.22,-191.0
4.28,-185.0
4.35,-190.0
4.41,-200.0
4.47,-194.0
4.54,-191.0
4.6,-181.0
4.66,-191.0
4.73,-198.0
4.79,-203.0
4.85,-198.0
4.91,-203.0
4.98,-208.0
5.04,-201.0
5.1,-216.0
5.17,-216.0
5.23,-220.0
5.29,-218.0
5.35,-221.0
5.42,-209.0
5.48,-195.0
5.54,-204.0
5.61,-180.0
5.67,-194.0
5.73,-223.0
5.8,-222.0
5.86,-212.0
5.92,-214.0
5.98,-208.0
6.05,-217.0
6.11,-234.0
6.17,-225.0
6.24,-222.0
6.3,-221.0
6.36,-242.0
6.43,-254.0
6.49,-245.0
6.55,-248.0
6.61,-231.0
6.68,-236.0
6.74,-244.0
6.8,-246.0
6.87,-251.0
6.93,-243.0
6.99,-257.0
7.06,-250.0
7.12,-243.0
7.18,-248.0
7.24,-242.0
7.31,-240.0
7.37,-257.0
7.43,-242.0
7.5,-253.0
7.56,-280.0
7.62,-272.0
7.69,-277.0
7.75,-263.0
7.81,-252.0
7.87,-252.0
7.94,-252.0
8.0,-266.0
8.06,-246.0
8.13,-228.0
8.19,-240.0
8.25,-234.0
8.32,-238.0
8.38,-245.0
8.44,-215.0
8.5,-244.0
8.57,-225.0
8.63,-245.0
8.69,-249.0
8.76,-229.0
8.82,-246.0
8.88,-256.0
8.95,-227.0
9.01,-224.0
9.07,-224.0
9.13,-240.0
9.2,-234.0
9.26,-239.0
9.32,-229.0
9.39,-223.0
9.45,-227.0
9.51,-229.0
9.58,-235.0
9.64,-233.0
9.7,-219.0
9.77,-224.0
9.83,-206.0
9.89,-219.0
9.95,-250.0
10.02,-198.0
10.08,-222.0
10.14,-218.0
10.21,-215.0
10.27,-238.0
10.33,-237.0
10.4,-228.0
10.46,-235.0
10.52,-235.0
10.58,-257.0
10.65,-249.0
10.71,-267.0
10.77,-242.0
10.84,-231.0
10.9,-252.0
10.96,-249.0
11.03,-265.0
11.09,-246.0
11.15,-236.0
11.21,-259.0
11.28,-282.0
11.34,-273.0
11.4,-261.0
11.47,-257.0
11.53,-259.0
11.59,-259.0
11.66,-246.0
11.72,-242.0
11.78,-268.0
11.84,-256.0
11.91,-253.0
11.97,-256.0
12.03,-244.0
12.1,-251.0
12.16,-243.0
12.22,-238.0
12.29,-247.0
12.35,-235.0
12.41,-252.0
12.47,-264.0
12.54,-258.0
12.6,-259.0
12.66,-260.0
12.73,-273.0
12.79,-271.0
12.85,-276.0
12.92,-280.0
12.98,-248.0
13.04,-256.0
13.1,-257.0
13.17,-246.0
13.23,-251.0
13.29,-253.0
13.36,-249.0
13.42,-250.0
13.48,-222.0
13.55,-257.0
13.61,-267.0
13.67,-245.0
13.73,-266.0
13.8,-263.0
13.86,-285.0
13.92,-259.0
13.99,-245.0
14.05,-247.0
14.11,-246.0
14.18,-251.0
14.24,-246.0
14.3,-249.0
14.36,-247.0
14.43,-249.0
14.49,-264.0
14.55,-239.0
14.62,-227.0
14.68,-229.0
14.74,-230.0
14.81,-231.0
14.87,-232.0
14.93,-243.0
14.99,-223.0
15.06,-220.0
15.12,-230.0
15.18,-232.0
15.25,-230.0
15.31,-222.0
15.37,-205.0
15.44,-217.0
15.5,-218.0
15.56,-226.0
15.62,-218.0
15.69,-234.0
15.75,-223.0
15.81,-225.0
15.88,-228.0
15.94,-224.0
16.0,-243.0
16.07,-222.0
16.13,-200.0
16.19,-187.0
16.25,-202.0
16.32,-198.0
16.38,-208.0
16.44,-223.0
16.51,-224.0
16.57,-239.0
16.63,-223.0
16.7,-221.0
16.76,-225.0
16.82,-219.0
16.88,-224.0
16.95,-217.0
17.01,-190.0
17.07,-207.0
17.14,-218.0
17.2,-191.0
17.26,-176.0
17.33,-173.0
17.39,-179.0
17.45,-200.0
17.51,-185.0
17.58,-184.0
17.64,-171.0
17.7,-190.0
17.77,-197.0
17.83,-189.0
17.89,-183.0
17.96,-179.0
18.02,-185.0
18.08,-197.0
18.14,-202.0
18.21,-187.0
18.27,-198.0
18.33,-180.0
18.4,-165.0
18.46,-165.0
18.52,-164.0
18.59,-143.0
18.65,-164.0
18.71,-152.0
18.77,-134.0
18.84,-140.0
18.9,-118.0
18.96,-114.0
19.03,-125.0
19.09,-119.0
19.15,-125.0
19.22,-106.0
19.28,-103.0
19.34,-117.0
19.4,-119.0
19.47,-151.0
19.53,-138.0
19.59,-103.0
19.66,-113.0
19.72,-110.0
19.78,-108.0
19.84,-109.0
19.91,-124.0
19.97,-122.0
20.03,-125.0
20.1,-115.0
20.16,-128.0
20.22,-119.0
20.29,-124.0
20.35,-116.0
20.41,-112.0
20.47,-133.0
20.54,-125.0
20.6,-148.0
20.66,-134.0
20.73,-132.0
20.79,-124.0
20.85,-140.0
20.92,-119.0
20.98,-150.0
21.04,-150.0
21.1,-120.0
21.17,-147.0
21.23,-147.0
21.29,-144.0
21.36,-173.0
21.42,-162.0
21.48,-199.0
21.55,-195.0
21.61,-178.0
21.67,-182.0
21.73,-172.0
21.8,-188.0
21.86,-190.0
21.92,-173.0
21.99,-180.0
22.05,-188.0
22.11,-189.0
22.18,-188.0
22.24,-187.0
22.3,-200.0
22.36,-186.0
22.43,-195.0
22.49,-210.0
22.55,-210.0
22.62,-224.0
22.68,-200.0
22.74,-209.0
22.81,-212.0
22.87,-191.0
22.93,-201.0
22.99,-205.0
23.06,-210.0
23.12,-196.0
23.18,-208.0
23.25,-206.0
23.31,-207.0
23.37,-220.0
23.44,-223.0
23.5,-223.0
23.56,-191.0
23.62,-205.0
23.69,-212.0
23.75,-223.0
23.81,-208.0
23.88,-221.0
23.94,-225.0
24.0,-217.0
24.07,-244.0
24.13,-233.0
24.19,-236.0
24.25,-241.0
24.32,-247.0
24.38,-241.0
24.44,-239.0
24.51,-227.0
24.57,-240.0
24.63,-210.0
24.7,-220.0
24.76,-225.0
24.82,-212.0
24.88,-216.0
24.95,-210.0
25.01,-206.0
25.07,-219.0
25.14,-225.0
25.2,-209.0
25.26,-220.0
25.33,-214.0
25.39,-219.0
25.45,-219.0
25.51,-207.0
25.58,-203.0
25.64,-197.0
25.7,-189.0
25.77,-185.0
25.83,-193.0
25.89,-194.0
25.96,-201.0
26.02,-181.0
26.08,-187.0
26.14,-183.0
26.21,-165.0
26.27,-182.0
26.33,-172.0
26.4,-191.0
26.46,-201.0
26.52,-210.0
26.59,-195.0
26.65,-210.0
26.71,-217.0
26.77,-220.0
26.84,-228.0
26.9,-207.0
26.96,-214.0
27.03,-207.0
27.09,-202.0
27.15,-193.0
27.22,-219.0
27.28,-216.0
27.34,-217.0
27.4,-225.0
27.47,-225.0
27.53,-214.0
27.59,-200.0
27.66,-214.0
27.72,-206.0
27.78,-212.0
27.85,-217.0
27.91,-213.0
27.97,-204.0
28.03,-234.0
28.1,-214.0
28.16,-202.0
28.22,-197.0
28.29,-202.0
28.35,-176.0
28.41,-194.0
28.48,-213.0
28.54,-185.0
28.6,-194.0
28.66,-221.0
28.73,-194.0
28.79,-209.0
28.85,-202.0
28.92,-186.0
28.98,-198.0
29.04,-195.0
29.11,-198.0
29.17,-191.0
29.23,-202.0
29.29,-202.0
29.36,-211.0
29.42,-192.0
29.48,-187.0
29.55,-198.0
29.61,-172.0
29.67,-168.0
29.74,-173.0
29.8,-189.0
29.86,-201.0
29.92,-164.0
29.99,-175.0
30.05,-181.0
30.11,-162.0
30.18,-152.0
30.24,-160.0
30.3,-167.0
30.37,-170.0
30.43,-183.0
30.49,-173.0
30.55,-149.0
30.62,-165.0
30.68,-142.0
30.74,-147.0
30.81,-146.0
30.87,-159.0
30.93,-165.0
31.0,-130.0
31.06,-124.0
31.12,-125.0
31.18,-123.0
31.25,-138.0
31.31,-143.0
31.37,-153.0
31.44,-157.0
31.5,-151.0
31.56,-152.0
31.63,-152.0
31.69,-142.0
31.75,-152.0
31.81,-148.0
31.88,-142.0
31.94,-142.0
32.0,-144.0
32.07,-150.0
32.13,-152.0
32.19,-133.0
32.26,-140.0
32.32,-146.0
32.38,-167.0
32.44,-150.0
32.51,-145.0
32.57,-159.0
32.63,-128.0
32.7,-135.0
32.76,-129.0
32.82,-121.0
32.89,-113.0
32.95,-87.0
33.01,-113.0
33.07,-109.0
33.14,-113.0
33.2,-92.0
33.26,-110.0
33.33,-118.0
33.39,-117.0
33.45,-105.0
33.52,-117.0
33.58,-101.0
33.64,-98.0
33.7,-103.0
33.77,-106.0
33.83,-120.0
33.89,-112.0
33.96,-97.0
34.02,-100.0
34.08,-81.0
34.15,-92.0
34.21,-97.0
34.27,-85.0
34.33,-98.0
34.4,-91.0
34.46,-68.0
34.52,-51.0
34.59,-68.0
34.65,-78.0
34.71,-77.0
34.78,-80.0
34.84,-61.0
34.9,-59.0
34.96,-42.0
35.03,-58.0
35.09,-40.0
35.15,-35.0
35.22,-38.0
35.28,-19.0
35.34,-1.0
35.41,-9.0
35.47,29.0
35.53,3.0
35.59,-25.0
35.66,18.0
35.72,-7.0
35.78,16.0
35.85,23.0
35.91,20.0
35.97,19.0
36.04,20.0
36.1,36.0
36.16,7.0
36.22,-12.0
36.29,23.0
36.35,21.0
36.41,21.0
36.48,24.0
36.54,23.0
36.6,30.0
36.67,25.0
36.73,5.0
36.79,20.0
36.85,16.0
36.92,29.0
36.98,17.0
37.04,14.0
37.11,10.0
37.17,-1.0
37.23,6.0
37.3,-8.0
37.36,-13.0
37.42,-17.0
37.48,-11.0
37.55,-18.0
37.61,-38.0
37.67,-39.0
37.74,-28.0
37.8,-51.0
37.86,-39.0
37.93,-36.0
37.99,-17.0
38.05,-19.0
38.12,-27.0
38.18,-36.0
38.24,-57.0
38.3,-55.0
38.37,-32.0
38.43,-52.0
38.49,-48.0
38.56,-59.0
38.62,-48.0
38.68,-51.0
38.75,-67.0
38.81,-44.0
38.87,-54.0
38.93,-63.0
39.0,-71.0
39.06,-64.0
39.12,-76.0
39.19,-68.0
39.25,-64.0
39.31,-57.0
39.38,-82.0
39.44,-97.0
39.5,-80.0
39.56,-77.0
39.63,-85.0
39.69,-93.0
39.75,-117.0
39.82,-108.0
39.88,-90.0
39.94,-106.0
40.01,-110.0
40.07,-107.0
40.13,-105.0
40.19,-94.0
40.26,-96.0
40.32,-110.0
40.38,-118.0
40.45,-132.0
40.51,-136.0
40.57,-130.0
40.64,-146.0
40.7,-140.0
40.76,-136.0
40.82,-150.0
40.89,-164.0
40.95,-145.0
41.01,-137.0
41.08,-151.0
41.14,-142.0
41.2,-146.0
41.27,-135.0
41.33,-147.0
41.39,-148.0
41.45,-154.0
41.52,-145.0
41.58,-149.0
41.64,-140.0
41.71,-142.0
41.77,-133.0
41.83,-124.0
41.9,-113.0
41.96,-144.0
42.02,-132.0
42.08,-137.0
42.15,-128.0
42.21,-137.0
42.27,-116.0
42.34,-125.0
42.4,-109.0
42.46,-105.0
42.53,-119.0
42.59,-113.0
42.65,-115.0
42.71,-117.0
42.78,-109.0
42.84,-104.0
42.9,-116.0
42.97,-133.0
43.03,-118.0
43.09,-115.0
43.16,-115.0
43.22,-127.0
43.28,-124.0
43.34,-104.0
43.41,-112.0
43.47,-126.0
43.53,-127.0
43.6,-128.0
43.66,-140.0
43.72,-151.0
43.79,-142.0
43.85,-140.0
43.91,-141.0
43.97,-158.0
44.04,-149.0
44.1,-139.0
44.16,-151.0
44.23,-143.0
44.29,-140.0
44.35,-147.0
44.42,-143.0
44.48,-150.0
44.54,-148.0
44.6,-140.0
44.67,-153.0
44.73,-150.0
44.79,-138.0
44.86,-138.0
44.92,-151.0
44.98,-151.0
45.05,-148.0
45.11,-153.0
45.17,-154.0
45.23,-145.0
45.3,-148.0
45.36,-156.0
45.42,-182.0
45.49,-157.0
45.55,-152.0
45.61,-163.0
45.68,-157.0
45.74,-153.0
45.8,-134.0
45.86,-134.0
45.93,-122.0
45.99,-137.0
46.05,-138.0
46.12,-123.0
46.18,-116.0
46.24,-139.0
46.31,-130.0
46.37,-124.0
46.43,-139.0
46.49,-139.0
46.56,-118.0
46.62,-133.0
46.68,-127.0
46.75,-144.0
46.81,-129.0
46.87,-147.0
46.94,-164.0
47.0,-163.0
47.06,-172.0
47.12,-160.0
47.19,-175.0
47.25,-161.0
47.31,-161.0
47.38,-155.0
47.44,-147.0
47.5,-151.0
47.57,-154.0
47.63,-147.0
47.69,-125.0
47.75,-142.0
47.82,-135.0
47.88,-131.0
47.94,-142.0
48.01,-154.0
48.07,-162.0
48.13,-155.0
48.2,-165.0
48.26,-153.0
48.32,-148.0
48.38,-152.0
48.45,-148.0
48.51,-135.0
48.57,-123.0
48.64,-116.0
48.7,-128.0
48.76,-129.0
48.83,-117.0
48.89,-122.0
48.95,-118.0
49.01,-121.0
49.08,-118.0
49.14,-125.0
49.2,-117.0
49.27,-117.0
49.33,-137.0
49.39,-142.0
49.46,-139.0
49.52,-127.0
49.58,-104.0
49.64,-114.0
49.71,-111.0
49.77,-115.0
49.83,-126.0
49.9,-102.0
49.96,-114.0
50.02,-137.0
50.09,-115.0
50.15,-97.0
50.21,-106.0
50.27,-100.0
50.34,-83.0
50.4,-73.0
50.46,-62.0
50.53,-67.0
50.59,-61.0
50.65,-56.0
50.72,-73.0
50.78,-68.0
50.84,-62.0
50.9,-74.0
50.97,-71.0
51.03,-61.0
51.09,-75.0
51.16,-77.0
51.22,-63.0
51.28,-57.0
51.35,-68.0
51.41,-63.0
51.47,-54.0
51.53,-59.0
51.6,-61.0
51.66,-51.0
51.72,-55.0
51.79,-57.0
51.85,-48.0
51.91,-35.0
51.98,-17.0
52.04,-31.0
52.1,-33.0
52.16,-29.0
52.23,-27.0
52.29,-21.0
52.35,-12.0
52.42,-12.0
52.48,-25.0
52.54,-20.0
52.61,-2.0
52.67,-5.0
52.73,-22.0
52.79,2.0
52.86,-4.0
52.92,24.0
52.98,0.0
53.05,-12.0
53.11,1.0
53.17,-8.0
53.24,-15.0
53.3,-9.0
53.36,-17.0
53.42,-8.0
53.49,-9.0
53.55,-32.0
53.61,-20.0
53.68,-25.0
53.74,-17.0
53.8,7.0
53.87,15.0
53.93,-11.0
53.99,4.0
54.05,27.0
54.12,16.0
54.18,28.0
54.24,2.0
54.31,-2.0
54.37,-8.0
54.43,-12.0
54.5,-18.0
54.56,-23.0
54.62,-14.0
54.68,-11.0
54.75,-16.0
54.81,-15.0
54.87,-10.0
54.94,-16.0
55.0,-24.0
55.06,-10.0
55.13,1.0
55.19,10.0
55.25,2.0
55.31,19.0
55.38,24.0
55.44,8.0
55.5,21.0
55.57,8.0
55.63,20.0
55.69,-2.0
55.76,13.0
55.82,8.0
55.88,14.0
55.94,22.0
56.01,-4.0
56.07,-27.0
56.13,-13.0
56.2,1.0
56.26,10.0
56.32,-11.0
56.39,-25.0
56.45,-15.0
56.51,-14.0
56.57,-38.0
56.64,-24.0
56.7,-6.0
56.76,-4.0
56.83,8.0
56.89,-3.0
56.95,16.0
57.02,-3.0
57.08,21.0
57.14,8.0
57.2,-4.0
57.27,-20.0
57.33,-33.0
57.39,-12.0
57.46,-4.0
57.52,-9.0
57.58,-20.0
57.65,-39.0
57.71,-42.0
57.77,-19.0
57.83,-22.0
57.9,-36.0
57.96,-37.0
58.02,-43.0
58.09,-47.0
58.15,-33.0
58.21,-56.0
58.28,-22.0
58.34,-26.0
58.4,-30.0
58.46,-24.0
58.53,-26.0
58.59,-16.0
58.65,-14.0
58.72,-11.0
58.78,-22.0
58.84,-11.0
58.91,-17.0
58.97,-18.0
59.03,-16.0
59.09,-15.0
59.16,2.0
59.22,-2.0
59.28,-6.0
59.35,-30.0
59.41,2.0
59.47,5.0
59.54,3.0
59.6,15.0
59.66,23.0
59.72,43.0
59.79,30.0
59.85,41.0
59.91,28.0
59.98,11.0
60.04,13.0
60.1,34.0
60.17,11.0
60.23,34.0
60.29,21.0
60.35,14.0
60.42,9.0
60.48,-2.0
60.54,21.0
60.61,26.0
60.67,29.0
60.73,36.0
60.8,35.0
60.86,31.0
60.92,6.0
60.98,19.0
61.05,15.0
61.11,16.0
61.17,23.0
61.24,21.0
61.3,34.0
61.36,35.0
61.43,23.0
61.49,41.0
61.55,17.0
61.61,17.0
61.68,35.0
61.74,27.0
61.8,19.0
61.87,30.0
61.93,34.0
61.99,26.0
62.06,33.0
62.12,13.0
62.18,34.0
62.24,30.0
62.31,35.0
62.37,20.0
62.43,17.0
62.5,1.0
62.56,5.0
62.62,2.0
62.69,1.0
62.75,7.0
62.81,9.0
62.87,9.0
62.94,-2.0
63.0,3.0
63.06,6.0
63.13,-17.0
63.19,0.0
63.25,4.0
63.32,0.0
63.38,-13.0
63.44,-23.0
63.5,-17.0
63.57,-15.0
63.63,-27.0
63.69,9.0
63.76,9.0
63.82,-12.0
63.88,4.0
63.95,-5.0
64.01,1.0
64.07,-9.0
64.13,-17.0
64.2,0.0
64.26,-16.0
64.32,-21.0
64.39,-9.0
64.45,-18.0
64.51,-28.0
64.58,-14.0
64.64,-11.0
64.7,-2.0
64.76,-22.0
64.83,-11.0
64.89,-19.0
64.95,-24.0
65.02,-25.0
65.08,-13.0
65.14,-32.0
65.21,-27.0
65.27,-20.0
65.33,-10.0
65.39,-48.0
65.46,-56.0
65.52,-38.0
65.58,-31.0
65.65,-19.0
65.71,-24.0
65.77,-16.0
65.84,-22.0
65.9,-29.0
65.96,-44.0
66.02,-40.0
66.09,-31.0
66.15,-29.0
66.21,-44.0
66.28,-35.0
66.34,-34.0
66.4,-54.0
66.47,-56.0
66.53,-48.0
66.59,-49.0
66.65,-47.0
66.72,-40.0
66.78,-47.0
66.84,-29.0
66.91,-33.0
66.97,-34.0
67.03,-55.0
67.1,-32.0
67.16,-21.0
67.22,-37.0
67.28,-40.0
67.35,-28.0
67.41,-18.0
67.47,-22.0
67.54,-41.0
67.6,-21.0
67.66,0.0
67.73,-21.0
67.79,-20.0
67.85,-11.0
67.91,6.0
67.98,1.0
68.04,-1.0
68.1,-26.0
68.17,-25.0
68.23,-34.0
68.29,-25.0
68.36,-37.0
68.42,-25.0
68.48,3.0
68.54,-22.0
68.61,-25.0
68.67,-12.0
68.73,-22.0
68.8,-20.0
68.86,12.0
68.92,23.0
68.99,-1.0
69.05,-2.0
69.11,-19.0
69.17,-12.0
69.24,-5.0
69.3,-4.0
69.36,13.0
69.43,-22.0
69.49,2.0
69.55,-19.0
69.62,-15.0
69.68,-12.0
69.74,-27.0
69.8,-13.0
69.87,13.0
69.93,18.0
69.99,14.0
70.06,11.0
70.12,31.0
70.18,26.0
70.25,19.0
70.31,23.0
70.37,26.0
70.43,23.0
70.5,24.0
70.56,20.0
70.62,35.0
70.69,31.0
70.75,24.0
70.81,31.0
70.88,39.0
70.94,42.0
71.0,21.0
71.06,26.0
71.13,24.0
71.19,-1.0
71.25,28.0
71.32,-2.0
71.38,6.0
71.44,-6.0
71.51,-12.0
71.57,22.0
71.63,5.0
71.69,10.0
71.76,-20.0
71.82,0.0
71.88,-5.0
71.95,-24.0
72.01,-12.0
72.07,-26.0
72.14,-18.0
72.2,-18.0
72.26,-22.0
72.32,-26.0
72.39,-35.0
72.45,-22.0
72.51,-32.0
72.58,-34.0
72.64,-19.0
72.7,-27.0
72.77,-29.0
72.83,-35.0
72.89,-50.0
72.95,-46.0
73.02,-49.0
73.08,-51.0
73.14,-44.0
73.21,-38.0
73.27,-43.0
73.33,-45.0
73.4,-49.0
73.46,-40.0
73.52,-45.0
73.58,-60.0
73.65,-59.0
73.71,-76.0
73.77,-73.0
73.84,-73.0
73.9,-71.0
73.96,-79.0
74.03,-70.0
74.09,-98.0
74.15,-93.0
74.21,-99.0
74.28,-100.0
74.34,-79.0
74.4,-100.0
74.47,-105.0
74.53,-88.0
74.59,-85.0
74.66,-89.0
74.72,-102.0
74.78,-95.0
74.84,-109.0
74.91,-96.0
74.97,-98.0
75.03,-95.0
75.1,-84.0
75.16,-95.0
75.22,-88.0
75.29,-99.0
75.35,-102.0
75.41,-109.0
75.47,-108.0
75.54,-90.0
75.6,-99.0
75.66,-93.0
75.73,-80.0
75.79,-106.0
75.85,-119.0
75.92,-95.0
75.98,-83.0
76.04,-79.0
76.1,-103.0
76.17,-91.0
76.23,-91.0
76.29,-91.0
76.36,-84.0
76.42,-83.0
76.48,-73.0
76.55,-114.0
76.61,-90.0
76.67,-89.0
76.73,-78.0
76.8,-58.0
76.86,-52.0
76.92,-56.0
76.99,-96.0
77.05,-89.0
77.11,-63.0
77.18,-73.0
77.24,-78.0
77.3,-67.0
77.36,-77.0
77.43,-70.0
77.49,-68.0
77.55,-58.0
77.62,-58.0
77.68,-78.0
77.74,-68.0
77.81,-63.0
77.87,-70.0
77.93,-83.0
77.99,-75.0
78.06,-61.0
78.12,-61.0
78.18,-69.0
78.25,-62.0
78.31,-62.0
78.37,-69.0
78.44,-70.0
78.5,-69.0
78.56,-68.0
78.62,-65.0
78.69,-64.0
78.75,-68.0
78.81,-69.0
78.88,-72.0
78.94,-80.0
79.0,-65.0
79.07,-66.0
79.13,-78.0
79.19,-64.0
79.25,-78.0
79.32,-48.0
79.38,-63.0
79.44,-64.0
79.51,-71.0
79.57,-68.0
79.63,-56.0
79.7,-61.0
79.76,-63.0
79.82,-71.0
79.88,-86.0
79.95,-53.0
80.01,-72.0
80.07,-80.0
80.14,-67.0
80.2,-77.0
80.26,-86.0
80.33,-91.0
80.39,-69.0
80.45,-71.0
80.51,-86.0
80.58,-80.0
80.64,-72.0
80.7,-58.0
80.77,-55.0
80.83,-40.0
80.89,-55.0
80.96,-41.0
81.02,-52.0
81.08,-38.0
81.14,-39.0
81.21,-34.0
81.27,-31.0
81.33,-22.0
81.4,-14.0
81.46,-19.0
81.52,-29.0
81.59,-18.0
81.65,-8.0
81.71,7.0
81.77,-18.0
81.84,-15.0
81.9,-9.0
81.96,-16.0
82.03,-19.0
82.09,-12.0
82.15,-10.0
82.22,-4.0
82.28,-5.0
82.34,5.0
82.4,10.0
82.47,0.0
82.53,-9.0
82.59,-12.0
82.66,-11.0
82.72,9.0
82.78,9.0
82.85,-29.0
82.91,-27.0
82.97,-15.0
83.03,2.0
83.1,-2.0
83.16,5.0
83.22,5.0
83.29,10.0
83.35,22.0
83.41,35.0
83.48,8.0
83.54,19.0
83.6,38.0
83.66,38.0
83.73,36.0
83.79,45.0
83.85,21.0
83.92,41.0
83.98,47.0
84.04,54.0
84.11,54.0
84.17,41.0
84.23,68.0
84.29,68.0
84.36,62.0
84.42,54.0
84.48,85.0
84.55,78.0
84.61,80.0
84.67,94.0
84.74,99.0
84.8,90.0
84.86,77.0
84.92,63.0
84.99,74.0
85.05,89.0
85.11,89.0
85.18,79.0
85.24,90.0
85.3,102.0
85.37,110.0
85.43,112.0
85.49,109.0
85.55,88.0
85.62,107.0
85.68,104.0
85.74,117.0
85.81,117.0
85.87,141.0
85.93,150.0
86.0,150.0
86.06,156.0
86.12,157.0
86.18,163.0
86.25,164.0
86.31,161.0
86.37,192.0
86.44,196.0
86.5,174.0
86.56,139.0
86.63,158.0
86.69,145.0
86.75,171.0
86.81,177.0
86.88,191.0
86.94,211.0
87.0,195.0
87.07,192.0
87.13,196.0
87.19,199.0
87.26,183.0
87.32,183.0
87.38,172.0
87.44,185.0
87.51,177.0
87.57,180.0
87.63,169.0
87.7,186.0
87.76,180.0
87.82,178.0
87.89,172.0
87.95,181.0
88.01,159.0
88.07,144.0
88.14,157.0
88.2,132.0
88.26,168.0
88.33,177.0
88.39,168.0
88.45,155.0
88.52,167.0
88.58,162.0
88.64,150.0
88.7,147.0
88.77,157.0
88.83,155.0
88.89,145.0
88.96,132.0
89.02,133.0
89.08,132.0
89.15,131.0
89.21,153.0
89.27,137.0
89.33,144.0
89.4,149.0
89.46,155.0
89.52,122.0
89.59,142.0
89.65,121.0
89.71,108.0
89.78,126.0
89.84,138.0
89.9,119.0
89.96,119.0
90.03,109.0
90.09,106.0
90.15,108.0
90.22,108.0
90.28,111.0
90.34,112.0
90.41,95.0
90.47,118.0
90.53,104.0
90.59,94.0
90.66,73.0
90.72,88.0
90.78,78.0
90.85,88.0
90.91,96.0
90.97,83.0
91.04,69.0
91.1,80.0
91.16,54.0
91.22,63.0
91.29,77.0
91.35,74.0
91.41,64.0
91.48,42.0
91.54,55.0
91.6,75.0
91.67,57.0
91.73,45.0
91.79,60.0
91.85,83.0
91.92,59.0
91.98,70.0
92.04,68.0
92.11,61.0
92.17,72.0
92.23,79.0
92.3,71.0
92.36,64.0
92.42,84.0
92.48,83.0
92.55,90.0
92.61,85.0
92.67,78.0
92.74,80.0
92.8,73.0
92.86,52.0
92.93,65.0
92.99,64.0
93.05,81.0
93.11,82.0
93.18,64.0
93.24,63.0
93.3,55.0
93.37,71.0
93.43,79.0
93.49,52.0
93.56,33.0
93.62,40.0
93.68,56.0
93.74,43.0
93.81,45.0
93.87,31.0
93.93,44.0
94.0,41.0
94.06,20.0
94.12,8.0
94.19,14.0
94.25,0.0
94.31,-15.0
94.37,-11.0
94.44,-8.0
94.5,4.0
94.56,-12.0
94.63,-20.0
94.69,-13.0
94.75,3.0
94.82,-3.0
94.88,-2.0
94.94,-9.0
95.0,-18.0
95.07,-5.0
95.13,-26.0
95.19,-8.0
95.26,-4.0
95.32,5.0
95.38,1.0
95.45,-7.0
95.51,2.0
95.57,-7.0
95.63,-20.0
95.7,-6.0
95.76,-14.0
95.82,-33.0
95.89,-45.0
95.95,-38.0
96.01,-47.0
96.08,-48.0
96.14,-37.0
96.2,-38.0
96.26,-35.0
96.33,-26.0
96.39,-19.0
96.45,-38.0
96.52,-23.0
96.58,-24.0
96.64,-23.0
96.71,-45.0
96.77,-26.0
96.83,-19.0
96.89,-38.0
96.96,-46.0
97.02,-39.0
97.08,-56.0
97.15,-57.0
97.21,-57.0
97.27,-45.0
97.34,-41.0
97.4,-64.0
97.46,-46.0
97.52,-38.0
97.59,-46.0
97.65,-49.0
97.71,-50.0
97.78,-48.0
97.84,-56.0
97.9,-47.0
97.97,-46.0
98.03,-54.0
98.09,-61.0
98.15,-78.0
98.22,-69.0
98.28,-86.0
98.34,-62.0
98.41,-67.0
98.47,-82.0
98.53,-75.0
98.6,-74.0
98.66,-50.0
98.72,-77.0
98.78,-54.0
98.85,-51.0
98.91,-67.0
98.97,-66.0
99.04,-76.0
99.1,-61.0
99.16,-88.0
99.23,-79.0
99.29,-80.0
99.35,-70.0
99.41,-66.0
99.48,-63.0
99.54,-60.0
99.6,-66.0
99.67,-60.0
99.73,-52.0
99.79,-90.0
99.86,-79.0
99.92,-82.0
99.98,-116.0
100.04,-89.0
100.11,-82.0
100.17,-87.0
100.23,-62.0
100.3,-70.0
100.36,-60.0
100.42,-61.0
100.49,-64.0
100.55,-52.0
100.61,-52.0
100.67,-40.0
100.74,-17.0
100.8,-18.0
100.86,-18.0
100.93,-25.0
100.99,-6.0
101.05,13.0
101.12,3.0
101.18,15.0
101.24,-6.0
101.3,3.0
101.37,14.0
101.43,16.0
101.49,33.0
101.56,24.0
101.62,32.0
101.68,30.0
101.75,24.0
101.81,18.0
101.87,20.0
101.93,15.0
102.0,10.0
102.06,14.0
102.12,32.0
102.19,39.0
102.25,14.0
102.31,10.0
102.38,31.0
102.44,50.0
102.5,46.0
102.56,60.0
102.63,48.0
102.69,39.0
102.75,40.0
102.82,50.0
102.88,61.0
102.94,32.0
103.01,29.0
103.07,36.0
103.13,31.0
103.19,51.0
103.26,59.0
103.32,68.0
103.38,83.0
103.45,71.0
103.51,72.0
103.57,79.0
103.64,79.0
103.7,78.0
103.76,75.0
103.82,94.0
103.89,83.0
103.95,94.0
104.01,87.0
104.08,85.0
104.14,83.0
104.2,78.0
104.27,107.0
104.33,105.0
104.39,97.0
104.45,89.0
104.52,78.0
104.58,80.0
104.64,94.0
104.71,78.0
104.77,81.0
104.83,90.0
104.9,83.0
104.96,84.0
105.02,68.0
105.08,67.0
105.15,57.0
105.21,47.0
105.27,57.0
105.34,55.0
105.4,64.0
105.46,35.0
105.53,35.0
105.59,31.0
105.65,28.0
105.71,38.0
105.78,34.0
105.84,38.0
105.9,32.0
105.97,35.0
106.03,44.0
106.09,43.0
106.16,22.0
106.22,28.0
106.28,42.0
106.34,42.0
106.41,48.0
106.47,24.0
106.53,36.0
106.6,13.0
106.66,32.0
106.72,45.0
106.79,44.0
106.85,30.0
106.91,52.0
106.97,35.0
107.04,28.0
107.1,45.0
107.16,21.0
107.23,32.0
107.29,29.0
107.35,32.0
107.42,40.0
107.48,46.0
107.54,58.0
107.6,47.0
107.67,42.0
107.73,37.0
107.79,50.0
107.86,49.0
107.92,57.0
107.98,47.0
108.05,54.0
108.11,59.0
108.17,50.0
108.23,53.0
108.3,46.0
108.36,48.0
108.42,43.0
108.49,42.0
108.55,35.0
108.61,57.0
108.68,58.0
108.74,60.0
108.8,57.0
108.86,66.0
108.93,65.0
108.99,76.0
109.05,75.0
109.12,83.0
109.18,84.0
109.24,98.0
109.31,101.0
109.37,94.0
109.43,92.0
109.49,88.0
109.56,91.0
109.62,74.0
109.68,94.0
109.75,71.0
109.81,83.0
109.87,79.0
109.94,89.0
110.0,82.0
110.06,75.0
110.12,89.0
110.19,94.0
110.25,86.0
110.31,105.0
110.38,94.0
110.44,75.0
110.5,91.0
110.57,79.0
110.63,52.0
110.69,42.0
110.75,61.0
110.82,82.0
110.88,87.0
110.94,87.0
111.01,66.0
111.07,87.0
111.13,99.0
111.2,106.0
111.26,103.0
111.32,99.0
111.38,74.0
111.45,73.0
111.51,90.0
111.57,100.0
111.64,107.0
111.7,83.0
111.76,90.0
111.83,86.0
111.89,91.0
111.95,94.0
112.01,83.0
112.08,88.0
112.14,83.0
112.2,90.0
112.27,87.0
112.33,82.0
112.39,75.0
112.46,80.0
112.52,83.0
112.58,102.0
112.64,82.0
112.71,94.0
112.77,107.0
112.83,105.0
112.9,90.0
112.96,83.0
113.02,86.0
113.09,69.0
113.15,90.0
113.21,80.0
113.27,73.0
113.34,97.0
113.4,83.0
113.46,68.0
113.53,83.0
113.59,67.0
113.65,81.0
113.72,91.0
113.78,76.0
113.84,85.0
113.9,83.0
113.97,65.0
114.03,92.0
114.09,76.0
114.16,76.0
114.22,93.0
114.28,109.0
114.35,87.0
114.41,73.0
114.47,76.0
114.53,75.0
114.6,74.0
114.66,65.0
114.72,63.0
114.79,53.0
114.85,39.0
114.91,46.0
114.98,28.0
115.04,54.0
115.1,57.0
115.16,68.0
115.23,50.0
115.29,48.0
115.35,53.0
115.42,24.0
115.48,21.0
115.54,42.0
115.61,35.0
115.67,21.0
115.73,27.0
115.79,33.0
115.86,38.0
115.92,50.0
115.98,32.0
116.05,42.0
116.11,30.0
116.17,41.0
116.24,53.0
116.3,35.0
116.36,43.0
116.42,44.0
116.49,58.0
116.55,47.0
116.61,38.0
116.68,43.0
116.74,58.0
116.8,49.0
116.87,19.0
116.93,6.0
116.99,20.0
117.05,32.0
117.12,41.0
117.18,33.0
117.24,44.0
117.31,36.0
117.37,36.0
117.43,22.0
117.5,19.0
117.56,35.0
117.62,21.0
117.68,18.0
117.75,4.0
117.81,11.0
117.87,17.0
117.94,0.0
118.0,-2.0
118.06,24.0
118.13,36.0
118.19,37.0
118.25,11.0
118.31,6.0
118.38,17.0
118.44,31.0
118.5,27.0
118.57,25.0
118.63,32.0
118.69,39.0
118.76,30.0
118.82,23.0
118.88,52.0
118.94,49.0
119.01,27.0
119.07,46.0
119.13,11.0
119.2,35.0
119.26,43.0
119.32,54.0
119.39,64.0
119.45,59.0
119.51,72.0
119.57,59.0
119.64,70.0
119.7,74.0
119.76,86.0
119.83,82.0
119.89,84.0
119.95,70.0
120.02,56.0
120.08,67.0
120.14,55.0
120.2,56.0
120.27,54.0
120.33,50.0
120.39,62.0
120.46,72.0
120.52,78.0
120.58,62.0
120.65,58.0
120.71,64.0
120.77,65.0
120.83,57.0
120.9,55.0
120.96,36.0
121.02,51.0
121.09,70.0
121.15,49.0
121.21,60.0
121.28,64.0
121.34,44.0
121.4,53.0
121.46,49.0
121.53,42.0
121.59,63.0
121.65,55.0
121.72,38.0
121.78,46.0
121.84,38.0
121.91,21.0
121.97,37.0
122.03,42.0
122.09,30.0
122.16,45.0
122.22,46.0
122.28,53.0
122.35,69.0
122.41,48.0
122.47,53.0
122.54,58.0
122.6,52.0
122.66,22.0
122.72,39.0
122.79,46.0
122.85,25.0
122.91,29.0
122.98,27.0
123.04,25.0
123.1,32.0
123.17,37.0
123.23,29.0
123.29,11.0
123.35,6.0
123.42,10.0
123.48,23.0
123.54,8.0
123.61,4.0
123.67,16.0
123.73,6.0
123.8,22.0
123.86,14.0
123.92,21.0
123.98,7.0
124.05,24.0
124.11,-2.0
124.17,-32.0
124.24,-19.0
124.3,-9.0
124.36,-26.0
124.43,-35.0
124.49,-23.0
124.55,-14.0
124.61,-44.0
124.68,-22.0
124.74,-30.0
124.8,-24.0
124.87,-3.0
124.93,7.0
124.99,-4.0
125.06,-26.0
125.12,-21.0
125.18,-40.0
125.24,0.0
125.31,-2.0
125.37,-32.0
125.43,5.0
125.5,-31.0
125.56,-1.0
125.62,-22.0
125.69,-23.0
125.75,-25.0
125.81,-46.0
125.87,3.0
125.94,-6.0
126.0,-23.0
126.06,1.0
126.13,1.0
126.19,7.0
126.25,-5.0
126.32,-2.0
126.38,1.0
126.44,16.0
126.5,4.0
126.57,8.0
126.63,9.0
126.69,18.0
126.76,4.0
126.82,10.0
126.88,0.0
126.95,5.0
127.01,-1.0
127.07,-6.0
127.13,-14.0
127.2,14.0
127.26,2.0
127.32,-8.0
127.39,-8.0
127.45,16.0
127.51,3.0
127.58,0.0
127.64,20.0
127.7,25.0
127.76,30.0
127.83,21.0
127.89,15.0
127.95,-3.0
128.02,2.0
128.08,3.0
128.14,2.0
128.21,8.0
128.27,-7.0
128.33,-22.0
128.39,0.0
128.46,7.0
128.52,2.0
128.58,-3.0
128.65,3.0
128.71,-10.0
128.77,-14.0
128.84,-11.0
128.9,-11.0
128.96,-33.0
129.02,-44.0
129.09,-33.0
129.15,-7.0
129.21,-16.0
129.28,-20.0
129.34,-4.0
129.4,6.0
129.47,9.0
129.53,2.0
129.59,10.0
129.65,2.0
129.72,2.0
129.78,-6.0
129.84,-10.0
129.91,8.0
129.97,19.0
130.03,13.0
130.1,18.0
130.16,19.0
130.22,30.0
130.28,24.0
130.35,2.0
130.41,19.0
130.47,9.0
130.54,-4.0
130.6,1.0
130.66,-8.0
130.73,-16.0
130.79,-8.0
130.85,14.0
130.91,-18.0
130.98,-5.0
131.04,-11.0
131.1,-11.0
131.17,4.0
131.23,-12.0
131.29,5.0
131.36,35.0
131.42,9.0
131.48,23.0
131.54,10.0
131.61,10.0
131.67,4.0
131.73,-2.0
131.8,20.0
131.86,10.0
131.92,10.0
131.99,2.0
132.05,-3.0
132.11,15.0
132.17,21.0
132.24,15.0
132.3,0.0
132.36,10.0
132.43,23.0
132.49,30.0
132.55,20.0
132.62,-18.0
132.68,0.0
132.74,-3.0
132.8,-21.0
132.87,-7.0
132.93,-14.0
132.99,-13.0
133.06,-9.0
133.12,9.0
133.18,9.0
133.25,3.0
133.31,-11.0
133.37,-2.0
133.43,11.0
133.5,4.0
133.56,-5.0
133.62,-12.0
133.69,13.0
133.75,17.0
133.81,2.0
133.88,27.0
133.94,57.0
134.0,51.0
134.06,39.0
134.13,35.0
134.19,45.0
134.25,52.0
134.32,60.0
134.38,54.0
134.44,57.0
134.51,92.0
134.57,101.0
134.63,102.0
134.69,87.0
134.76,105.0
134.82,104.0
134.88,107.0
134.95,96.0
135.01,95.0
135.07,103.0
135.14,92.0
135.2,71.0
135.26,51.0
135.32,74.0
135.39,71.0
135.45,81.0
135.51,123.0
135.58,108.0
135.64,99.0
135.7,120.0
135.77,112.0
135.83,116.0
135.89,121.0
135.95,114.0
136.02,122.0
136.08,140.0
136.14,150.0
136.21,137.0
136.27,145.0
136.33,138.0
136.4,130.0
136.46,109.0
136.52,146.0
136.58,129.0
136.65,142.0
136.71,172.0
136.77,169.0
136.84,174.0
136.9,173.0
136.96,176.0
137.03,173.0
137.09,154.0
137.15,160.0
137.21,157.0
137.28,148.0
137.34,147.0
137.4,160.0
137.47,158.0
137.53,167.0
137.59,171.0
137.66,166.0
137.72,159.0
137.78,181.0
137.84,183.0
137.91,163.0
137.97,169.0
138.03,172.0
138.1,180.0
138.16,159.0
138.22,156.0
138.29,166.0
138.35,157.0
138.41,174.0
138.47,178.0
138.54,172.0
138.6,161.0
138.66,168.0
138.73,161.0
138.79,178.0
138.85,183.0
138.92,166.0
138.98,197.0
139.04,166.0
139.1,162.0
139.17,171.0
139.23,156.0
139.29,159.0
139.36,147.0
139.42,145.0
139.48,140.0
139.55,135.0
139.61,142.0
139.67,143.0
139.73,142.0
139.8,126.0
139.86,140.0
139.92,155.0
139.99,172.0
140.05,158.0
140.11,126.0
140.18,139.0
140.24,134.0
140.3,121.0
140.36,117.0
140.43,118.0
140.49,136.0
140.55,136.0
140.62,118.0
140.68,129.0
140.74,117.0
140.81,112.0
140.87,129.0
140.93,127.0
140.99,99.0
141.06,89.0
141.12,104.0
141.18,112.0
141.25,103.0
141.31,96.0
141.37,107.0
141.44,118.0
141.5,111.0
141.56,101.0
141.62,115.0
141.69,123.0
141.75,123.0
141.81,127.0
141.88,106.0
141.94,114.0
142.0,116.0
142.07,113.0
142.13,114.0
142.19,112.0
142.25,121.0
142.32,104.0
142.38,123.0
142.44,104.0
142.51,103.0
142.57,125.0
142.63,115.0
142.7,126.0
142.76,120.0
142.82,107.0
142.88,101.0
142.95,100.0
143.01,107.0
143.07,96.0
143.14,108.0
143.2,111.0
143.26,99.0
143.33,80.0
143.39,74.0
143.45,71.0
143.51,86.0
143.58,92.0
143.64,70.0
143.7,74.0
143.77,84.0
143.83,84.0
143.89,84.0
143.96,78.0
144.02,86.0
144.08,62.0
144.14,63.0
144.21,48.0
144.27,52.0
144.33,49.0
144.4,51.0
144.46,71.0
144.52,52.0
144.59,66.0
144.65,56.0
144.71,40.0
144.77,33.0
144.84,29.0
144.9,24.0
144.96,16.0
145.03,26.0
145.09,30.0
145.15,35.0
145.22,39.0
145.28,44.0
145.34,35.0
145.4,34.0
145.47,9.0
145.53,1.0
145.59,27.0
145.66,19.0
145.72,22.0
145.78,26.0
145.85,26.0
145.91,37.0
145.97,38.0
146.03,27.0
146.1,27.0
146.16,33.0
146.22,23.0
146.29,28.0
146.35,9.0
146.41,23.0
146.47,11.0
146.54,25.0
146.6,11.0
146.66,13.0
146.73,18.0
146.79,5.0
146.85,29.0
146.92,16.0
146.98,11.0
147.04,-3.0
147.1,21.0
147.17,-12.0
147.23,-17.0
147.29,-4.0
147.36,-9.0
147.42,-16.0
147.48,-19.0
147.55,-35.0
147.61,-34.0
147.67,-9.0
147.73,-15.0
147.8,-15.0
147.86,-14.0
147.92,-15.0
147.99,0.0
148.05,-6.0
148.11,0.0
148.18,-8.0
148.24,-3.0
148.3,-23.0
148.36,-33.0
148.43,-6.0
148.49,-13.0
148.55,-21.0
148.62,-33.0
148.68,-29.0
148.74,-36.0
148.81,-28.0
148.87,-41.0
148.93,-55.0
148.99,-36.0
149.06,-65.0
149.12,-64.0
149.18,-41.0
149.25,-51.0
149.31,-34.0
149.37,-37.0
149.44,-37.0
149.5,-58.0
149.56,-51.0
149.62,-38.0
149.69,-28.0
149.75,-44.0
149.81,-45.0
149.88,-13.0
149.94,-42.0
150.0,-39.0
150.07,-20.0
150.13,-33.0
150.19,-31.0
150.25,-41.0
150.32,-58.0
150.38,-50.0
150.44,-35.0
150.51,-31.0
150.57,-24.0
150.63,-25.0
150.7,-22.0
150.76,-11.0
150.82,-11.0
150.88,-23.0
150.95,-9.0
151.01,-12.0
151.07,-12.0
151.14,-24.0
151.2,-12.0
151.26,-13.0
151.33,-21.0
151.39,-3.0
151.45,7.0
151.51,5.0
151.58,11.0
151.64,29.0
151.7,18.0
151.77,14.0
151.83,29.0
151.89,23.0
151.96,32.0
152.02,39.0
152.08,30.0
152.14,31.0
152.21,38.0
152.27,51.0
152.33,41.0
152.4,42.0
152.46,33.0
152.52,47.0
152.59,52.0
152.65,57.0
152.71,68.0
152.77,67.0
152.84,57.0
152.9,71.0
152.96,80.0
153.03,81.0
153.09,64.0
153.15,51.0
153.22,67.0
153.28,84.0
153.34,85.0
153.4,73.0
153.47,69.0
153.53,83.0
153.59,90.0
153.66,106.0
153.72,112.0
153.78,112.0
153.85,110.0
153.91,109.0
153.97,117.0
154.03,127.0
154.1,124.0
154.16,112.0
154.22,132.0
154.29,128.0
154.35,120.0
154.41,130.0
154.48,128.0
154.54,130.0
154.6,136.0
154.66,123.0
154.73,115.0
154.79,122.0
154.85,125.0
154.92,123.0
154.98,115.0
155.04,106.0
155.11,119.0
155.17,131.0
155.23,136.0
155.29,136.0
155.36,143.0
155.42,135.0
155.48,138.0
155.55,154.0
155.61,147.0
155.67,139.0
155.74,128.0
155.8,127.0
155.86,149.0
155.92,144.0
155.99,155.0
156.05,170.0
156.11,152.0
156.18,165.0
156.24,138.0
156.3,138.0
156.37,151.0
156.43,152.0
156.49,132.0
156.55,136.0
156.62,134.0
156.68,113.0
156.74,102.0
156.81,105.0
156.87,103.0
156.93,107.0
157.0,120.0
157.06,113.0
157.12,114.0
157.18,110.0
157.25,114.0
157.31,115.0
157.37,121.0
157.44,117.0
157.5,110.0
157.56,91.0
157.63,96.0
157.69,107.0
157.75,95.0
157.81,109.0
157.88,79.0
157.94,103.0
158.0,86.0
158.07,93.0
158.13,96.0
158.19,88.0
158.26,99.0
158.32,104.0
158.38,115.0
158.44,124.0
158.51,135.0
158.57,122.0
158.63,113.0
158.7,121.0
158.76,109.0
158.82,117.0
158.89,112.0
158.95,110.0
159.01,129.0
159.07,145.0
159.14,136.0
159.2,136.0
159.26,129.0
159.33,128.0
159.39,131.0
159.45,118.0
159.52,124.0
159.58,124.0
159.64,109.0
159.7,117.0
159.77,110.0
159.83,106.0
159.89,125.0
159.96,122.0
160.02,123.0
160.08,121.0
160.15,110.0
160.21,121.0
160.27,122.0
160.33,120.0
160.4,112.0
160.46,132.0
160.52,118.0
160.59,128.0
160.65,135.0
160.71,146.0
160.78,142.0
160.84,141.0
160.9,119.0
160.96,138.0
161.03,157.0
161.09,172.0
161.15,154.0
161.22,150.0
161.28,160.0
161.34,154.0
161.41,164.0
161.47,153.0
161.53,147.0
161.59,168.0
161.66,156.0
161.72,153.0
161.78,131.0
161.85,143.0
161.91,144.0
161.97,146.0
162.04,167.0
162.1,160.0
162.16,162.0
162.22,169.0
162.29,146.0
162.35,164.0
162.41,151.0
162.48,150.0
162.54,132.0
162.6,140.0
162.67,121.0
162.73,110.0
162.79,106.0
162.85,114.0
162.92,123.0
162.98,147.0
163.04,146.0
163.11,132.0
163.17,142.0
163.23,142.0
163.3,142.0
163.36,126.0
163.42,136.0
163.48,115.0
163.55,125.0
163.61,132.0
163.67,119.0
163.74,130.0
163.8,149.0
163.86,136.0
163.93,143.0
163.99,144.0
164.05,133.0
164.11,128.0
164.18,110.0
164.24,117.0
164.3,101.0
164.37,98.0
164.43,107.0
164.49,123.0
164.56,96.0
164.62,103.0
164.68,137.0
164.74,136.0
164.81,128.0
164.87,106.0
164.93,94.0
165.0,89.0
165.06,97.0
165.12,84.0
165.19,90.0
165.25,86.0
165.31,81.0
165.37,77.0
165.44,90.0
165.5,84.0
165.56,67.0
165.63,81.0
165.69,79.0
165.75,76.0
165.82,82.0
165.88,69.0
165.94,59.0
166.0,75.0
166.07,73.0
166.13,53.0
166.19,65.0
166.26,60.0
166.32,58.0
166.38,43.0
166.45,35.0
166.51,32.0
166.57,32.0
166.63,51.0
166.7,38.0
166.76,32.0
166.82,40.0
166.89,21.0
166.95,11.0
167.01,30.0
167.08,31.0
167.14,7.0
167.2,7.0
167.26,7.0
167.33,22.0
167.39,23.0
167.45,44.0
167.52,40.0
167.58,26.0
167.64,39.0
167.71,33.0
167.77,55.0
167.83,35.0
167.89,40.0
167.96,51.0
168.02,60.0
168.08,63.0
168.15,71.0
168.21,54.0
168.27,51.0
168.34,51.0
168.4,61.0
168.46,66.0
168.52,62.0
168.59,73.0
168.65,73.0
168.71,66.0
168.78,61.0
168.84,41.0
168.9,65.0
168.97,55.0
169.03,55.0
169.09,49.0
169.15,54.0
169.22,74.0
169.28,77.0
169.34,65.0
169.41,78.0
169.47,74.0
169.53,87.0
169.6,109.0
169.66,93.0
169.72,91.0
169.78,92.0
169.85,113.0
169.91,106.0
169.97,95.0
170.04,76.0
170.1,83.0
170.16,95.0
170.23,101.0
170.29,87.0
170.35,81.0
170.41,110.0
170.48,120.0
170.54,106.0
170.6,111.0
170.67,125.0
170.73,132.0
170.79,114.0
170.86,109.0
170.92,128.0
170.98,106.0
171.04,109.0
171.11,138.0
171.17,138.0
171.23,134.0
171.3,143.0
171.36,148.0
171.42,143.0
171.49,168.0
171.55,163.0
171.61,139.0
171.67,135.0
171.74,143.0
171.8,143.0
171.86,133.0
171.93,126.0
171.99,113.0
172.05,119.0
172.12,105.0
172.18,93.0
172.24,101.0
172.3,103.0
172.37,100.0
172.43,85.0
172.49,85.0
172.56,80.0
172.62,101.0
172.68,92.0
172.75,59.0
172.81,77.0
172.87,62.0
172.93,81.0
173.0,104.0
173.06,92.0
173.12,74.0
173.19,56.0
173.25,73.0
173.31,82.0
173.38,58.0
173.44,49.0
173.5,57.0
173.56,77.0
173.63,66.0
173.69,68.0
173.75,77.0
173.82,60.0
173.88,61.0
173.94,63.0
174.01,50.0
174.07,55.0
174.13,60.0
174.19,51.0
174.26,49.0
174.32,32.0
174.38,38.0
174.45,37.0
174.51,51.0
174.57,44.0
174.64,25.0
174.7,26.0
174.76,18.0
174.82,21.0
174.89,39.0
174.95,38.0
175.01,39.0
175.08,26.0
175.14,35.0
175.2,55.0
175.27,58.0
175.33,38.0
175.39,57.0
175.45,62.0
175.52,54.0
175.58,66.0
175.64,73.0
175.71,68.0
175.77,75.0
175.83,55.0
175.9,33.0
175.96,32.0
176.02,44.0
176.08,41.0
176.15,41.0
176.21,38.0
176.27,38.0
176.34,44.0
176.4,26.0
176.46,13.0
176.53,22.0
176.59,26.0
176.65,47.0
176.71,49.0
176.78,37.0
176.84,33.0
176.9,43.0
176.97,32.0
177.03,21.0
177.09,39.0
177.16,33.0
177.22,35.0
177.28,21.0
177.34,4.0
177.41,8.0
177.47,10.0
177.53,17.0
177.6,6.0
177.66,-3.0
177.72,7.0
177.79,7.0
177.85,18.0
177.91,30.0
177.97,37.0
178.04,17.0
178.1,7.0
178.16,10.0
178.23,15.0
178.29,25.0
178.35,9.0
178.42,35.0
178.48,16.0
178.54,17.0
178.6,21.0
178.67,36.0
178.73,29.0
178.79,32.0
178.86,45.0
178.92,40.0
178.98,47.0
179.05,36.0
179.11,23.0
179.17,18.0
179.23,9.0
179.3,36.0
179.36,24.0
179.42,10.0
179.49,19.0
179.55,22.0
179.61,2.0
179.68,-26.0
179.74,-2.0
179.8,1.0
179.86,7.0
179.93,5.0
179.99,-2.0
180.05,-10.0
180.12,-11.0
180.18,-1.0
180.24,9.0
180.31,17.0
180.37,28.0
180.43,32.0
180.49,39.0
180.56,31.0
180.62,18.0
180.68,28.0
180.75,17.0
180.81,31.0
180.87,27.0
180.94,27.0
181.0,9.0
181.06,16.0
181.12,5.0
181.19,21.0
181.25,41.0
181.31,44.0
181.38,39.0
181.44,31.0
181.5,22.0
181.57,18.0
181.63,21.0
181.69,18.0
181.75,32.0
181.82,33.0
181.88,28.0
181.94,7.0
182.01,12.0
182.07,31.0
182.13,6.0
182.2,27.0
182.26,30.0
182.32,34.0
182.38,17.0
182.45,14.0
182.51,25.0
182.57,27.0
182.64,33.0
182.7,39.0
182.76,36.0
182.83,27.0
182.89,22.0
182.95,6.0
183.01,3.0
183.08,-2.0
183.14,19.0
183.2,-5.0
183.27,4.0
183.33,1.0
183.39,2.0
183.46,-23.0
183.52,-26.0
183.58,-16.0
183.64,-8.0
183.71,15.0
183.77,0.0
183.83,-6.0
183.9,8.0
183.96,-25.0
184.02,-25.0
184.09,-27.0
184.15,-27.0
184.21,-34.0
184.27,-14.0
184.34,8.0
184.4,0.0
184.46,1.0
184.53,7.0
184.59,24.0
184.65,24.0
184.72,16.0
184.78,16.0
184.84,22.0
184.9,19.0
184.97,4.0
185.03,25.0
185.09,18.0
185.16,8.0
185.22,22.0
185.28,12.0
185.35,35.0
185.41,23.0
185.47,16.0
185.53,26.0
185.6,23.0
185.66,20.0
185.72,14.0
185.79,42.0
185.85,38.0
185.91,41.0
185.98,63.0
186.04,65.0
186.1,54.0
186.16,71.0
186.23,93.0
186.29,79.0
186.35,93.0
186.42,81.0
186.48,85.0
186.54,82.0
186.61,98.0
186.67,130.0
186.73,107.0
186.79,111.0
186.86,85.0
186.92,107.0
186.98,115.0
187.05,118.0
187.11,106.0
187.17,112.0
187.24,118.0
187.3,120.0
187.36,108.0
187.42,112.0
187.49,97.0
187.55,100.0
187.61,126.0
187.68,115.0
187.74,101.0
187.8,124.0
187.87,112.0
187.93,115.0
187.99,114.0
188.05,125.0
188.12,118.0
188.18,110.0
188.24,109.0
188.31,123.0
188.37,125.0
188.43,114.0
188.5,126.0
188.56,122.0
188.62,122.0
188.68,153.0
188.75,148.0
188.81,147.0
188.87,179.0
188.94,173.0
189.0,185.0
189.06,183.0
189.13,179.0
189.19,160.0
189.25,183.0
189.31,197.0
189.38,171.0
189.44,166.0
189.5,166.0
189.57,176.0
189.63,164.0
189.69,166.0
189.76,164.0
189.82,157.0
189.88,184.0
189.94,178.0
190.01,172.0
190.07,177.0
190.13,175.0
190.2,186.0
190.26,189.0
190.32,181.0
190.39,178.0
190.45,170.0
190.51,154.0
190.57,159.0
190.64,135.0
190.7,141.0
190.76,123.0
190.83,140.0
190.89,136.0
190.95,140.0
191.02,129.0
191.08,139.0
191.14,157.0
191.2,152.0
191.27,145.0
191.33,155.0
191.39,140.0
191.46,136.0
191.52,137.0
191.58,122.0
191.65,114.0
191.71,129.0
191.77,129.0
191.83,147.0
191.9,123.0
191.96,139.0
192.02,133.0
192.09,155.0
192.15,148.0
192.21,144.0
192.28,140.0
192.34,122.0
192.4,141.0
192.46,126.0
192.53,123.0
192.59,119.0
192.65,112.0
192.72,141.0
192.78,126.0
192.84,141.0
192.91,126.0
192.97,112.0
193.03,138.0
193.09,135.0
193.16,136.0
193.22,148.0
193.28,144.0
193.35,133.0
193.41,135.0
193.47,134.0
193.54,133.0
193.6,137.0
193.66,145.0
193.72,116.0
193.79,125.0
193.85,141.0
193.91,134.0
193.98,136.0
194.04,120.0
194.1,114.0
194.17,99.0
194.23,122.0
194.29,122.0
194.35,116.0
194.42,126.0
194.48,125.0
194.54,128.0
194.61,140.0
194.67,135.0
194.73,119.0
194.8,107.0
194.86,119.0
194.92,134.0
194.98,131.0
195.05,150.0
195.11,121.0
195.17,125.0
195.24,123.0
195.3,120.0
195.36,120.0
195.43,115.0
195.49,120.0
195.55,131.0
195.61,131.0
195.68,126.0
195.74,130.0
195.8,115.0
195.87,123.0
195.93,118.0
195.99,124.0
196.06,115.0
196.12,126.0
196.18,109.0
196.24,108.0
196.31,108.0
196.37,115.0
196.43,118.0
196.5,128.0
196.56,129.0
196.62,113.0
196.69,121.0
196.75,117.0
196.81,115.0
196.87,129.0
196.94,114.0
197.0,112.0
197.06,109.0
197.13,94.0
197.19,93.0
197.25,90.0
197.32,87.0
197.38,85.0
197.44,95.0
197.5,91.0
197.57,87.0
197.63,69.0
197.69,73.0
197.76,86.0
197.82,91.0
197.88,82.0
197.95,67.0
198.01,61.0
198.07,67.0
198.13,62.0
198.2,59.0
198.26,70.0
198.32,68.0
198.39,52.0
198.45,60.0
198.51,56.0
198.58,56.0
198.64,56.0
198.7,39.0
198.76,43.0
198.83,71.0
198.89,60.0
198.95,35.0
199.02,34.0
199.08,54.0
199.14,65.0
199.21,57.0
199.27,59.0
199.33,53.0
199.39,49.0
199.46,46.0
199.52,40.0
199.58,21.0
199.65,24.0
199.71,19.0
199.77,19.0
199.84,2.0
199.9,25.0
199.96,42.0
200.02,23.0
200.09,20.0
200.15,20.0
200.21,16.0
200.28,20.0
200.34,30.0
200.4,32.0
200.47,24.0
200.53,13.0
200.59,12.0
200.65,-9.0
200.72,-11.0
200.78,-12.0
200.84,-1.0
200.91,9.0
200.97,14.0
201.03,6.0
201.1,-6.0
201.16,6.0
201.22,3.0
201.28,14.0
201.35,25.0
201.41,14.0
201.47,19.0
201.54,24.0
201.6,45.0
201.66,54.0
201.73,44.0
201.79,45.0
201.85,33.0
201.91,56.0
201.98,33.0
202.04,16.0
202.1,24.0
202.17,23.0
202.23,28.0
202.29,23.0
202.36,30.0
202.42,42.0
202.48,39.0
202.54,28.0
202.61,35.0
202.67,39.0
202.73,21.0
202.8,31.0
202.86,72.0
202.92,49.0
202.99,48.0
203.05,41.0
203.11,40.0
203.17,42.0
203.24,60.0
203.3,30.0
203.36,14.0
203.43,33.0
203.49,40.0
203.55,47.0
203.62,59.0
203.68,55.0
203.74,70.0
203.8,67.0
203.87,59.0
203.93,69.0
203.99,57.0
204.06,72.0
204.12,57.0
204.18,56.0
204.25,77.0
204.31,65.0
204.37,89.0
204.43,82.0
204.5,71.0
204.56,92.0
204.62,82.0
204.69,102.0
204.75,79.0
204.81,75.0
204.88,86.0
204.94,92.0
205.0,79.0
205.06,87.0
205.13,105.0
205.19,121.0
205.25,124.0
205.32,116.0
205.38,111.0
205.44,126.0
205.51,126.0
205.57,127.0
205.63,121.0
205.69,128.0
205.76,128.0
205.82,118.0
205.88,130.0
205.95,100.0
206.01,122.0
206.07,126.0
206.14,104.0
206.2,104.0
206.26,105.0
206.32,118.0
206.39,129.0
206.45,126.0
206.51,105.0
206.58,104.0
206.64,111.0
206.7,112.0
206.77,111.0
206.83,114.0
206.89,109.0
206.95,121.0
207.02,115.0
207.08,115.0
207.14,116.0
207.21,106.0
207.27,94.0
207.33,101.0
207.4,91.0
207.46,83.0
207.52,97.0
207.58,90.0
207.65,110.0
207.71,102.0
207.77,104.0
207.84,125.0
207.9,108.0
207.96,113.0
208.03,119.0
208.09,111.0
208.15,103.0
208.21,110.0
208.28,116.0
208.34,89.0
208.4,80.0
208.47,100.0
208.53,102.0
208.59,81.0
208.66,87.0
208.72,75.0
208.78,83.0
208.84,98.0
208.91,94.0
208.97,80.0
209.03,74.0
209.1,69.0
209.16,73.0
209.22,114.0
209.29,96.0
209.35,79.0
209.41,79.0
209.47,66.0
209.54,62.0
209.6,74.0
209.66,78.0
209.73,81.0
209.79,78.0
209.85,66.0
209.92,53.0
209.98,72.0
210.04,73.0
210.1,67.0
210.17,62.0
210.23,74.0
210.29,70.0
210.36,90.0
210.42,81.0
210.48,78.0
210.55,83.0
210.61,105.0
210.67,104.0
210.73,111.0
210.8,110.0
210.86,88.0
210.92,99.0
210.99,105.0
211.05,116.0
211.11,137.0
211.18,107.0
211.24,134.0
211.3,129.0
211.36,115.0
211.43,113.0
211.49,97.0
211.55,112.0
211.62,113.0
211.68,94.0
211.74,80.0
211.81,89.0
211.87,94.0
211.93,98.0
211.99,101.0
212.06,97.0
212.12,106.0
212.18,115.0
212.25,108.0
212.31,107.0
212.37,102.0
212.44,104.0
212.5,104.0
212.56,101.0
212.62,108.0
212.69,103.0
212.75,109.0
212.81,100.0
212.88,94.0
212.94,104.0
213.0,89.0
213.07,90.0
213.13,118.0
213.19,126.0
213.25,96.0
213.32,102.0
213.38,108.0
213.44,111.0
213.51,123.0
213.57,123.0
213.63,94.0
213.7,95.0
213.76,100.0
213.82,83.0
213.88,108.0
213.95,93.0
214.01,97.0
214.07,75.0
214.14,72.0
214.2,75.0
214.26,88.0
214.33,105.0
214.39,100.0
214.45,92.0
214.51,90.0
214.58,88.0
214.64,80.0
214.7,77.0
214.77,105.0
214.83,102.0
214.89,96.0
214.96,104.0
215.02,86.0
215.08,95.0
215.14,102.0
215.21,98.0
215.27,86.0
215.33,93.0
215.4,76.0
215.46,83.0
215.52,100.0
215.59,93.0
215.65,83.0
215.71,90.0
215.77,77.0
215.84,87.0
215.9,80.0
215.96,79.0
216.03,93.0
216.09,82.0
216.15,94.0
216.22,101.0
216.28,107.0
216.34,92.0
216.4,97.0
216.47,92.0
216.53,67.0
216.59,78.0
216.66,78.0
216.72,89.0
216.78,69.0
216.85,64.0
216.91,60.0
216.97,52.0
217.03,67.0
217.1,67.0
217.16,58.0
217.22,68.0
217.29,57.0
217.35,70.0
217.41,77.0
217.48,54.0
217.54,61.0
217.6,55.0
217.66,88.0
217.73,71.0
217.79,74.0
217.85,80.0
217.92,86.0
217.98,72.0
218.04,79.0
218.11,71.0
218.17,81.0
218.23,83.0
218.29,68.0
218.36,79.0
218.42,74.0
218.48,90.0
218.55,70.0
218.61,89.0
218.67,82.0
218.74,93.0
218.8,97.0
218.86,83.0
218.92,108.0
218.99,77.0
219.05,99.0
219.11,105.0
219.18,110.0
219.24,135.0
219.3,139.0
219.37,152.0
219.43,140.0
219.49,127.0
219.55,142.0
219.62,144.0
219.68,124.0
219.74,137.0
219.81,129.0
219.87,133.0
219.93,158.0
220.0,152.0
220.06,154.0
220.12,165.0
220.18,157.0
220.25,162.0
220.31,162.0
220.37,165.0
220.44,155.0
220.5,158.0
220.56,158.0
220.63,161.0
220.69,167.0
220.75,174.0
220.81,152.0
220.88,147.0
220.94,177.0
221.0,176.0
221.07,169.0
221.13,168.0
221.19,192.0
221.26,181.0
221.32,192.0
221.38,199.0
221.44,184.0
221.51,182.0
221.57,196.0
221.63,204.0
221.7,187.0
221.76,201.0
221.82,206.0
221.89,210.0
221.95,195.0
222.01,178.0
222.07,189.0
222.14,184.0
222.2,170.0
222.26,171.0
222.33,201.0
222.39,197.0
222.45,171.0
222.52,181.0
222.58,198.0
222.64,204.0
222.7,196.0
222.77,196.0
222.83,192.0
222.89,191.0
222.96,182.0
223.02,185.0
223.08,192.0
223.15,192.0
223.21,192.0
223.27,169.0
223.33,167.0
223.4,172.0
223.46,192.0
223.52,180.0
223.59,160.0
223.65,173.0
223.71,194.0
223.78,168.0
223.84,167.0
223.9,166.0
223.96,179.0
224.03,192.0
224.09,171.0
224.15,181.0
224.22,182.0
224.28,176.0
224.34,170.0
224.41,165.0
224.47,157.0
224.53,145.0
224.59,151.0
224.66,169.0
224.72,144.0
224.78,142.0
224.85,159.0
224.91,137.0
224.97,133.0
225.04,133.0
225.1,129.0
225.16,130.0
225.22,127.0
225.29,130.0
225.35,133.0
225.41,133.0
225.48,105.0
225.54,130.0
225.6,133.0
225.67,125.0
225.73,108.0
225.79,105.0
225.85,139.0
225.92,119.0
225.98,112.0
226.04,117.0
226.11,119.0
226.17,120.0
226.23,137.0
226.3,126.0
226.36,127.0
226.42,101.0
226.48,122.0
226.55,128.0
226.61,125.0
226.67,114.0
226.74,121.0
226.8,120.0
226.86,120.0
226.93,126.0
226.99,119.0
227.05,138.0
227.11,121.0
227.18,112.0
227.24,130.0
227.3,132.0
227.37,134.0
227.43,117.0
227.49,110.0
227.56,119.0
227.62,132.0
227.68,126.0
227.74,106.0
227.81,115.0
227.87,119.0
227.93,104.0
228.0,104.0
228.06,112.0
228.12,125.0
228.19,120.0
228.25,104.0
228.31,86.0
228.37,93.0
228.44,102.0
228.5,93.0
228.56,88.0
228.63,93.0
228.69,86.0
228.75,64.0
228.82,69.0
228.88,75.0
228.94,77.0
229.0,79.0
229.07,62.0
229.13,85.0
229.19,86.0
229.26,51.0
229.32,53.0
229.38,49.0
229.45,67.0
229.51,79.0
229.57,54.0
229.63,61.0
229.7,60.0
229.76,62.0
229.82,60.0
229.89,41.0
229.95,47.0
230.01,18.0
230.08,16.0
230.14,31.0
230.2,38.0
230.26,12.0
230.33,18.0
230.39,36.0
230.45,38.0
230.52,20.0
230.58,28.0
230.64,22.0
230.71,44.0
230.77,54.0
230.83,41.0
230.89,39.0
230.96,42.0
231.02,55.0
231.08,28.0
231.15,40.0
231.21,49.0
231.27,52.0
231.34,54.0
231.4,64.0
231.46,80.0
231.52,66.0
231.59,67.0
231.65,58.0
231.71,47.0
231.78,73.0
231.84,72.0
231.9,49.0
231.97,45.0
232.03,60.0
232.09,57.0
232.15,57.0
232.22,42.0
232.28,42.0
232.34,27.0
232.41,38.0
232.47,44.0
232.53,25.0
232.6,40.0
232.66,28.0
232.72,4.0
232.78,6.0
232.85,20.0
232.91,20.0
232.97,39.0
233.04,63.0
233.1,47.0
233.16,29.0
233.23,44.0
233.29,46.0
233.35,38.0
233.41,10.0
233.48,17.0
233.54,4.0
233.6,17.0
233.67,13.0
233.73,-7.0
233.79,4.0
233.86,-21.0
233.92,-7.0
233.98,-15.0
234.04,-11.0
234.11,-24.0
234.17,-15.0
234.23,-8.0
234.3,-29.0
234.36,-32.0
234.42,-43.0
234.49,-39.0
234.55,-29.0
234.61,-25.0
234.67,-18.0
234.74,-25.0
234.8,-18.0
234.86,0.0
234.93,-32.0
234.99,-17.0
235.05,10.0
235.12,-14.0
235.18,-6.0
235.24,6.0
235.3,14.0
235.37,1.0
235.43,9.0
235.49,25.0
235.56,32.0
235.62,15.0
235.68,9.0
235.75,26.0
235.81,30.0
235.87,28.0
235.93,41.0
236.0,44.0
236.06,50.0
236.12,30.0
236.19,33.0
236.25,17.0
236.31,16.0
236.38,31.0
236.44,32.0
236.5,53.0
236.56,53.0
236.63,47.0
236.69,47.0
236.75,60.0
236.82,52.0
236.88,52.0
236.94,58.0
237.01,79.0
237.07,87.0
237.13,93.0
237.19,100.0
237.26,107.0
237.32,101.0
237.38,103.0
237.45,83.0
237.51,90.0
237.57,90.0
237.64,83.0
237.7,75.0
237.76,79.0
237.82,88.0
237.89,104.0
237.95,115.0
238.01,104.0
238.08,93.0
238.14,93.0
238.2,120.0
238.27,117.0
238.33,110.0
238.39,94.0
238.45,92.0
238.52,116.0
238.58,127.0
238.64,112.0
238.71,118.0
238.77,117.0
238.83,120.0
238.9,143.0
238.96,136.0
239.02,126.0
239.08,125.0
239.15,112.0
239.21,108.0
239.27,109.0
239.34,116.0
239.4,105.0
239.46,111.0
239.53,113.0
239.59,128.0
239.65,111.0
239.71,93.0
239.78,119.0
239.84,121.0
239.9,132.0
239.97,113.0
240.03,109.0
240.09,110.0
240.16,117.0
240.22,121.0
240.28,123.0
240.34,109.0
240.41,119.0
240.47,131.0
240.53,127.0
240.6,109.0
240.66,104.0
240.72,119.0
240.79,136.0
240.85,155.0
240.91,153.0
240.97,134.0
241.04,128.0
241.1,140.0
241.16,160.0
241.23,157.0
241.29,154.0
241.35,153.0
241.42,145.0
241.48,165.0
241.54,167.0
241.6,158.0
241.67,166.0
241.73,167.0
241.79,163.0
241.86,155.0
241.92,173.0
241.98,155.0
242.05,161.0
242.11,181.0
242.17,168.0
242.23,162.0
242.3,145.0
242.36,143.0
242.42,149.0
242.49,149.0
242.55,141.0
242.61,157.0
242.68,168.0
242.74,174.0
242.8,182.0
242.86,176.0
242.93,154.0
242.99,151.0
243.05,140.0
243.12,139.0
243.18,126.0
243.24,128.0
243.31,138.0
243.37,131.0
243.43,129.0
243.49,121.0
243.56,128.0
243.62,136.0
243.68,142.0
243.75,118.0
243.81,149.0
243.87,127.0
243.94,99.0
244.0,111.0
244.06,115.0
244.12,118.0
244.19,102.0
244.25,112.0
244.31,128.0
244.38,125.0
244.44,138.0
244.5,142.0
244.57,121.0
244.63,121.0
244.69,130.0
244.75,118.0
244.82,113.0
244.88,113.0
244.94,108.0
245.01,119.0
245.07,118.0
245.13,106.0
245.2,110.0
245.26,99.0
245.32,101.0
245.38,102.0
245.45,101.0
245.51,111.0
245.57,112.0
245.64,110.0
245.7,121.0
245.76,104.0
245.83,113.0
245.89,124.0
245.95,129.0
246.01,146.0
246.08,146.0
246.14,137.0
246.2,123.0
246.27,128.0
246.33,120.0
246.39,118.0
246.46,119.0
246.52,128.0
246.58,114.0
246.64,100.0
246.71,97.0
246.77,112.0
246.83,102.0
246.9,108.0
246.96,96.0
247.02,106.0
247.09,98.0
247.15,99.0
247.21,94.0
247.27,86.0
247.34,86.0
247.4,87.0
247.46,82.0
247.53,105.0
247.59,68.0
247.65,75.0
247.72,88.0
247.78,92.0
247.84,113.0
247.9,89.0
247.97,102.0
248.03,87.0
248.09,98.0
248.16,113.0
248.22,101.0
248.28,100.0
248.35,117.0
248.41,90.0
248.47,104.0
248.53,112.0
248.6,98.0
248.66,110.0
248.72,105.0
248.79,122.0
248.85,114.0
248.91,134.0
248.98,126.0
249.04,108.0
249.1,123.0
249.16,122.0
249.23,107.0
249.29,94.0
249.35,112.0
249.42,120.0
249.48,118.0
249.54,88.0
249.61,105.0
249.67,108.0
249.73,95.0
249.79,94.0
249.86,102.0
249.92,101.0
249.98,70.0
250.05,91.0
250.11,79.0
250.17,90.0
250.24,72.0
250.3,74.0
250.36,87.0
250.42,91.0
250.49,87.0
250.55,79.0
250.61,69.0
250.68,85.0
250.74,68.0
250.8,49.0
250.87,47.0
250.93,63.0
250.99,57.0
251.05,52.0
251.12,61.0
251.18,61.0
251.24,46.0
251.31,43.0
251.37,47.0
251.43,33.0
251.5,37.0
251.56,46.0
251.62,61.0
251.68,47.0
251.75,48.0
251.81,49.0
251.87,62.0
251.94,59.0
252.0,65.0
252.06,62.0
252.13,79.0
252.19,71.0
252.25,66.0
252.31,71.0
252.38,74.0
252.44,74.0
252.5,83.0
252.57,71.0
252.63,61.0
252.69,70.0
252.76,69.0
252.82,66.0
252.88,80.0
252.94,68.0
253.01,77.0
253.07,71.0
253.13,79.0
253.2,57.0
253.26,61.0
253.32,72.0
253.39,85.0
253.45,72.0
253.51,59.0
253.57,85.0
253.64,100.0
253.7,100.0
253.76,107.0
253.83,105.0
253.89,105.0
253.95,123.0
254.02,135.0
254.08,101.0
254.14,91.0
254.2,104.0
254.27,99.0
254.33,112.0
254.39,134.0
254.46,152.0
254.52,151.0
254.58,126.0
254.65,139.0
254.71,131.0
254.77,116.0
254.83,128.0
254.9,117.0
254.96,127.0
255.02,117.0
255.09,112.0
255.15,132.0
255.21,105.0
255.28,110.0
255.34,105.0
255.4,112.0
255.46,106.0
255.53,116.0
255.59,123.0
255.65,112.0
255.72,132.0
255.78,116.0
255.84,105.0
255.91,112.0
255.97,113.0
256.03,104.0
256.09,106.0
256.16,100.0
256.22,110.0
256.28,109.0
256.35,124.0
256.41,114.0
256.47,124.0
256.54,127.0
256.6,129.0
256.66,129.0
256.72,148.0
256.79,143.0
256.85,142.0
256.91,133.0
256.98,127.0
257.04,130.0
257.1,104.0
257.17,112.0
257.23,134.0
257.29,122.0
257.35,113.0
257.42,123.0
257.48,123.0
257.54,116.0
257.61,118.0
257.67,112.0
257.73,119.0
257.8,117.0
257.86,120.0
257.92,105.0
257.98,80.0
258.05,103.0
258.11,109.0
258.17,109.0
258.24,119.0
258.3,109.0
258.36,110.0
258.43,112.0
258.49,108.0
258.55,111.0
258.61,102.0
258.68,98.0
258.74,92.0
258.8,86.0
258.87,93.0
258.93,106.0
258.99,109.0
259.06,98.0
259.12,93.0
259.18,77.0
259.24,66.0
259.31,86.0
259.37,94.0
259.43,96.0
259.5,117.0
259.56,107.0
259.62,101.0
259.69,107.0
259.75,127.0
259.81,110.0
259.87,136.0
259.94,128.0
260.0,121.0
260.06,138.0
260.13,122.0
260.19,137.0
260.25,124.0
260.32,121.0
260.38,121.0
260.44,108.0
260.5,88.0
260.57,94.0
260.63,120.0
260.69,114.0
260.76,110.0
260.82,98.0
260.88,108.0
260.95,111.0
261.01,102.0
261.07,108.0
261.13,80.0
261.2,103.0
261.26,98.0
261.32,111.0
261.39,114.0
261.45,93.0
261.51,109.0
261.58,117.0
261.64,113.0
261.7,114.0
261.76,111.0
261.83,132.0
261.89,136.0
261.95,118.0
262.02,94.0
262.08,103.0
262.14,99.0
262.21,127.0
262.27,127.0
262.33,127.0
262.39,120.0
262.46,115.0
262.52,115.0
262.58,134.0
262.65,139.0
262.71,124.0
262.77,114.0
262.84,102.0
262.9,120.0
262.96,124.0
263.02,130.0
263.09,113.0
263.15,123.0
263.21,107.0
263.28,106.0
263.34,107.0
263.4,94.0
263.47,106.0
263.53,133.0
263.59,128.0
263.65,135.0
263.72,135.0
263.78,135.0
263.84,144.0
263.91,123.0
263.97,120.0
264.03,142.0
264.1,120.0
264.16,85.0
264.22,110.0
264.28,98.0
264.35,104.0
264.41,93.0
264.47,85.0
264.54,75.0
264.6,72.0
264.66,83.0
264.73,85.0
264.79,78.0
264.85,87.0
264.91,79.0
264.98,86.0
265.04,77.0
265.1,54.0
265.17,63.0
265.23,78.0
265.29,50.0
265.36,77.0
265.42,73.0
265.48,77.0
265.54,88.0
265.61,73.0
265.67,98.0
265.73,76.0
265.8,77.0
265.86,69.0
265.92,70.0
265.99,59.0
266.05,14.0
266.11,57.0
266.17,60.0
266.24,60.0
266.3,51.0
266.36,36.0
266.43,57.0
266.49,55.0
266.55,46.0
266.62,31.0
266.68,21.0
266.74,27.0
266.8,24.0
266.87,41.0
266.93,38.0
266.99,61.0
267.06,53.0
267.12,34.0
267.18,25.0
267.25,59.0
267.31,68.0
267.37,38.0
267.43,40.0
267.5,50.0
267.56,35.0
267.62,19.0
267.69,24.0
267.75,36.0
267.81,18.0
267.88,28.0
267.94,58.0
268.0,62.0
268.06,58.0
268.13,51.0
268.19,48.0
268.25,27.0
268.32,41.0
268.38,33.0
268.44,26.0
268.51,18.0
268.57,32.0
268.63,60.0
268.69,55.0
268.76,28.0
268.82,31.0
268.88,31.0
268.95,44.0
269.01,57.0
269.07,72.0
269.14,85.0
269.2,63.0
269.26,56.0
269.32,56.0
269.39,78.0
269.45,64.0
269.51,66.0
269.58,36.0
269.64,57.0
269.7,45.0
269.77,64.0
269.83,66.0
269.89,40.0
269.95,54.0
270.02,66.0
270.08,57.0
270.14,38.0
270.21,54.0
270.27,55.0
270.33,53.0
270.4,71.0
270.46,52.0
270.52,58.0
270.58,63.0
270.65,55.0
270.71,55.0
270.77,58.0
270.84,74.0
270.9,67.0
270.96,83.0
271.03,93.0
271.09,83.0
271.15,64.0
271.21,98.0
271.28,97.0
271.34,98.0
271.4,105.0
271.47,123.0
271.53,130.0
271.59,115.0
271.66,115.0
271.72,129.0
271.78,124.0
271.84,103.0
271.91,118.0
271.97,134.0
272.03,116.0
272.1,117.0
272.16,122.0
272.22,120.0
272.29,127.0
272.35,116.0
272.41,133.0
272.47,160.0
272.54,152.0
272.6,143.0
272.66,141.0
272.73,137.0
272.79,142.0
272.85,134.0
272.92,147.0
272.98,154.0
273.04,156.0
273.1,145.0
273.17,167.0
273.23,156.0
273.29,149.0
273.36,152.0
273.42,149.0
273.48,167.0
273.55,147.0
273.61,135.0
273.67,134.0
273.73,124.0
273.8,130.0
273.86,121.0
273.92,139.0
273.99,141.0
274.05,120.0
274.11,116.0
274.18,145.0
274.24,135.0
274.3,132.0
274.36,124.0
274.43,135.0
274.49,140.0
274.55,132.0
274.62,152.0
274.68,173.0
274.74,138.0
274.81,127.0
274.87,151.0
274.93,165.0
274.99,156.0
275.06,164.0
275.12,150.0
275.18,144.0
275.25,165.0
275.31,147.0
275.37,155.0
275.44,132.0
275.5,134.0
275.56,141.0
275.62,148.0
275.69,159.0
275.75,172.0
275.81,168.0
275.88,173.0
275.94,208.0
276.0,183.0
276.07,192.0
276.13,186.0
276.19,178.0
276.25,170.0
276.32,156.0
276.38,134.0
276.44,152.0
276.51,146.0
276.57,142.0
276.63,143.0
276.7,148.0
276.76,157.0
276.82,154.0
276.88,157.0
276.95,150.0
277.01,145.0
277.07,160.0
277.14,142.0
277.2,165.0
277.26,191.0
277.33,165.0
277.39,176.0
277.45,189.0
277.51,159.0
277.58,175.0
277.64,173.0
277.7,180.0
277.77,193.0
277.83,169.0
277.89,189.0
277.96,167.0
278.02,149.0
278.08,169.0
278.14,152.0
278.21,166.0
278.27,166.0
278.33,153.0
278.4,161.0
278.46,174.0
278.52,148.0
278.59,134.0
278.65,142.0
278.71,159.0
278.77,133.0
278.84,141.0
278.9,129.0
278.96,133.0
279.03,132.0
279.09,141.0
279.15,130.0
279.22,112.0
279.28,91.0
279.34,117.0
279.4,117.0
279.47,108.0
279.53,116.0
279.59,123.0
279.66,108.0
279.72,116.0
279.78,116.0
279.85,111.0
279.91,124.0
279.97,107.0
280.03,109.0
280.1,134.0
280.16,120.0
280.22,116.0
280.29,102.0
280.35,92.0
280.41,98.0
280.48,96.0
280.54,114.0
280.6,120.0
280.66,116.0
280.73,102.0
280.79,86.0
280.85,74.0
280.92,98.0
280.98,100.0
281.04,97.0
281.11,98.0
281.17,74.0
281.23,75.0
281.29,65.0
281.36,65.0
281.42,63.0
281.48,66.0
281.55,53.0
281.61,68.0
281.67,50.0
281.74,54.0
281.8,62.0
281.86,61.0
281.92,52.0
281.99,56.0
282.05,53.0
282.11,64.0
282.18,72.0
282.24,61.0
282.3,42.0
282.37,55.0
282.43,36.0
282.49,57.0
282.55,52.0
282.62,60.0
282.68,46.0
282.74,43.0
282.81,42.0
282.87,65.0
282.93,60.0
283.0,48.0
283.06,55.0
283.12,42.0
283.18,60.0
283.25,43.0
283.31,24.0
283.37,21.0
283.44,21.0
283.5,23.0
283.56,9.0
283.63,2.0
283.69,3.0
283.75,16.0
283.81,9.0
283.88,0.0
283.94,-1.0
284.0,2.0
284.07,5.0
284.13,0.0
284.19,1.0
284.26,-8.0
284.32,7.0
284.38,-17.0
284.44,-22.0
284.51,-7.0
284.57,-1.0
284.63,-19.0
284.7,-2.0
284.76,-17.0
284.82,-30.0
284.89,-4.0
284.95,10.0
285.01,1.0
285.07,28.0
285.14,17.0
285.2,24.0
285.26,10.0
285.33,-13.0
285.39,1.0
285.45,6.0
285.52,10.0
285.58,-1.0
285.64,18.0
285.7,11.0
285.77,-5.0
285.83,3.0
285.89,-3.0
285.96,-13.0
286.02,-12.0
286.08,-12.0
286.15,7.0
286.21,-10.0
286.27,-4.0
286.33,19.0
286.4,4.0
286.46,18.0
286.52,13.0
286.59,28.0
286.65,27.0
286.71,29.0
286.78,35.0
286.84,27.0
286.9,23.0
286.96,41.0
287.03,33.0
287.09,22.0
287.15,32.0
287.22,47.0
287.28,55.0
287.34,65.0
287.41,68.0
287.47,58.0
287.53,65.0
287.59,61.0
287.66,82.0
287.72,72.0
287.78,59.0
287.85,82.0
287.91,79.0
287.97,97.0
288.04,83.0
288.1,74.0
288.16,84.0
288.22,73.0
288.29,81.0
288.35,69.0
288.41,92.0
288.48,93.0
288.54,85.0
288.6,73.0
288.67,89.0
288.73,79.0
288.79,63.0
288.85,88.0
288.92,113.0
288.98,116.0
289.04,84.0
289.11,78.0
289.17,81.0
289.23,64.0
289.3,72.0
289.36,86.0
289.42,102.0
289.48,110.0
289.55,103.0
289.61,110.0
289.67,110.0
289.74,98.0
289.8,99.0
289.86,92.0
289.93,120.0
289.99,119.0
290.05,126.0
290.11,124.0
290.18,138.0
290.24,114.0
290.3,109.0
290.37,124.0
290.43,144.0
290.49,134.0
290.56,130.0
290.62,130.0
290.68,112.0
290.74,102.0
290.81,97.0
290.87,119.0
290.93,105.0
291.0,106.0
291.06,120.0
291.12,125.0
291.19,127.0
291.25,112.0
291.31,112.0
291.37,114.0
291.44,118.0
291.5,112.0
291.56,128.0
291.63,110.0
291.69,110.0
291.75,120.0
291.82,102.0
291.88,107.0
291.94,119.0
292.0,134.0
292.07,112.0
292.13,111.0
292.19,101.0
292.26,99.0
292.32,98.0
292.38,115.0
292.45,123.0
292.51,107.0
292.57,118.0
292.63,109.0
292.7,95.0
292.76,83.0
292.82,83.0
292.89,95.0
292.95,85.0
293.01,89.0
293.08,120.0
293.14,111.0
293.2,95.0
293.26,101.0
293.33,114.0
293.39,101.0
293.45,88.0
293.52,115.0
293.58,105.0
293.64,105.0
293.71,103.0
293.77,99.0
293.83,121.0
293.89,113.0
293.96,151.0
294.02,135.0
294.08,137.0
294.15,130.0
294.21,145.0
294.27,155.0
294.34,147.0
294.4,162.0
294.46,128.0
294.52,120.0
294.59,120.0
294.65,120.0
294.71,113.0
294.78,148.0
294.84,123.0
294.9,106.0
294.97,127.0
295.03,117.0
295.09,119.0
295.15,112.0
295.22,109.0
295.28,106.0
295.34,116.0
295.41,100.0
295.47,99.0
295.53,119.0
295.6,110.0
295.66,118.0
295.72,123.0
295.78,110.0
295.85,110.0
295.91,95.0
295.97,107.0
296.04,117.0
296.1,104.0
296.16,98.0
296.23,79.0
296.29,109.0
296.35,118.0
296.41,107.0
296.48,119.0
296.54,103.0
296.6,106.0
296.67,101.0
296.73,88.0
296.79,96.0
296.86,92.0
296.92,93.0
296.98,90.0
297.04,102.0
297.11,99.0
297.17,90.0
297.23,85.0
297.3,99.0
297.36,88.0
297.42,80.0
297.49,87.0
297.55,74.0
297.61,80.0
297.67,96.0
297.74,84.0
297.8,84.0
297.86,103.0
297.93,105.0
297.99,104.0
298.05,110.0
298.12,108.0
298.18,101.0
298.24,111.0
298.3,101.0
298.37,102.0
298.43,110.0
298.49,97.0
298.56,99.0
298.62,91.0
298.68,105.0
298.75,97.0
298.81,93.0
298.87,92.0
298.93,91.0
299.0,90.0
299.06,104.0
299.12,95.0
299.19,103.0
299.25,106.0
299.31,94.0
299.38,85.0
299.44,64.0
299.5,65.0
299.56,69.0
299.63,80.0
299.69,70.0
299.75,84.0
299.82,73.0
299.88,86.0
299.94,75.0
300.01,66.0
300.07,62.0
300.13,54.0
300.19,58.0
300.26,75.0
300.32,54.0
300.38,59.0
300.45,65.0
300.51,72.0
300.57,52.0
300.64,40.0
300.7,52.0
300.76,49.0
300.82,45.0
300.89,49.0
300.95,58.0
301.01,56.0
301.08,73.0
301.14,52.0
301.2,56.0
301.27,60.0
301.33,53.0
301.39,58.0
301.45,69.0
301.52,59.0
301.58,57.0
301.64,62.0
301.71,43.0
301.77,68.0
301.83,84.0
301.9,73.0
301.96,60.0
302.02,52.0
302.08,53.0
302.15,73.0
302.21,71.0
302.27,62.0
302.34,61.0
302.4,52.0
302.46,66.0
302.53,96.0
302.59,101.0
302.65,92.0
302.71,93.0
302.78,114.0
302.84,93.0
302.9,98.0
302.97,102.0
303.03,82.0
303.09,87.0
303.16,81.0
303.22,93.0
303.28,99.0
303.34,87.0
303.41,82.0
303.47,82.0
303.53,108.0
303.6,96.0
303.66,93.0
303.72,117.0
303.79,98.0
303.85,98.0
303.91,116.0
303.97,112.0
304.04,110.0
304.1,124.0
304.16,133.0
304.23,126.0
304.29,116.0
304.35,143.0
304.42,143.0
304.48,157.0
304.54,152.0
304.6,139.0
304.67,169.0
304.73,147.0
304.79,151.0
304.86,172.0
304.92,154.0
304.98,170.0
305.05,180.0
305.11,162.0
305.17,145.0
305.23,134.0
305.3,117.0
305.36,140.0
305.42,152.0
305.49,138.0
305.55,137.0
305.61,138.0
305.68,151.0
305.74,158.0
305.8,144.0
305.86,134.0
305.93,154.0
305.99,120.0
306.05,121.0
306.12,125.0
306.18,125.0
306.24,128.0
306.31,113.0
306.37,114.0
306.43,135.0
306.49,135.0
306.56,116.0
306.62,134.0
306.68,117.0
306.75,121.0
306.81,120.0
306.87,109.0
306.94,121.0
307.0,116.0
307.06,82.0
307.12,106.0
307.19,126.0
307.25,109.0
307.31,104.0
307.38,103.0
307.44,132.0
307.5,124.0
307.57,128.0
307.63,126.0
307.69,117.0
307.75,139.0
307.82,158.0
307.88,135.0
307.94,129.0
308.01,132.0
308.07,121.0
308.13,109.0
308.2,121.0
308.26,113.0
308.32,120.0
308.38,104.0
308.45,110.0
308.51,126.0
308.57,126.0
308.64,110.0
308.7,113.0
308.76,129.0
308.83,121.0
308.89,130.0
308.95,132.0
309.01,147.0
309.08,162.0
309.14,137.0
309.2,122.0
309.27,109.0
309.33,113.0
309.39,114.0
309.46,113.0
309.52,129.0
309.58,115.0
309.64,117.0
309.71,107.0
309.77,112.0
309.83,111.0
309.9,120.0
309.96,116.0
310.02,120.0
310.09,109.0
310.15,103.0
310.21,102.0
310.27,101.0
310.34,106.0
310.4,106.0
310.46,104.0
310.53,117.0
310.59,115.0
310.65,123.0
310.72,129.0
310.78,121.0
310.84,139.0
310.9,121.0
310.97,114.0
311.03,129.0
311.09,125.0
311.16,109.0
311.22,95.0
311.28,114.0
311.35,109.0
311.41,95.0
311.47,108.0
311.53,122.0
311.6,102.0
311.66,103.0
311.72,131.0
311.79,112.0
311.85,130.0
311.91,128.0
311.98,105.0
312.04,100.0
312.1,95.0
312.16,86.0
312.23,87.0
312.29,103.0
312.35,107.0
312.42,98.0
312.48,107.0
312.54,121.0
312.61,124.0
312.67,97.0
312.73,111.0
312.79,126.0
312.86,121.0
312.92,137.0
312.98,139.0
313.05,147.0
313.11,127.0
313.17,117.0
313.24,118.0
313.3,129.0
313.36,135.0
313.42,132.0
313.49,128.0
313.55,131.0
313.61,120.0
313.68,121.0
313.74,106.0
313.8,110.0
313.87,93.0
313.93,111.0
313.99,98.0
314.05,106.0
314.12,83.0
314.18,84.0
314.24,90.0
314.31,89.0
314.37,97.0
314.43,84.0
314.5,72.0
314.56,70.0
314.62,74.0
314.68,62.0
314.75,81.0
314.81,72.0
314.87,91.0
314.94,73.0
315.0,77.0
315.06,76.0
315.13,82.0
315.19,48.0
315.25,80.0
315.31,76.0
315.38,62.0
315.44,66.0
315.5,62.0
315.57,70.0
315.63,55.0
315.69,35.0
315.76,37.0
315.82,51.0
315.88,70.0
315.94,65.0
316.01,58.0
316.07,69.0
316.13,85.0
316.2,59.0
316.26,52.0
316.32,61.0
316.39,61.0
316.45,46.0
316.51,59.0
316.57,62.0
316.64,44.0
316.7,39.0
316.76,21.0
316.83,43.0
316.89,37.0
316.95,27.0
317.02,20.0
317.08,25.0
317.14,30.0
317.2,-4.0
317.27,-6.0
317.33,11.0
317.39,24.0
317.46,17.0
317.52,12.0
317.58,7.0
317.65,-43.0
317.71,-25.0
317.77,-25.0
317.83,-25.0
317.9,-3.0
317.96,-3.0
318.02,20.0
318.09,10.0
318.15,2.0
318.21,15.0
318.28,-2.0
318.34,0.0
318.4,5.0
318.46,-2.0
318.53,-7.0
318.59,13.0
318.65,2.0
318.72,-4.0
318.78,-6.0
318.84,6.0
318.91,17.0
318.97,-8.0
319.03,0.0
319.09,7.0
319.16,3.0
319.22,4.0
319.28,16.0
319.35,16.0
319.41,23.0
319.47,7.0
319.54,22.0
319.6,42.0
319.66,22.0
319.72,19.0
319.79,12.0
319.85,36.0
319.91,20.0
319.98,22.0
320.04,38.0
320.1,22.0
320.17,16.0
320.23,0.0
320.29,6.0
320.35,21.0
320.42,15.0
320.48,23.0
320.54,22.0
320.61,20.0
320.67,14.0
320.73,26.0
320.8,28.0
320.86,42.0
320.92,38.0
320.98,44.0
321.05,35.0
321.11,57.0
321.17,65.0
321.24,64.0
321.3,65.0
321.36,79.0
321.43,80.0
321.49,69.0
321.55,67.0
321.61,61.0
321.68,73.0
321.74,73.0
321.8,71.0
321.87,96.0
321.93,92.0
321.99,91.0
322.06,108.0
322.12,82.0
322.18,102.0
322.24,101.0
322.31,80.0
322.37,75.0
322.43,91.0
322.5,90.0
322.56,101.0
322.62,114.0
322.69,93.0
322.75,93.0
322.81,102.0
322.87,130.0
322.94,124.0
323.0,144.0
323.06,127.0
323.13,158.0
323.19,168.0
323.25,166.0
323.32,160.0
323.38,135.0
323.44,136.0
323.5,158.0
323.57,170.0
323.63,181.0
323.69,172.0
323.76,173.0
323.82,173.0
323.88,177.0
323.95,181.0
324.01,187.0
324.07,177.0
324.13,172.0
324.2,170.0
324.26,175.0
324.32,187.0
324.39,186.0
324.45,178.0
324.51,173.0
324.58,165.0
324.64,182.0
324.7,193.0
324.76,185.0
324.83,178.0
324.89,170.0
324.95,183.0
325.02,151.0
325.08,126.0
325.14,153.0
325.21,162.0
325.27,149.0
325.33,141.0
325.39,153.0
325.46,133.0
325.52,126.0
325.58,159.0
325.65,144.0
325.71,144.0
325.77,165.0
325.84,159.0
325.9,171.0
325.96,156.0
326.02,151.0
326.09,165.0
326.15,166.0
326.21,187.0
326.28,184.0
326.34,175.0
326.4,170.0
326.47,187.0
326.53,179.0
326.59,195.0
326.65,188.0
326.72,176.0
326.78,186.0
326.84,198.0
326.91,196.0
326.97,200.0
327.03,204.0
327.1,212.0
327.16,189.0
327.22,179.0
327.28,214.0
327.35,184.0
327.41,180.0
327.47,185.0
327.54,191.0
327.6,211.0
327.66,204.0
327.73,210.0
327.79,192.0
327.85,222.0
327.91,232.0
327.98,199.0
328.04,215.0
328.1,185.0
328.17,198.0
328.23,217.0
328.29,207.0
328.36,207.0
328.42,200.0
328.48,216.0
328.54,216.0
328.61,192.0
328.67,196.0
328.73,185.0
328.8,204.0
328.86,189.0
328.92,208.0
328.99,211.0
329.05,191.0
329.11,165.0
329.17,140.0
329.24,145.0
329.3,198.0
329.36,186.0
329.43,212.0
329.49,193.0
329.55,151.0
329.62,187.0
329.68,187.0
329.74,203.0
329.8,187.0
329.87,193.0
329.93,188.0
329.99,174.0
330.06,182.0
330.12,181.0
330.18,184.0
330.25,189.0
330.31,163.0
330.37,177.0
330.43,177.0
330.5,167.0
330.56,174.0
330.62,197.0
330.69,179.0
330.75,173.0
330.81,151.0
330.88,152.0
330.94,165.0
331.0,182.0
331.06,202.0
331.13,172.0
331.19,186.0
331.25,206.0
331.32,145.0
331.38,164.0
331.44,152.0
331.51,168.0
331.57,170.0
331.63,148.0
331.69,152.0
331.76,162.0
331.82,156.0
331.88,139.0
331.95,154.0
332.01,120.0
332.07,125.0
332.14,143.0
332.2,137.0
332.26,135.0
332.32,135.0
332.39,156.0
332.45,148.0
332.51,138.0
332.58,115.0
332.64,104.0
332.7,116.0
332.77,137.0
332.83,127.0
332.89,144.0
332.95,128.0
333.02,154.0
333.08,142.0
333.14,145.0
333.21,140.0
333.27,128.0
333.33,137.0
333.4,118.0
333.46,108.0
333.52,98.0
333.58,93.0
333.65,108.0
333.71,100.0
333.77,107.0
333.84,75.0
333.9,65.0
333.96,98.0
334.03,92.0
334.09,97.0
334.15,80.0
334.21,66.0
334.28,68.0
334.34,82.0
334.4,92.0
334.47,86.0
334.53,73.0
334.59,64.0
334.66,60.0
334.72,48.0
334.78,53.0
334.84,53.0
334.91,35.0
334.97,44.0
335.03,41.0
335.1,49.0
335.16,57.0
335.22,29.0
335.29,57.0
335.35,57.0
335.41,36.0
335.47,41.0
335.54,34.0
335.6,34.0
335.66,39.0
335.73,20.0
335.79,-16.0
335.85,-3.0
335.92,5.0
335.98,-2.0
336.04,33.0
336.1,33.0
336.17,44.0
336.23,18.0
336.29,32.0
336.36,34.0
336.42,13.0
336.48,17.0
336.55,30.0
336.61,20.0
336.67,23.0
336.73,24.0
336.8,27.0
336.86,35.0
336.92,21.0
336.99,11.0
337.05,15.0
337.11,3.0
337.18,21.0
337.24,26.0
337.3,14.0
337.36,16.0
337.43,4.0
337.49,7.0
337.55,14.0
337.62,29.0
337.68,47.0
337.74,49.0
337.81,25.0
337.87,40.0
337.93,37.0
337.99,18.0
338.06,42.0
338.12,36.0
338.18,61.0
338.25,39.0
338.31,42.0
338.37,58.0
338.44,44.0
338.5,58.0
338.56,72.0
338.62,52.0
338.69,67.0
338.75,73.0
338.81,55.0
338.88,60.0
338.94,78.0
339.0,78.0
339.07,57.0
339.13,66.0
339.19,76.0
339.25,95.0
339.32,101.0
339.38,73.0
339.44,77.0
339.51,85.0
339.57,89.0
339.63,83.0
339.7,80.0
339.76,79.0
339.82,78.0
339.88,61.0
339.95,68.0
340.01,77.0
340.07,72.0
340.14,91.0
340.2,56.0
340.26,39.0
340.33,47.0
340.39,57.0
340.45,65.0
340.51,73.0
340.58,75.0
340.64,84.0
340.7,80.0
340.77,87.0
340.83,80.0
340.89,84.0
340.96,86.0
341.02,87.0
341.08,56.0
341.14,87.0
341.21,61.0
341.27,77.0
341.33,64.0
341.4,84.0
341.46,89.0
341.52,80.0
341.59,96.0
341.65,101.0
341.71,106.0
341.77,98.0
341.84,94.0
341.9,89.0
341.96,105.0
342.03,105.0
342.09,91.0
342.15,87.0
342.22,117.0
342.28,98.0
342.34,105.0
342.4,103.0
342.47,96.0
342.53,103.0
342.59,97.0
342.66,111.0
342.72,97.0
342.78,80.0
342.85,83.0
342.91,78.0
342.97,103.0
343.03,104.0
343.1,101.0
343.16,97.0
343.22,102.0
343.29,111.0
343.35,97.0
343.41,111.0
343.48,124.0
343.54,125.0
343.6,135.0
343.66,129.0
343.73,122.0
343.79,132.0
343.85,123.0
343.92,118.0
343.98,113.0
344.04,131.0
344.11,138.0
344.17,118.0
344.23,138.0
344.29,125.0
344.36,117.0
344.42,130.0
344.48,127.0
344.55,137.0
344.61,138.0
344.67,150.0
344.74,129.0
344.8,105.0
344.86,112.0
344.92,126.0
344.99,137.0
345.05,146.0
345.11,144.0
345.18,131.0
345.24,137.0
345.3,132.0
345.37,132.0
345.43,147.0
345.49,135.0
345.55,134.0
345.62,122.0
345.68,119.0
345.74,138.0
345.81,139.0
345.87,127.0
345.93,147.0
346.0,133.0
346.06,131.0
346.12,115.0
346.18,119.0
346.25,128.0
346.31,111.0
346.37,122.0
346.44,121.0
346.5,140.0
346.56,136.0
346.63,117.0
346.69,101.0
346.75,130.0
346.81,105.0
346.88,133.0
346.94,133.0
347.0,132.0
347.07,131.0
347.13,112.0
347.19,119.0
347.26,118.0
347.32,116.0
347.38,118.0
347.44,105.0
347.51,123.0
347.57,106.0
347.63,117.0
347.7,120.0
347.76,139.0
347.82,133.0
347.89,129.0
347.95,118.0
348.01,114.0
348.07,125.0
348.14,146.0
348.2,131.0
348.26,139.0
348.33,128.0
348.39,117.0
348.45,116.0
348.52,124.0
348.58,141.0
348.64,131.0
348.7,140.0
348.77,140.0
348.83,149.0
348.89,136.0
348.96,131.0
349.02,135.0
349.08,156.0
349.15,135.0
349.21,127.0
349.27,146.0
349.33,153.0
349.4,145.0
349.46,139.0
349.52,142.0
349.59,147.0
349.65,137.0
349.71,137.0
349.78,114.0
349.84,129.0
349.9,128.0
349.96,119.0
350.03,111.0
350.09,116.0
350.15,105.0
350.22,117.0
350.28,113.0
350.34,109.0
350.41,89.0
350.47,93.0
350.53,110.0
350.59,106.0
350.66,113.0
350.72,108.0
350.78,113.0
350.85,68.0
350.91,81.0
350.97,99.0
351.04,93.0
351.1,94.0
351.16,85.0
351.22,110.0
351.29,109.0
351.35,84.0
351.41,94.0
351.48,77.0
351.54,89.0
351.6,76.0
351.67,83.0
351.73,83.0
351.79,74.0
351.85,59.0
351.92,51.0
351.98,62.0
352.04,75.0
352.11,86.0
352.17,76.0
352.23,60.0
352.3,79.0
352.36,85.0
352.42,84.0
352.48,80.0
352.55,77.0
352.61,80.0
352.67,84.0
352.74,85.0
352.8,81.0
352.86,86.0
352.93,97.0
352.99,87.0
353.05,84.0
353.11,93.0
353.18,65.0
353.24,70.0
353.3,94.0
353.37,94.0
353.43,93.0
353.49,89.0
353.56,104.0
353.62,78.0
353.68,84.0
353.74,76.0
353.81,81.0
353.87,91.0
353.93,94.0
354.0,100.0
354.06,98.0
354.12,101.0
354.19,87.0
354.25,119.0
354.31,114.0
354.37,124.0
354.44,127.0
354.5,129.0
354.56,143.0
354.63,118.0
354.69,110.0
354.75,128.0
354.82,136.0
354.88,125.0
354.94,139.0
355.0,136.0
355.07,118.0
355.13,111.0
355.19,111.0
355.26,114.0
355.32,109.0
355.38,123.0
355.45,146.0
355.51,138.0
355.57,138.0
355.63,141.0
355.7,149.0
355.76,131.0
355.82,120.0
355.89,146.0
355.95,161.0
356.01,124.0
356.08,123.0
356.14,146.0
356.2,154.0
356.26,151.0
356.33,126.0
356.39,124.0
356.45,136.0
356.52,120.0
356.58,123.0
356.64,135.0
356.71,139.0
356.77,122.0
356.83,145.0
356.89,163.0
356.96,162.0
357.02,153.0
357.08,157.0
357.15,150.0
357.21,165.0
357.27,179.0
357.34,164.0
357.4,157.0
357.46,150.0
357.52,166.0
357.59,168.0
357.65,165.0
357.71,170.0
357.78,132.0
357.84,141.0
357.9,137.0
357.97,139.0
358.03,134.0
358.09,135.0
358.15,131.0
358.22,137.0
358.28,152.0
358.34,138.0
358.41,147.0
358.47,143.0
358.53,131.0
358.6,122.0
358.66,134.0
358.72,125.0
358.78,114.0
358.85,121.0
358.91,124.0
358.97,124.0
359.04,125.0
359.1,117.0
359.16,120.0
359.23,121.0
359.29,132.0
359.35,124.0
359.41,123.0
359.48,122.0
359.54,139.0
359.6,136.0
359.67,149.0
359.73,133.0
359.79,147.0
359.86,129.0
359.92,141.0
359.98,142.0
360.04,156.0
360.11,182.0
360.17,161.0
360.23,169.0
360.3,163.0
360.36,170.0
360.42,187.0
360.49,171.0
360.55,177.0
360.61,188.0
360.67,173.0
360.74,208.0
360.8,207.0
360.86,185.0
360.93,185.0
360.99,155.0
361.05,181.0
361.12,157.0
361.18,167.0
361.24,168.0
361.3,150.0
361.37,151.0
361.43,176.0
361.49,165.0
361.56,155.0
361.62,176.0
361.68,164.0
361.75,152.0
361.81,165.0
361.87,156.0
361.93,152.0
362.0,161.0
362.06,153.0
362.12,160.0
362.19,151.0
362.25,137.0
362.31,154.0
362.38,164.0
362.44,154.0
362.5,165.0
362.56,157.0
362.63,179.0
362.69,162.0
362.75,165.0
362.82,183.0
362.88,172.0
362.94,151.0
363.01,147.0
363.07,169.0
363.13,128.0
363.19,122.0
363.26,143.0
363.32,131.0
363.38,157.0
363.45,144.0
363.51,136.0
363.57,141.0
363.64,133.0
363.7,127.0
363.76,139.0
363.82,128.0
363.89,128.0
363.95,137.0
364.01,143.0
364.08,132.0
364.14,139.0
364.2,150.0
364.27,146.0
364.33,131.0
364.39,116.0
364.45,124.0
364.52,112.0
364.58,128.0
364.64,135.0
364.71,148.0
364.77,141.0
364.83,116.0
364.9,135.0
364.96,140.0
365.02,116.0
365.08,114.0
365.15,118.0
365.21,112.0
365.27,106.0
365.34,119.0
365.4,152.0
365.46,138.0
365.53,110.0
365.59,100.0
365.65,104.0
365.71,113.0
365.78,119.0
365.84,102.0
365.9,116.0
365.97,121.0
366.03,116.0
366.09,121.0
366.16,102.0
366.22,100.0
366.28,105.0
366.34,101.0
366.41,97.0
366.47,92.0
366.53,98.0
366.6,77.0
366.66,81.0
366.72,67.0
366.79,86.0
366.85,91.0
366.91,70.0
366.97,80.0
367.04,80.0
367.1,72.0
367.16,69.0
367.23,79.0
367.29,50.0
367.35,68.0
367.42,53.0
367.48,55.0
367.54,58.0
367.6,38.0
367.67,56.0
367.73,51.0
367.79,51.0
367.86,55.0
367.92,62.0
367.98,36.0
368.05,28.0
368.11,40.0
368.17,32.0
368.23,21.0
368.3,38.0
368.36,37.0
368.42,18.0
368.49,11.0
368.55,7.0
368.61,-17.0
368.68,-2.0
368.74,-13.0
368.8,13.0
368.86,-4.0
368.93,-20.0
368.99,-4.0
369.05,-1.0
369.12,8.0
369.18,-18.0
369.24,6.0
369.31,9.0
369.37,7.0
369.43,10.0
369.49,40.0
369.56,15.0
369.62,7.0
369.68,23.0
369.75,44.0
369.81,33.0
369.87,44.0
369.94,42.0
370.0,38.0
370.06,49.0
370.12,39.0
370.19,38.0
370.25,40.0
370.31,25.0
370.38,31.0
370.44,26.0
370.5,48.0
370.57,49.0
370.63,55.0
370.69,58.0
370.75,35.0
370.82,50.0
370.88,44.0
370.94,42.0
371.01,34.0
371.07,58.0
371.13,74.0
371.2,60.0
371.26,60.0
371.32,57.0
371.38,49.0
371.45,48.0
371.51,50.0
371.57,16.0
371.64,14.0
371.7,54.0
371.76,58.0
371.83,65.0
371.89,54.0
371.95,73.0
372.01,82.0
372.08,73.0
372.14,81.0
372.2,54.0
372.27,53.0
372.33,57.0
372.39,53.0
372.46,63.0
372.52,72.0
372.58,71.0
372.64,53.0
372.71,42.0
372.77,46.0
372.83,42.0
372.9,61.0
372.96,57.0
373.02,72.0
373.09,58.0
373.15,77.0
373.21,80.0
373.27,83.0
373.34,84.0
373.4,77.0
373.46,93.0
373.53,96.0
373.59,93.0
373.65,105.0
373.72,98.0
373.78,86.0
373.84,93.0
373.9,74.0
373.97,80.0
374.03,99.0
374.09,114.0
374.16,111.0
374.22,109.0
374.28,110.0
374.35,126.0
374.41,111.0
374.47,82.0
374.53,88.0
374.6,108.0
374.66,118.0
374.72,111.0
374.79,105.0
374.85,100.0
374.91,113.0
374.98,108.0
375.04,123.0
375.1,99.0
375.16,85.0
375.23,116.0
375.29,110.0
375.35,113.0
375.42,112.0
375.48,121.0
375.54,124.0
375.61,127.0
375.67,100.0
375.73,119.0
375.79,132.0
375.86,124.0
375.92,143.0
375.98,154.0
376.05,145.0
376.11,140.0
376.17,145.0
376.24,122.0
376.3,131.0
376.36,137.0
376.42,146.0
376.49,143.0
376.55,149.0
376.61,149.0
376.68,152.0
376.74,154.0
376.8,155.0
376.87,154.0
376.93,153.0
376.99,155.0
377.05,149.0
377.12,162.0
377.18,170.0
377.24,159.0
377.31,163.0
377.37,166.0
377.43,182.0
377.5,169.0
377.56,176.0
377.62,189.0
377.68,181.0
377.75,192.0
377.81,207.0
377.87,189.0
377.94,175.0
378.0,190.0
378.06,193.0
378.13,204.0
378.19,188.0
378.25,192.0
378.31,185.0
378.38,181.0
378.44,187.0
378.5,171.0
378.57,196.0
378.63,189.0
378.69,195.0
378.76,186.0
378.82,187.0
378.88,190.0
378.94,186.0
379.01,188.0
379.07,177.0
379.13,188.0
379.2,187.0
379.26,174.0
379.32,190.0
379.39,178.0
379.45,185.0
379.51,176.0
379.57,190.0
379.64,182.0
379.7,181.0
379.76,198.0
379.83,201.0
379.89,186.0
379.95,185.0
380.02,196.0
380.08,205.0
380.14,212.0
380.2,200.0
380.27,209.0
380.33,222.0
380.39,213.0
380.46,204.0
380.52,213.0
380.58,205.0
380.65,184.0
380.71,196.0
380.77,208.0
380.83,194.0
380.9,189.0
380.96,162.0
381.02,170.0
381.09,187.0
381.15,192.0
381.21,211.0
381.28,187.0
381.34,178.0
381.4,179.0
381.46,192.0
381.53,171.0
381.59,173.0
381.65,171.0
381.72,174.0
381.78,157.0
381.84,143.0
381.91,125.0
381.97,148.0
382.03,126.0
382.09,155.0
382.16,173.0
382.22,176.0
382.28,192.0
382.35,174.0
382.41,182.0
382.47,181.0
382.54,156.0
382.6,163.0
382.66,154.0
382.72,165.0
382.79,173.0
382.85,174.0
382.91,150.0
382.98,156.0
383.04,158.0
383.1,126.0
383.17,152.0
383.23,133.0
383.29,136.0
383.35,153.0
383.42,145.0
383.48,147.0
383.54,141.0
383.61,122.0
383.67,98.0
383.73,117.0
383.8,108.0
383.86,116.0
383.92,83.0
383.98,83.0
384.05,99.0
384.11,113.0
384.17,87.0
384.24,75.0
384.3,106.0
384.36,102.0
384.43,74.0
384.49,89.0
384.55,88.0
384.61,71.0
384.68,75.0
384.74,86.0
384.8,94.0
384.87,94.0
384.93,82.0
384.99,74.0
385.06,80.0
385.12,78.0
385.18,79.0
385.24,81.0
385.31,91.0
385.37,105.0
385.43,84.0
385.5,74.0
385.56,45.0
385.62,45.0
385.69,57.0
385.75,42.0
385.81,55.0
385.87,45.0
385.94,54.0
386.0,48.0
386.06,26.0
386.13,42.0
386.19,36.0
386.25,7.0
386.32,20.0
386.38,18.0
386.44,28.0
386.5,23.0
386.57,36.0
386.63,61.0
386.69,44.0
386.76,56.0
386.82,58.0
386.88,67.0
386.95,46.0
387.01,29.0
387.07,55.0
387.13,57.0
387.2,71.0
387.26,47.0
387.32,57.0
387.39,73.0
387.45,61.0
387.51,72.0
387.58,54.0
387.64,34.0
387.7,38.0
387.76,38.0
387.83,27.0
387.89,38.0
387.95,25.0
388.02,14.0
388.08,47.0
388.14,28.0
388.21,28.0
388.27,41.0
388.33,48.0
388.39,43.0
388.46,58.0
388.52,42.0
388.58,40.0
388.65,42.0
388.71,41.0
388.77,31.0
388.84,11.0
388.9,25.0
388.96,12.0
389.02,20.0
389.09,31.0
389.15,14.0
389.21,18.0
389.28,18.0
389.34,27.0
389.4,-6.0
389.47,-13.0
389.53,-25.0
389.59,-7.0
389.65,7.0
389.72,29.0
389.78,28.0
389.84,6.0
389.91,29.0
389.97,15.0
390.03,27.0
390.1,28.0
390.16,18.0
390.22,7.0
390.28,27.0
390.35,41.0
390.41,17.0
390.47,40.0
390.54,44.0
390.6,45.0
390.66,54.0
390.73,49.0
390.79,34.0
390.85,42.0
390.91,40.0
390.98,52.0
391.04,45.0
391.1,46.0
391.17,72.0
391.23,43.0
391.29,47.0
391.36,48.0
391.42,45.0
391.48,62.0
391.54,73.0
391.61,82.0
391.67,80.0
391.73,81.0
391.8,87.0
391.86,54.0
391.92,59.0
391.99,66.0
392.05,26.0
392.11,28.0
392.17,58.0
392.24,55.0
392.3,43.0
392.36,50.0
392.43,72.0
392.49,65.0
392.55,65.0
392.62,53.0
392.68,76.0
392.74,83.0
392.8,91.0
392.87,64.0
392.93,61.0
392.99,74.0
393.06,69.0
393.12,66.0
393.18,90.0
393.25,85.0
393.31,94.0
393.37,94.0
393.43,80.0
393.5,58.0
393.56,65.0
393.62,75.0
393.69,71.0
393.75,70.0
393.81,88.0
393.88,95.0
393.94,83.0
394.0,103.0
394.06,107.0
394.13,112.0
394.19,127.0
394.25,118.0
394.32,109.0
394.38,90.0
394.44,103.0
394.51,105.0
394.57,79.0
394.63,92.0
394.69,122.0
394.76,133.0
394.82,111.0
394.88,100.0
394.95,124.0
395.01,152.0
395.07,130.0
395.14,131.0
395.2,115.0
395.26,123.0
395.32,117.0
395.39,131.0
395.45,109.0
395.51,119.0
395.58,123.0
395.64,127.0
395.7,138.0
395.77,113.0
395.83,113.0
395.89,120.0
395.95,127.0
396.02,131.0
396.08,163.0
396.14,142.0
396.21,152.0
396.27,144.0
396.33,154.0
396.4,148.0
396.46,138.0
396.52,149.0
396.58,144.0
396.65,168.0
396.71,159.0
396.77,151.0
396.84,155.0
396.9,149.0
396.96,144.0
397.03,160.0
397.09,153.0
397.15,145.0
397.21,144.0
397.28,137.0
397.34,153.0
397.4,148.0
397.47,156.0
397.53,147.0
397.59,128.0
397.66,133.0
397.72,139.0
397.78,155.0
397.84,149.0
397.91,141.0
397.97,144.0
398.03,166.0
398.1,157.0
398.16,177.0
398.22,153.0
398.29,155.0
398.35,145.0
398.41,164.0
398.47,160.0
398.54,152.0
398.6,153.0
398.66,131.0
398.73,140.0
398.79,128.0
398.85,132.0
398.92,144.0
398.98,148.0
399.04,150.0
399.1,134.0
399.17,146.0
399.23,154.0
399.29,162.0
399.36,157.0
399.42,143.0
399.48,141.0
399.55,149.0
399.61,160.0
399.67,147.0
399.73,149.0
399.8,155.0
399.86,149.0
399.92,136.0
399.99,149.0
400.05,155.0
400.11,135.0
400.18,141.0
400.24,138.0
400.3,154.0
400.36,134.0
400.43,129.0
400.49,122.0
400.55,120.0
400.62,118.0
400.68,115.0
400.74,87.0
400.81,95.0
400.87,101.0
400.93,115.0
400.99,103.0
401.06,102.0
401.12,86.0
401.18,96.0
401.25,92.0
401.31,80.0
401.37,93.0
401.44,80.0
401.5,73.0
401.56,89.0
401.62,91.0
401.69,69.0
401.75,84.0
401.81,83.0
401.88,95.0
401.94,95.0
402.0,83.0
402.07,83.0
402.13,73.0
402.19,83.0
402.25,94.0
402.32,102.0
402.38,108.0
402.44,99.0
402.51,103.0
402.57,92.0
402.63,88.0
402.7,80.0
402.76,89.0
402.82,92.0
402.88,93.0
402.95,111.0
403.01,95.0
403.07,116.0
403.14,121.0
403.2,97.0
403.26,98.0
403.33,83.0
403.39,89.0
403.45,80.0
403.51,78.0
403.58,66.0
403.64,76.0
403.7,64.0
403.77,65.0
403.83,43.0
403.89,54.0
403.96,57.0
404.02,65.0
404.08,78.0
404.14,76.0
404.21,89.0
404.27,76.0
404.33,67.0
404.4,68.0
404.46,69.0
404.52,65.0
404.59,68.0
404.65,78.0
404.71,73.0
404.77,76.0
404.84,78.0
404.9,92.0
404.96,95.0
405.03,111.0
405.09,113.0
405.15,98.0
405.22,101.0
405.28,104.0
405.34,117.0
405.4,106.0
405.47,87.0
405.53,111.0
405.59,120.0
405.66,101.0
405.72,91.0
405.78,88.0
405.85,94.0
405.91,89.0
405.97,91.0
406.03,100.0
406.1,107.0
406.16,93.0
406.22,118.0
406.29,115.0
406.35,98.0
406.41,113.0
406.48,111.0
406.54,105.0
406.6,99.0
406.66,110.0
406.73,112.0
406.79,106.0
406.85,114.0
406.92,109.0
406.98,81.0
407.04,83.0
407.11,99.0
407.17,116.0
407.23,116.0
407.29,107.0
407.36,125.0
407.42,120.0
407.48,97.0
407.55,84.0
407.61,87.0
407.67,85.0
407.74,81.0
407.8,78.0
407.86,83.0
407.92,74.0
407.99,75.0
408.05,89.0
408.11,102.0
408.18,101.0
408.24,91.0
408.3,118.0
408.37,97.0
408.43,79.0
408.49,101.0
408.55,100.0
408.62,80.0
408.68,92.0
408.74,119.0
408.81,109.0
408.87,120.0
408.93,112.0
409.0,106.0
409.06,125.0
409.12,128.0
409.18,119.0
409.25,116.0
409.31,133.0
409.37,146.0
409.44,137.0
409.5,136.0
409.56,123.0
409.63,113.0
409.69,133.0
409.75,145.0
409.81,137.0
409.88,124.0
409.94,114.0
410.0,138.0
410.07,129.0
410.13,118.0
410.19,119.0
410.26,122.0
410.32,133.0
410.38,105.0
410.44,128.0
410.51,120.0
410.57,125.0
410.63,135.0
410.7,120.0
410.76,119.0
410.82,132.0
410.89,117.0
410.95,144.0
411.01,149.0
411.07,126.0
411.14,123.0
411.2,128.0
411.26,136.0
411.33,146.0
411.39,127.0
411.45,121.0
411.52,116.0
411.58,130.0
411.64,145.0
411.7,146.0
411.77,148.0
411.83,144.0
411.89,151.0
411.96,152.0
412.02,178.0
412.08,155.0
412.15,159.0
412.21,164.0
412.27,143.0
412.33,151.0
412.4,159.0
412.46,144.0
412.52,167.0
412.59,176.0
412.65,153.0
412.71,168.0
412.78,154.0
412.84,136.0
412.9,145.0
412.96,135.0
413.03,142.0
413.09,143.0
413.15,129.0
413.22,130.0
413.28,161.0
413.34,149.0
413.41,141.0
413.47,145.0
413.53,142.0
413.59,139.0
413.66,157.0
413.72,166.0
413.78,166.0
413.85,175.0
413.91,173.0
413.97,145.0
414.04,143.0
414.1,141.0
414.16,160.0
414.22,168.0
414.29,165.0
414.35,160.0
414.41,135.0
414.48,118.0
414.54,129.0
414.6,112.0
414.67,119.0
414.73,135.0
414.79,101.0
414.85,120.0
414.92,99.0
414.98,81.0
415.04,121.0
415.11,119.0
415.17,93.0
415.23,85.0
415.3,84.0
415.36,90.0
415.42,97.0
415.48,100.0
415.55,94.0
415.61,87.0
415.67,81.0
415.74,83.0
415.8,68.0
415.86,76.0
415.93,81.0
415.99,95.0
416.05,96.0
416.11,66.0
416.18,81.0
416.24,87.0
416.3,91.0
416.37,80.0
416.43,62.0
416.49,62.0
416.56,64.0
416.62,61.0
416.68,72.0
416.74,56.0
416.81,32.0
416.87,42.0
416.93,57.0
417.0,58.0
417.06,71.0
417.12,48.0
417.19,60.0
417.25,41.0
417.31,32.0
417.37,37.0
417.44,42.0
417.5,58.0
417.56,53.0
417.63,9.0
417.69,1.0
417.75,1.0
417.82,-10.0
417.88,-6.0
417.94,22.0
418.0,9.0
418.07,7.0
418.13,7.0
418.19,1.0
418.26,12.0
418.32,16.0
418.38,8.0
418.45,1.0
418.51,5.0
418.57,8.0
418.63,24.0
418.7,11.0
418.76,8.0
418.82,7.0
418.89,11.0
418.95,-6.0
419.01,12.0
419.08,1.0
419.14,7.0
419.2,31.0
419.26,15.0
419.33,17.0
419.39,-11.0
419.45,-3.0
419.52,3.0
419.58,0.0
419.64,-1.0
419.71,24.0
419.77,32.0
419.83,20.0
419.89,36.0
419.96,29.0
420.02,26.0
420.08,2.0
420.15,15.0
420.21,17.0
420.27,7.0
420.34,-3.0
420.4,-1.0
420.46,25.0
420.52,8.0
420.59,19.0
420.65,28.0
420.71,22.0
420.78,18.0
420.84,47.0
420.9,39.0
420.97,19.0
421.03,28.0
421.09,49.0
421.15,20.0
421.22,24.0
421.28,44.0
421.34,40.0
421.41,28.0
421.47,36.0
421.53,35.0
421.6,16.0
421.66,36.0
421.72,55.0
421.78,47.0
421.85,52.0
421.91,60.0
421.97,67.0
422.04,76.0
422.1,75.0
422.16,67.0
422.23,80.0
422.29,70.0
422.35,67.0
422.41,96.0
422.48,81.0
422.54,69.0
422.6,71.0
422.67,85.0
422.73,86.0
422.79,95.0
422.86,82.0
422.92,91.0
422.98,87.0
423.04,100.0
423.11,87.0
423.17,96.0
423.23,101.0
423.3,109.0
423.36,86.0
423.42,87.0
423.49,98.0
423.55,92.0
423.61,122.0
423.67,99.0
423.74,111.0
423.8,96.0
423.86,98.0
423.93,111.0
423.99,113.0
424.05,125.0
424.12,152.0
424.18,140.0
424.24,128.0
424.3,136.0
424.37,157.0
424.43,143.0
424.49,138.0
424.56,149.0
424.62,129.0
424.68,137.0
424.75,152.0
424.81,152.0
424.87,140.0
424.93,132.0
425.0,144.0
425.06,144.0
425.12,118.0
425.19,133.0
425.25,121.0
425.31,125.0
425.38,134.0
425.44,144.0
425.5,155.0
425.56,107.0
425.63,114.0
425.69,126.0
425.75,112.0
425.82,125.0
425.88,111.0
425.94,127.0
426.01,138.0
426.07,127.0
426.13,124.0
426.19,130.0
426.26,123.0
426.32,135.0
426.38,131.0
426.45,133.0
426.51,121.0
426.57,121.0
426.64,126.0
426.7,147.0
426.76,143.0
426.82,158.0
426.89,135.0
426.95,144.0
427.01,167.0
427.08,155.0
427.14,166.0
427.2,167.0
427.27,165.0
427.33,157.0
427.39,171.0
427.45,171.0
427.52,173.0
427.58,176.0
427.64,170.0
427.71,194.0
427.77,195.0
427.83,179.0
427.9,170.0
427.96,160.0
428.02,188.0
428.08,184.0
428.15,205.0
428.21,216.0
428.27,208.0
428.34,199.0
428.4,207.0
428.46,193.0
428.53,207.0
428.59,203.0
428.65,206.0
428.71,220.0
428.78,232.0
428.84,221.0
428.9,225.0
428.97,235.0
429.03,217.0
429.09,195.0
429.16,217.0
429.22,225.0
429.28,197.0
429.34,191.0
429.41,195.0
429.47,183.0
429.53,182.0
429.6,191.0
429.66,185.0
429.72,174.0
429.79,178.0
429.85,165.0
429.91,181.0
429.97,187.0
430.04,188.0
430.1,161.0
430.16,173.0
430.23,173.0
430.29,170.0
430.35,179.0
430.42,164.0
430.48,160.0
430.54,162.0
430.6,154.0
430.67,173.0
430.73,190.0
430.79,200.0
430.86,174.0
430.92,176.0
430.98,196.0
431.05,171.0
431.11,175.0
431.17,176.0
431.23,190.0
431.3,207.0
431.36,199.0
431.42,225.0
431.49,203.0
431.55,207.0
431.61,210.0
431.68,210.0
431.74,199.0
431.8,197.0
431.86,205.0
431.93,220.0
431.99,210.0
432.05,211.0
432.12,197.0
432.18,186.0
432.24,202.0
432.31,209.0
432.37,193.0
432.43,208.0
432.49,199.0
432.56,181.0
432.62,138.0
432.68,171.0
432.75,163.0
432.81,176.0
432.87,163.0
432.94,159.0
433.0,160.0
433.06,146.0
433.12,146.0
433.19,149.0
433.25,143.0
433.31,144.0
433.38,133.0
433.44,141.0
433.5,146.0
433.57,127.0
433.63,144.0
433.69,122.0
433.75,117.0
433.82,107.0
433.88,119.0
433.94,121.0
434.01,125.0
434.07,130.0
434.13,116.0
434.2,110.0
434.26,106.0
434.32,106.0
434.38,99.0
434.45,105.0
434.51,100.0
434.57,74.0
434.64,82.0
434.7,97.0
434.76,73.0
434.83,58.0
434.89,75.0
434.95,60.0
435.01,60.0
435.08,50.0
435.14,54.0
435.2,43.0
435.27,37.0
435.33,64.0
435.39,76.0
435.46,80.0
435.52,89.0
435.58,73.0
435.64,67.0
435.71,75.0
435.77,79.0
435.83,80.0
435.9,64.0
435.96,65.0
436.02,70.0
436.09,67.0
436.15,56.0
436.21,66.0
436.27,76.0
436.34,70.0
436.4,50.0
436.46,48.0
436.53,61.0
436.59,59.0
436.65,63.0
436.72,48.0
436.78,53.0
436.84,44.0
436.9,48.0
436.97,62.0
437.03,75.0
437.09,89.0
437.16,68.0
437.22,67.0
437.28,94.0
437.35,74.0
437.41,61.0
437.47,74.0
437.53,82.0
437.6,62.0
437.66,71.0
437.72,75.0
437.79,55.0
437.85,82.0
437.91,66.0
437.98,63.0
438.04,75.0
438.1,88.0
438.16,108.0
438.23,97.0
438.29,107.0
438.35,76.0
438.42,88.0
438.48,103.0
438.54,105.0
438.61,113.0
438.67,107.0
438.73,104.0
438.79,104.0
438.86,101.0
438.92,99.0
438.98,97.0
439.05,100.0
439.11,89.0
439.17,88.0
439.24,86.0
439.3,78.0
439.36,64.0
439.42,86.0
439.49,58.0
439.55,65.0
439.61,83.0
439.68,67.0
439.74,86.0
439.8,76.0
439.87,96.0
439.93,97.0
439.99,89.0
440.05,110.0
440.12,97.0
440.18,93.0
440.24,71.0
440.31,82.0
440.37,104.0
440.43,91.0
440.5,75.0
440.56,71.0
440.62,70.0
440.68,65.0
440.75,67.0
440.81,71.0
440.87,67.0
440.94,77.0
441.0,67.0
441.06,73.0
441.13,70.0
441.19,64.0
441.25,68.0
441.31,61.0
441.38,50.0
441.44,43.0
441.5,56.0
441.57,34.0
441.63,42.0
441.69,59.0
441.76,48.0
441.82,45.0
441.88,47.0
441.94,45.0
442.01,40.0
442.07,40.0
442.13,65.0
442.2,63.0
442.26,52.0
442.32,56.0
442.39,59.0
442.45,86.0
442.51,79.0
442.57,70.0
442.64,89.0
442.7,103.0
442.76,75.0
442.83,64.0
442.89,79.0
442.95,82.0
443.02,79.0
443.08,88.0
443.14,76.0
443.2,71.0
443.27,89.0
443.33,72.0
443.39,80.0
443.46,77.0
443.52,75.0
443.58,70.0
443.65,59.0
443.71,62.0
443.77,34.0
443.83,64.0
443.9,43.0
443.96,61.0
444.02,71.0
444.09,71.0
444.15,74.0
444.21,69.0
444.28,77.0
444.34,77.0
444.4,100.0
444.46,86.0
444.53,101.0
444.59,101.0
444.65,90.0
444.72,99.0
444.78,101.0
444.84,99.0
444.91,103.0
444.97,92.0
445.03,100.0
445.09,122.0
445.16,127.0
445.22,116.0
445.28,129.0
445.35,134.0
445.41,116.0
445.47,115.0
445.54,133.0
445.6,118.0
445.66,119.0
445.72,110.0
445.79,124.0
445.85,125.0
445.91,109.0
445.98,113.0
446.04,118.0
446.1,96.0
446.17,104.0
446.23,95.0
446.29,96.0
446.35,105.0
446.42,105.0
446.48,98.0
446.54,98.0
446.61,103.0
446.67,140.0
446.73,136.0
446.8,134.0
446.86,131.0
446.92,137.0
446.98,144.0
447.05,145.0
447.11,166.0
447.17,147.0
447.24,159.0
447.3,152.0
447.36,156.0
447.43,150.0
447.49,127.0
447.55,136.0
447.61,153.0
447.68,157.0
447.74,151.0
447.8,159.0
447.87,177.0
447.93,150.0
447.99,171.0
448.06,162.0
448.12,163.0
448.18,174.0
448.24,157.0
448.31,161.0
448.37,154.0
448.43,169.0
448.5,159.0
448.56,151.0
448.62,140.0
448.69,141.0
448.75,154.0
448.81,165.0
448.87,162.0
448.94,176.0
449.0,177.0
449.06,176.0
449.13,178.0
449.19,177.0
449.25,181.0
449.32,159.0
449.38,170.0
449.44,172.0
449.5,182.0
449.57,182.0
449.63,181.0
449.69,184.0
449.76,173.0
449.82,156.0
449.88,150.0
449.95,155.0
450.01,166.0
450.07,169.0
450.13,147.0
450.2,154.0
450.26,129.0
450.32,129.0
450.39,140.0
450.45,117.0
450.51,103.0
450.58,112.0
450.64,109.0
450.7,119.0
450.76,113.0
450.83,112.0
450.89,122.0
450.95,105.0
451.02,102.0
451.08,90.0
451.14,87.0
451.21,91.0
451.27,108.0
451.33,91.0
451.39,91.0
451.46,72.0
451.52,84.0
451.58,98.0
451.65,95.0
451.71,108.0
451.77,100.0
451.84,82.0
451.9,57.0
451.96,73.0
452.02,86.0
452.09,84.0
452.15,75.0
452.21,68.0
452.28,82.0
452.34,70.0
452.4,64.0
452.47,89.0
452.53,90.0
452.59,96.0
452.65,67.0
452.72,68.0
452.78,60.0
452.84,62.0
452.91,66.0
452.97,58.0
453.03,65.0
453.1,69.0
453.16,46.0
453.22,82.0
453.28,74.0
453.35,63.0
453.41,64.0
453.47,35.0
453.54,64.0
453.6,49.0
453.66,61.0
453.73,77.0
453.79,56.0
453.85,53.0
453.91,68.0
453.98,64.0
454.04,69.0
454.1,73.0
454.17,76.0
454.23,58.0
454.29,59.0
454.36,63.0
454.42,54.0
454.48,59.0
454.54,58.0
454.61,51.0
454.67,58.0
454.73,72.0
454.8,92.0
454.86,81.0
454.92,97.0
454.99,79.0
455.05,82.0
455.11,102.0
455.17,100.0
455.24,82.0
455.3,100.0
455.36,102.0
455.43,103.0
455.49,86.0
455.55,94.0
455.62,88.0
455.68,83.0
455.74,74.0
455.8,63.0
455.87,52.0
455.93,59.0
455.99,70.0
456.06,74.0
456.12,68.0
456.18,85.0
456.25,78.0
456.31,67.0
456.37,51.0
456.43,58.0
456.5,62.0
456.56,64.0
456.62,66.0
456.69,70.0
456.75,66.0
456.81,76.0
456.88,102.0
456.94,82.0
457.0,74.0
457.06,88.0
457.13,93.0
457.19,106.0
457.25,92.0
457.32,90.0
457.38,92.0
457.44,72.0
457.51,82.0
457.57,79.0
457.63,72.0
457.69,85.0
457.76,84.0
457.82,67.0
457.88,75.0
457.95,77.0
458.01,59.0
458.07,63.0
458.14,83.0
458.2,74.0
458.26,77.0
458.32,61.0
458.39,69.0
458.45,86.0
458.51,67.0
458.58,58.0
458.64,94.0
458.7,71.0
458.77,93.0
458.83,84.0
458.89,85.0
458.95,90.0
459.02,77.0
459.08,91.0
459.14,104.0
459.21,99.0
459.27,112.0
459.33,109.0
459.4,114.0
459.46,107.0
459.52,99.0
459.58,81.0
459.65,104.0
459.71,90.0
459.77,86.0
459.84,96.0
459.9,96.0
459.96,96.0
460.03,85.0
460.09,90.0
460.15,97.0
460.21,102.0
460.28,93.0
460.34,95.0
460.4,107.0
460.47,116.0
460.53,118.0
460.59,113.0
460.66,119.0
460.72,139.0
460.78,130.0
460.84,119.0
460.91,119.0
460.97,126.0
461.03,118.0
461.1,125.0
461.16,136.0
461.22,119.0
461.29,125.0
461.35,133.0
461.41,151.0
461.47,131.0
461.54,135.0
461.6,118.0
461.66,124.0
461.73,140.0
461.79,136.0
461.85,122.0
461.92,107.0
461.98,119.0
462.04,137.0
462.1,133.0
462.17,134.0
462.23,150.0
462.29,134.0
462.36,148.0
462.42,143.0
462.48,139.0
462.55,152.0
462.61,133.0
462.67,143.0
462.73,144.0
462.8,151.0
462.86,156.0
462.92,156.0
462.99,175.0
463.05,174.0
463.11,197.0
463.18,196.0
463.24,197.0
463.3,181.0
463.36,182.0
463.43,178.0
463.49,192.0
463.55,195.0
463.62,191.0
463.68,194.0
463.74,196.0
463.81,192.0
463.87,203.0
463.93,178.0
463.99,187.0
464.06,182.0
464.12,170.0
464.18,214.0
464.25,212.0
464.31,211.0
464.37,243.0
464.44,212.0
464.5,221.0
464.56,214.0
464.62,197.0
464.69,217.0
464.75,218.0
464.81,221.0
464.88,216.0
464.94,209.0
465.0,216.0
465.07,207.0
465.13,219.0
465.19,226.0
465.25,223.0
465.32,228.0
465.38,244.0
465.44,227.0
465.51,222.0
465.57,215.0
465.63,180.0
465.7,206.0
465.76,205.0
465.82,209.0
465.88,207.0
465.95,211.0
466.01,223.0
466.07,198.0
466.14,169.0
466.2,184.0
466.26,188.0
466.33,187.0
466.39,189.0
466.45,169.0
466.51,175.0
466.58,181.0
466.64,168.0
466.7,149.0
466.77,148.0
466.83,140.0
466.89,153.0
466.96,143.0
467.02,136.0
467.08,147.0
467.14,149.0
467.21,154.0
467.27,132.0
467.33,131.0
467.4,116.0
467.46,119.0
467.52,130.0
467.59,128.0
467.65,136.0
467.71,106.0
467.77,111.0
467.84,114.0
467.9,119.0
467.96,125.0
468.03,118.0
468.09,125.0
468.15,108.0
468.22,99.0
468.28,75.0
468.34,100.0
468.4,107.0
468.47,103.0
468.53,96.0
468.59,104.0
468.66,108.0
468.72,114.0
468.78,105.0
468.85,121.0
468.91,106.0
468.97,110.0
469.03,127.0
469.1,122.0
469.16,119.0
469.22,95.0
469.29,90.0
469.35,108.0
469.41,94.0
469.48,74.0
469.54,66.0
469.6,102.0
469.66,115.0
469.73,91.0
469.79,100.0
469.85,97.0
469.92,88.0
469.98,94.0
470.04,77.0
470.11,89.0
470.17,111.0
470.23,105.0
470.29,100.0
470.36,81.0
470.42,78.0
470.48,98.0
470.55,74.0
470.61,83.0
470.67,88.0
470.74,88.0
470.8,93.0
470.86,79.0
470.92,81.0
470.99,102.0
471.05,89.0
471.11,93.0
471.18,96.0
471.24,95.0
471.3,109.0
471.37,108.0
471.43,98.0
471.49,101.0
471.55,113.0
471.62,127.0
471.68,110.0
471.74,106.0
471.81,101.0
471.87,99.0
471.93,83.0
472.0,87.0
472.06,96.0
472.12,100.0
472.18,91.0
472.25,82.0
472.31,115.0
472.37,120.0
472.44,111.0
472.5,117.0
472.56,113.0
472.63,92.0
472.69,79.0
472.75,73.0
472.81,63.0
472.88,70.0
472.94,68.0
473.0,79.0
473.07,80.0
473.13,107.0
473.19,92.0
473.26,82.0
473.32,88.0
473.38,92.0
473.44,86.0
473.51,86.0
473.57,76.0
473.63,79.0
473.7,80.0
473.76,64.0
473.82,79.0
473.89,76.0
473.95,71.0
474.01,71.0
474.07,63.0
474.14,55.0
474.2,75.0
474.26,69.0
474.33,64.0
474.39,78.0
474.45,67.0
474.52,75.0
474.58,64.0
474.64,74.0
474.7,77.0
474.77,76.0
474.83,77.0
474.89,77.0
474.96,79.0
475.02,77.0
475.08,99.0
475.15,83.0
475.21,71.0
475.27,84.0
475.33,92.0
475.4,85.0
475.46,75.0
475.52,72.0
475.59,58.0
475.65,75.0
475.71,99.0
475.78,80.0
475.84,78.0
475.9,79.0
475.96,66.0
476.03,79.0
476.09,88.0
476.15,89.0
476.22,93.0
476.28,61.0
476.34,85.0
476.41,93.0
476.47,74.0
476.53,90.0
476.59,82.0
476.66,93.0
476.72,93.0
476.78,104.0
476.85,103.0
476.91,118.0
476.97,113.0
477.04,104.0
477.1,92.0
477.16,104.0
477.22,103.0
477.29,109.0
477.35,115.0
477.41,110.0
477.48,117.0
477.54,109.0
477.6,111.0
477.67,93.0
477.73,107.0
477.79,96.0
477.85,120.0
477.92,112.0
477.98,130.0
478.04,132.0
478.11,117.0
478.17,139.0
478.23,118.0
478.3,114.0
478.36,119.0
478.42,137.0
478.48,124.0
478.55,147.0
478.61,161.0
478.67,166.0
478.74,169.0
478.8,174.0
478.86,168.0
478.93,143.0
478.99,153.0
479.05,163.0
479.11,161.0
479.18,178.0
479.24,177.0
479.3,171.0
479.37,176.0
479.43,163.0
479.49,169.0
479.56,173.0
479.62,141.0
479.68,141.0
479.74,159.0
479.81,151.0
479.87,167.0
479.93,168.0
480.0,133.0
480.06,161.0
480.12,160.0
480.19,183.0
480.25,176.0
480.31,179.0
480.37,189.0
480.44,181.0
480.5,184.0
480.56,188.0
480.63,182.0
480.69,181.0
480.75,181.0
480.82,181.0
480.88,204.0
480.94,210.0
481.0,198.0
481.07,186.0
481.13,196.0
481.19,185.0
481.26,184.0
481.32,170.0
481.38,162.0
481.45,178.0
481.51,163.0
481.57,168.0
481.63,171.0
481.7,162.0
481.76,148.0
481.82,173.0
481.89,162.0
481.95,183.0
482.01,196.0
482.08,198.0
482.14,197.0
482.2,190.0
482.26,196.0
482.33,186.0
482.39,193.0
482.45,200.0
482.52,201.0
482.58,193.0
482.64,180.0
482.71,176.0
482.77,172.0
482.83,163.0
482.89,176.0
482.96,167.0
483.02,180.0
483.08,184.0
483.15,170.0
483.21,159.0
483.27,180.0
483.34,162.0
483.4,158.0
483.46,166.0
483.52,189.0
483.59,192.0
483.65,163.0
483.71,190.0
483.78,176.0
483.84,150.0
483.9,159.0
483.97,146.0
484.03,140.0
484.09,142.0
484.15,157.0
484.22,149.0
484.28,159.0
484.34,156.0
484.41,174.0
484.47,163.0
484.53,134.0
484.6,155.0
484.66,148.0
484.72,159.0
484.78,160.0
484.85,168.0
484.91,157.0
484.97,130.0
485.04,121.0
485.1,133.0
485.16,136.0
485.23,124.0
485.29,127.0
485.35,132.0
485.41,107.0
485.48,99.0
485.54,119.0
485.6,104.0
485.67,108.0
485.73,101.0
485.79,111.0
485.86,102.0
485.92,91.0
485.98,69.0
486.04,72.0
486.11,72.0
486.17,73.0
486.23,82.0
486.3,86.0
486.36,93.0
486.42,74.0
486.49,94.0
486.55,111.0
486.61,114.0
486.67,92.0
486.74,93.0
486.8,95.0
486.86,106.0
486.93,96.0
486.99,88.0
487.05,97.0
487.12,119.0
487.18,103.0
487.24,96.0
487.3,110.0
487.37,100.0
487.43,133.0
487.49,130.0
487.56,114.0
487.62,99.0
487.68,118.0
487.75,108.0
487.81,108.0
487.87,118.0
487.93,105.0
488.0,104.0
488.06,113.0
488.12,116.0
488.19,99.0
488.25,91.0
488.31,108.0
488.38,107.0
488.44,97.0
488.5,105.0
488.56,101.0
488.63,111.0
488.69,122.0
488.75,127.0
488.82,114.0
488.88,120.0
488.94,121.0
489.01,100.0
489.07,92.0
489.13,83.0
489.19,82.0
489.26,95.0
489.32,102.0
489.38,109.0
489.45,83.0
489.51,89.0
489.57,81.0
489.64,78.0
489.7,69.0
489.76,77.0
489.82,88.0
489.89,82.0
489.95,97.0
490.01,100.0
490.08,86.0
490.14,93.0
490.2,92.0
490.27,72.0
490.33,77.0
490.39,68.0
490.45,86.0
490.52,95.0
490.58,71.0
490.64,80.0
490.71,82.0
490.77,71.0
490.83,96.0
490.9,111.0
490.96,111.0
491.02,108.0
491.08,82.0
491.15,112.0
491.21,75.0
491.27,82.0
491.34,85.0
491.4,75.0
491.46,108.0
491.53,107.0
491.59,111.0
491.65,107.0
491.71,102.0
491.78,97.0
491.84,95.0
491.9,115.0
491.97,102.0
492.03,98.0
492.09,100.0
492.16,121.0
492.22,120.0
492.28,99.0
492.34,113.0
492.41,115.0
492.47,99.0
492.53,87.0
492.6,97.0
492.66,84.0
492.72,113.0
492.79,109.0
492.85,100.0
492.91,88.0
492.97,95.0
493.04,76.0
493.1,91.0
493.16,92.0
493.23,85.0
493.29,103.0
493.35,110.0
493.42,100.0
493.48,89.0
493.54,100.0
493.6,85.0
493.67,92.0
493.73,107.0
493.79,116.0
493.86,104.0
493.92,121.0
493.98,108.0
494.05,115.0
494.11,85.0
494.17,104.0
494.23,106.0
494.3,90.0
494.36,100.0
494.42,98.0
494.49,101.0
494.55,99.0
494.61,91.0
494.68,104.0
494.74,116.0
494.8,129.0
494.86,117.0
494.93,124.0
494.99,107.0
495.05,100.0
495.12,103.0
495.18,106.0
495.24,122.0
495.31,116.0
495.37,106.0
495.43,107.0
495.49,105.0
495.56,116.0
495.62,131.0
495.68,114.0
495.75,101.0
495.81,100.0
495.87,113.0
495.94,103.0
496.0,69.0
496.06,90.0
496.12,104.0
496.19,114.0
496.25,110.0
496.31,98.0
496.38,118.0
496.44,115.0
496.5,106.0
496.57,111.0
496.63,116.0
496.69,125.0
496.75,129.0
496.82,143.0
496.88,148.0
496.94,161.0
497.01,144.0
497.07,142.0
497.13,148.0
497.2,162.0
497.26,166.0
497.32,152.0
497.38,169.0
497.45,149.0
497.51,160.0
497.57,157.0
497.64,143.0
497.7,130.0
497.76,123.0
497.83,144.0
497.89,155.0
497.95,158.0
498.01,141.0
498.08,147.0
498.14,162.0
498.2,148.0
498.27,148.0
498.33,151.0
498.39,151.0
498.46,166.0
498.52,156.0
498.58,140.0
498.64,130.0
498.71,141.0
498.77,144.0
498.83,163.0
498.9,163.0
498.96,180.0
499.02,170.0
499.09,151.0
499.15,150.0
499.21,172.0
499.27,159.0
499.34,148.0
499.4,164.0
499.46,160.0
499.53,173.0
499.59,160.0
499.65,152.0
499.72,166.0
499.78,161.0
499.84,166.0
499.9,152.0
499.97,158.0
500.03,166.0
500.09,154.0
500.16,162.0
500.22,158.0
500.28,141.0
500.35,152.0
500.41,144.0
500.47,137.0
500.53,124.0
500.6,123.0
500.66,142.0
500.72,129.0
500.79,111.0
500.85,113.0
500.91,111.0
500.98,104.0
501.04,81.0
501.1,97.0
501.16,120.0
501.23,110.0
501.29,110.0
501.35,94.0
501.42,89.0
501.48,83.0
501.54,68.0
501.61,84.0
501.67,85.0
501.73,94.0
501.79,72.0
501.86,75.0
501.92,77.0
501.98,63.0
502.05,74.0
502.11,85.0
502.17,69.0
502.24,72.0
502.3,83.0
502.36,72.0
502.42,78.0
502.49,71.0
502.55,59.0
502.61,71.0
502.68,85.0
502.74,71.0
502.8,69.0
502.87,58.0
502.93,52.0
502.99,75.0
503.05,77.0
503.12,69.0
503.18,81.0
503.24,89.0
503.31,63.0
503.37,84.0
503.43,51.0
503.5,32.0
503.56,31.0
503.62,31.0
503.68,52.0
503.75,69.0
503.81,65.0
503.87,53.0
503.94,54.0
504.0,50.0
504.06,47.0
504.13,51.0
504.19,55.0
504.25,61.0
504.31,29.0
504.38,43.0
504.44,44.0
504.5,40.0
504.57,48.0
504.63,37.0
504.69,38.0
504.76,31.0
504.82,26.0
504.88,42.0
504.94,49.0
505.01,52.0
505.07,34.0
505.13,41.0
505.2,58.0
505.26,66.0
505.32,44.0
505.39,42.0
505.45,32.0
505.51,47.0
505.57,53.0
505.64,72.0
505.7,67.0
505.76,58.0
505.83,58.0
505.89,37.0
505.95,45.0
506.02,37.0
506.08,20.0
506.14,36.0
506.2,44.0
506.27,54.0
506.33,54.0
506.39,37.0
506.46,64.0
506.52,48.0
506.58,36.0
506.65,52.0
506.71,64.0
506.77,66.0
506.83,63.0
506.9,42.0
506.96,19.0
507.02,33.0
507.09,21.0
507.15,26.0
507.21,23.0
507.28,-3.0
507.34,26.0
507.4,17.0
507.46,37.0
507.53,39.0
507.59,36.0
507.65,53.0
507.72,29.0
507.78,35.0
507.84,40.0
507.91,52.0
507.97,63.0
508.03,38.0
508.09,24.0
508.16,28.0
508.22,28.0
508.28,30.0
508.35,31.0
508.41,15.0
508.47,-7.0
508.54,0.0
508.6,-4.0
508.66,-9.0
508.72,20.0
508.79,21.0
508.85,24.0
508.91,15.0
508.98,23.0
509.04,34.0
509.1,36.0
509.17,40.0
509.23,31.0
509.29,39.0
509.35,28.0
509.42,37.0
509.48,49.0
509.54,42.0
509.61,45.0
509.67,58.0
509.73,49.0
509.8,51.0
509.86,54.0
509.92,48.0
509.98,52.0
510.05,54.0
510.11,50.0
510.17,64.0
510.24,73.0
510.3,64.0
510.36,78.0
510.43,68.0
510.49,55.0
510.55,64.0
510.61,66.0
510.68,71.0
510.74,80.0
510.8,80.0
510.87,80.0
510.93,49.0
510.99,55.0
511.06,65.0
511.12,83.0
511.18,72.0
511.24,79.0
511.31,89.0
511.37,91.0
511.43,101.0
511.5,79.0
511.56,85.0
511.62,81.0
511.69,70.0
511.75,76.0
511.81,75.0
511.87,67.0
511.94,82.0
512.0,75.0
512.06,100.0
512.13,94.0
512.19,85.0
512.25,91.0
512.32,109.0
512.38,115.0
512.44,104.0
512.5,103.0
512.57,97.0
512.63,105.0
512.69,109.0
512.76,101.0
512.82,117.0
512.88,101.0
512.95,116.0
513.01,127.0
513.07,115.0
513.13,137.0
513.2,158.0
513.26,132.0
513.32,145.0
513.39,158.0
513.45,155.0
513.51,170.0
513.58,161.0
513.64,155.0
513.7,148.0
513.76,152.0
513.83,163.0
513.89,163.0
513.95,181.0
514.02,175.0
514.08,195.0
514.14,187.0
514.21,188.0
514.27,193.0
514.33,190.0
514.39,192.0
514.46,176.0
514.52,179.0
514.58,209.0
514.65,211.0
514.71,220.0
514.77,222.0
514.84,216.0
514.9,237.0
514.96,227.0
515.02,222.0
515.09,207.0
515.15,214.0
515.21,206.0
515.28,207.0
515.34,192.0
515.4,184.0
515.47,188.0
515.53,170.0
515.59,166.0
515.65,170.0
515.72,199.0
515.78,186.0
515.84,185.0
515.91,185.0
515.97,178.0
516.03,188.0
516.1,188.0
516.16,199.0
516.22,180.0
516.28,167.0
516.35,204.0
516.41,196.0
516.47,192.0
516.54,178.0
516.6,188.0
516.66,185.0
516.73,195.0
516.79,178.0
516.85,176.0
516.91,170.0
516.98,186.0
517.04,198.0
517.1,167.0
517.17,161.0
517.23,165.0
517.29,172.0
517.36,179.0
517.42,184.0
517.48,188.0
517.54,190.0
517.61,175.0
517.67,158.0
517.73,185.0
517.8,189.0
517.86,169.0
517.92,183.0
517.99,185.0
518.05,173.0
518.11,161.0
518.17,161.0
518.24,154.0
518.3,151.0
518.36,146.0
518.43,157.0
518.49,145.0
518.55,139.0
518.62,137.0
518.68,120.0
518.74,122.0
518.8,122.0
518.87,125.0
518.93,122.0
518.99,118.0
519.06,133.0
519.12,142.0
519.18,137.0
519.25,128.0
519.31,117.0
519.37,117.0
519.43,111.0
519.5,136.0
519.56,128.0
519.62,120.0
519.69,108.0
519.75,124.0
519.81,118.0
519.88,90.0
519.94,104.0
520.0,97.0
520.06,129.0
520.13,138.0
520.19,127.0
520.25,147.0
520.32,101.0
520.38,105.0
520.44,133.0
520.51,113.0
520.57,118.0
520.63,123.0
520.69,134.0
520.76,144.0
520.82,169.0
520.88,181.0
520.95,159.0
521.01,147.0
521.07,165.0
521.14,152.0
521.2,136.0
521.26,162.0
521.32,156.0
521.39,140.0
521.45,136.0
521.51,139.0
521.58,125.0
521.64,129.0
521.7,119.0
521.77,116.0
521.83,130.0
521.89,120.0
521.95,143.0
522.02,133.0
522.08,128.0
522.14,137.0
522.21,128.0
522.27,138.0
522.33,132.0
522.4,111.0
522.46,109.0
522.52,101.0
522.58,115.0
522.65,118.0
522.71,103.0
522.77,108.0
522.84,108.0
522.9,111.0
522.96,109.0
523.03,92.0
523.09,112.0
523.15,129.0
523.21,101.0
523.28,112.0
523.34,100.0
523.4,80.0
523.47,106.0
523.53,93.0
523.59,90.0
523.66,106.0
523.72,100.0
523.78,101.0
523.84,103.0
523.91,89.0
523.97,86.0
524.03,96.0
524.1,90.0
524.16,98.0
524.22,116.0
524.29,106.0
524.35,112.0
524.41,93.0
524.47,83.0
524.54,99.0
524.6,90.0
524.66,88.0
524.73,91.0
524.79,86.0
524.85,73.0
524.92,73.0
524.98,77.0
525.04,63.0
525.1,78.0
525.17,95.0
525.23,94.0
525.29,94.0
525.36,85.0
525.42,72.0
525.48,69.0
525.55,71.0
525.61,81.0
525.67,84.0
525.73,73.0
525.8,84.0
525.86,58.0
525.92,68.0
525.99,81.0
526.05,66.0
526.11,67.0
526.18,60.0
526.24,69.0
526.3,51.0
526.36,57.0
526.43,51.0
526.49,65.0
526.55,86.0
526.62,68.0
526.68,58.0
526.74,36.0
526.81,41.0
526.87,34.0
526.93,41.0
526.99,54.0
527.06,57.0
527.12,82.0
527.18,78.0
527.25,67.0
527.31,84.0
527.37,76.0
527.44,53.0
527.5,61.0
527.56,76.0
527.62,86.0
527.69,76.0
527.75,89.0
527.81,94.0
527.88,80.0
527.94,87.0
528.0,73.0
528.07,68.0
528.13,84.0
528.19,90.0
528.25,92.0
528.32,99.0
528.38,83.0
528.44,95.0
528.51,120.0
528.57,111.0
528.63,112.0
528.7,116.0
528.76,109.0
528.82,103.0
528.88,110.0
528.95,110.0
529.01,103.0
529.07,123.0
529.14,114.0
529.2,118.0
529.26,121.0
529.33,128.0
529.39,156.0
529.45,120.0
529.51,109.0
529.58,102.0
529.64,97.0
529.7,115.0
529.77,107.0
529.83,138.0
529.89,144.0
529.96,150.0
530.02,122.0
530.08,124.0
530.14,130.0
530.21,123.0
530.27,155.0
530.33,152.0
530.4,159.0
530.46,181.0
530.52,169.0
530.59,162.0
530.65,179.0
530.71,197.0
530.77,173.0
530.84,158.0
530.9,161.0
530.96,166.0
531.03,175.0
531.09,174.0
531.15,168.0
531.22,179.0
531.28,185.0
531.34,174.0
531.4,164.0
531.47,166.0
531.53,168.0
531.59,179.0
531.66,183.0
531.72,206.0
531.78,186.0
531.85,192.0
531.91,192.0
531.97,199.0
532.03,208.0
532.1,194.0
532.16,198.0
532.22,196.0
532.29,199.0
532.35,201.0
532.41,214.0
532.48,195.0
532.54,212.0
532.6,229.0
532.66,233.0
532.73,218.0
532.79,193.0
532.85,215.0
532.92,219.0
532.98,207.0
533.04,195.0
533.11,193.0
533.17,178.0
533.23,190.0
533.29,185.0
533.36,167.0
533.42,200.0
533.48,188.0
533.55,177.0
533.61,183.0
533.67,177.0
533.74,151.0
533.8,162.0
533.86,181.0
533.92,164.0
533.99,179.0
534.05,159.0
534.11,183.0
534.18,189.0
534.24,182.0
534.3,175.0
534.37,176.0
534.43,161.0
534.49,160.0
534.55,176.0
534.62,149.0
534.68,167.0
534.74,145.0
534.81,164.0
534.87,161.0
534.93,153.0
535.0,160.0
535.06,145.0
535.12,138.0
535.18,154.0
535.25,134.0
535.31,134.0
535.37,142.0
535.44,126.0
535.5,115.0
535.56,122.0
535.63,110.0
535.69,123.0
535.75,112.0
535.81,114.0
535.88,108.0
535.94,95.0
536.0,99.0
536.07,91.0
536.13,93.0
536.19,103.0
536.26,107.0
536.32,102.0
536.38,113.0
536.44,106.0
536.51,89.0
536.57,111.0
536.63,94.0
536.7,92.0
536.76,101.0
536.82,112.0
536.89,105.0
536.95,98.0
537.01,101.0
537.07,88.0
537.14,84.0
537.2,78.0
537.26,98.0
537.33,76.0
537.39,96.0
537.45,97.0
537.52,93.0
537.58,95.0
537.64,95.0
537.7,113.0
537.77,93.0
537.83,115.0
537.89,110.0
537.96,104.0
538.02,103.0
538.08,90.0
538.15,83.0
538.21,75.0
538.27,65.0
538.33,74.0
538.4,79.0
538.46,88.0
538.52,103.0
538.59,90.0
538.65,83.0
538.71,84.0
538.78,75.0
538.84,76.0
538.9,88.0
538.96,88.0
539.03,98.0
539.09,102.0
539.15,108.0
539.22,106.0
539.28,125.0
539.34,112.0
539.41,104.0
539.47,110.0
539.53,114.0
539.59,108.0
539.66,128.0
539.72,126.0
539.78,123.0
539.85,111.0
539.91,107.0
539.97,112.0
540.04,98.0
540.1,115.0
540.16,114.0
540.22,115.0
540.29,108.0
540.35,94.0
540.41,83.0
540.48,79.0
540.54,104.0
540.6,103.0
540.67,105.0
540.73,86.0
540.79,119.0
540.85,114.0
540.92,85.0
540.98,106.0
541.04,130.0
541.11,121.0
541.17,101.0
541.23,94.0
541.3,102.0
541.36,121.0
541.42,114.0
541.48,113.0
541.55,113.0
541.61,115.0
541.67,124.0
541.74,120.0
541.8,120.0
541.86,116.0
541.93,105.0
541.99,112.0
542.05,124.0
542.11,106.0
542.18,108.0
542.24,105.0
542.3,122.0
542.37,120.0
542.43,109.0
542.49,81.0
542.56,75.0
542.62,97.0
542.68,89.0
542.74,103.0
542.81,104.0
542.87,86.0
542.93,86.0
543.0,97.0
543.06,97.0
543.12,84.0
543.19,102.0
543.25,93.0
543.31,104.0
543.37,112.0
543.44,108.0
543.5,108.0
543.56,92.0
543.63,93.0
543.69,90.0
543.75,90.0
543.82,103.0
543.88,114.0
543.94,109.0
544.0,122.0
544.07,114.0
544.13,111.0
544.19,100.0
544.26,84.0
544.32,90.0
544.38,81.0
544.45,88.0
544.51,67.0
544.57,91.0
544.63,88.0
544.7,92.0
544.76,93.0
544.82,84.0
544.89,83.0
544.95,94.0
545.01,104.0
545.08,94.0
545.14,88.0
545.2,96.0
545.26,101.0
545.33,89.0
545.39,93.0
545.45,104.0
545.52,104.0
545.58,112.0
545.64,115.0
545.71,126.0
545.77,134.0
545.83,136.0
545.89,151.0
545.96,122.0
546.02,114.0
546.08,133.0
546.15,137.0
546.21,136.0
546.27,122.0
546.34,125.0
546.4,137.0
546.46,145.0
546.52,148.0
546.59,129.0
546.65,123.0
546.71,148.0
546.78,153.0
546.84,120.0
546.9,114.0
546.97,123.0
547.03,122.0
547.09,149.0
547.15,153.0
547.22,151.0
547.28,152.0
547.34,135.0
547.41,146.0
547.47,159.0
547.53,152.0
547.6,177.0
547.66,149.0
547.72,130.0
547.78,139.0
547.85,152.0
547.91,155.0
547.97,138.0
548.04,152.0
548.1,168.0
548.16,171.0
548.23,156.0
548.29,152.0
548.35,157.0
548.41,151.0
548.48,138.0
548.54,153.0
548.6,138.0
548.67,138.0
548.73,158.0
548.79,145.0
548.86,158.0
548.92,142.0
548.98,138.0
549.04,136.0
549.11,123.0
549.17,142.0
549.23,150.0
549.3,146.0
549.36,138.0
549.42,147.0
549.49,144.0
549.55,137.0
549.61,141.0
549.67,147.0
549.74,173.0
549.8,169.0
549.86,173.0
549.93,170.0
549.99,161.0
550.05,153.0
550.12,166.0
550.18,165.0
550.24,155.0
550.3,150.0
550.37,164.0
550.43,152.0
550.49,156.0
550.56,162.0
550.62,161.0
550.68,146.0
550.75,138.0
550.81,145.0
550.87,145.0
550.93,123.0
551.0,125.0
551.06,118.0
551.12,123.0
551.19,128.0
551.25,123.0
551.31,128.0
551.38,120.0
551.44,116.0
551.5,99.0
551.56,113.0
551.63,101.0
551.69,94.0
551.75,83.0
551.82,82.0
551.88,77.0
551.94,81.0
552.01,68.0
552.07,78.0
552.13,82.0
552.19,64.0
552.26,54.0
552.32,57.0
552.38,46.0
552.45,34.0
552.51,42.0
552.57,40.0
552.64,53.0
552.7,28.0
552.76,50.0
552.82,42.0
552.89,51.0
552.95,48.0
553.01,50.0
553.08,38.0
553.14,44.0
553.2,39.0
553.27,12.0
553.33,12.0
553.39,29.0
553.45,18.0
553.52,33.0
553.58,51.0
553.64,49.0
553.71,47.0
553.77,42.0
553.83,48.0
553.9,26.0
553.96,20.0
554.02,33.0
554.08,40.0
554.15,35.0
554.21,33.0
554.27,49.0
554.34,35.0
554.4,42.0
554.46,47.0
554.53,27.0
554.59,32.0
554.65,41.0
554.71,56.0
554.78,36.0
554.84,19.0
554.9,29.0
554.97,25.0
555.03,30.0
555.09,44.0
555.16,45.0
555.22,40.0
555.28,37.0
555.34,26.0
555.41,42.0
555.47,45.0
555.53,45.0
555.6,52.0
555.66,64.0
555.72,70.0
555.79,72.0
555.85,73.0
555.91,61.0
555.97,57.0
556.04,60.0
556.1,50.0
556.16,69.0
556.23,85.0
556.29,63.0
556.35,47.0
556.42,44.0
556.48,42.0
556.54,34.0
556.6,36.0
556.67,54.0
556.73,65.0
556.79,56.0
556.86,47.0
556.92,45.0
556.98,62.0
557.05,58.0
557.11,54.0
557.17,60.0
557.23,70.0
557.3,76.0
557.36,69.0
557.42,62.0
557.49,82.0
557.55,79.0
557.61,92.0
557.68,97.0
557.74,79.0
557.8,83.0
557.86,89.0
557.93,64.0
557.99,76.0
558.05,101.0
558.12,82.0
558.18,95.0
558.24,77.0
558.31,92.0
558.37,79.0
558.43,73.0
558.49,82.0
558.56,68.0
558.62,84.0
558.68,70.0
558.75,75.0
558.81,79.0
558.87,90.0
558.94,93.0
559.0,75.0
559.06,72.0
559.12,76.0
559.19,76.0
559.25,67.0
559.31,71.0
559.38,78.0
559.44,70.0
559.5,73.0
559.57,71.0
559.63,77.0
559.69,72.0
559.75,68.0
559.82,54.0
559.88,56.0
559.94,68.0
560.01,50.0
560.07,68.0
560.13,52.0
560.2,55.0
560.26,53.0
560.32,54.0
560.38,63.0
560.45,75.0
560.51,84.0
560.57,78.0
560.64,78.0
560.7,71.0
560.76,87.0
560.83,80.0
560.89,67.0
560.95,98.0
561.01,89.0
561.08,77.0
561.14,90.0
561.2,100.0
561.27,96.0
561.33,72.0
561.39,75.0
561.46,56.0
561.52,87.0
561.58,92.0
561.64,82.0
561.71,81.0
561.77,59.0
561.83,72.0
561.9,57.0
561.96,87.0
562.02,90.0
562.09,61.0
562.15,67.0
562.21,94.0
562.27,87.0
562.34,94.0
562.4,97.0
562.46,84.0
562.53,94.0
562.59,91.0
562.65,89.0
562.72,90.0
562.78,82.0
562.84,79.0
562.9,100.0
562.97,87.0
563.03,81.0
563.09,89.0
563.16,112.0
563.22,105.0
563.28,108.0
563.35,111.0
563.41,119.0
563.47,130.0
563.53,129.0
563.6,112.0
563.66,117.0
563.72,119.0
563.79,126.0
563.85,138.0
563.91,137.0
563.98,129.0
564.04,118.0
564.1,133.0
564.16,139.0
564.23,139.0
564.29,142.0
564.35,158.0
564.42,139.0
564.48,153.0
564.54,177.0
564.61,149.0
564.67,164.0
564.73,193.0
564.79,191.0
564.86,196.0
564.92,193.0
564.98,198.0
565.05,201.0
565.11,174.0
565.17,194.0
565.24,185.0
565.3,207.0
565.36,227.0
565.42,202.0
565.49,218.0
565.55,217.0
565.61,199.0
565.68,206.0
565.74,214.0
565.8,196.0
565.87,190.0
565.93,203.0
565.99,198.0
566.05,200.0
566.12,207.0
566.18,207.0
566.24,196.0
566.31,204.0
566.37,207.0
566.43,211.0
566.5,215.0
566.56,226.0
566.62,230.0
566.68,235.0
566.75,236.0
566.81,228.0
566.87,225.0
566.94,216.0
567.0,221.0
567.06,231.0
567.13,226.0
567.19,215.0
567.25,229.0
567.31,223.0
567.38,222.0
567.44,212.0
567.5,215.0
567.57,226.0
567.63,225.0
567.69,229.0
567.76,225.0
567.82,206.0
567.88,202.0
567.94,218.0
568.01,192.0
568.07,195.0
568.13,176.0
568.2,177.0
568.26,185.0
568.32,175.0
568.39,166.0
568.45,166.0
568.51,160.0
568.57,164.0
568.64,155.0
568.7,173.0
568.76,156.0
568.83,150.0
568.89,146.0
568.95,155.0
569.02,147.0
569.08,143.0
569.14,159.0
569.2,149.0
569.27,145.0
569.33,135.0
569.39,135.0
569.46,138.0
569.52,134.0
569.58,114.0
569.65,125.0
569.71,133.0
569.77,128.0
569.83,115.0
569.9,110.0
569.96,114.0
570.02,84.0
570.09,101.0
570.15,98.0
570.21,81.0
570.28,90.0
570.34,114.0
570.4,119.0
570.46,116.0
570.53,111.0
570.59,119.0
570.65,113.0
570.72,109.0
570.78,118.0
570.84,113.0
570.91,119.0
570.97,127.0
571.03,119.0
571.09,117.0
571.16,125.0
571.22,115.0
571.28,111.0
571.35,123.0
571.41,103.0
571.47,98.0
571.54,87.0
571.6,95.0
571.66,111.0
571.72,114.0
571.79,112.0
571.85,101.0
571.91,123.0
571.98,117.0
572.04,133.0
572.1,118.0
572.17,124.0
572.23,112.0
572.29,119.0
572.35,128.0
572.42,133.0
572.48,136.0
572.54,106.0
572.61,122.0
572.67,125.0
572.73,131.0
572.8,86.0
572.86,108.0
572.92,106.0
572.98,114.0
573.05,126.0
573.11,123.0
573.17,133.0
573.24,135.0
573.3,145.0
573.36,135.0
573.43,148.0
573.49,148.0
573.55,167.0
573.61,163.0
573.68,175.0
573.74,151.0
573.8,148.0
573.87,154.0
573.93,150.0
573.99,140.0
574.06,137.0
574.12,144.0
574.18,138.0
574.24,125.0
574.31,117.0
574.37,99.0
574.43,117.0
574.5,105.0
574.56,131.0
574.62,104.0
574.69,100.0
574.75,105.0
574.81,106.0
574.87,101.0
574.94,87.0
575.0,101.0
575.06,106.0
575.13,116.0
575.19,92.0
575.25,113.0
575.32,125.0
575.38,112.0
575.44,105.0
575.5,112.0
575.57,116.0
575.63,112.0
575.69,115.0
575.76,97.0
575.82,89.0
575.88,98.0
575.95,118.0
576.01,127.0
576.07,109.0
576.13,124.0
576.2,133.0
576.26,108.0
576.32,95.0
576.39,90.0
576.45,109.0
576.51,92.0
576.58,106.0
576.64,93.0
576.7,105.0
576.76,102.0
576.83,94.0
576.89,104.0
576.95,99.0
577.02,92.0
577.08,111.0
577.14,90.0
577.21,87.0
577.27,89.0
577.33,93.0
577.39,111.0
577.46,107.0
577.52,92.0
577.58,101.0
577.65,100.0
577.71,103.0
577.77,86.0
577.84,86.0
577.9,110.0
577.96,88.0
578.02,92.0
578.09,81.0
578.15,71.0
578.21,57.0
578.28,54.0
578.34,62.0
578.4,53.0
578.47,49.0
578.53,50.0
578.59,74.0
578.65,93.0
578.72,67.0
578.78,75.0
578.84,54.0
578.91,38.0
578.97,45.0
579.03,46.0
579.1,59.0
579.16,35.0
579.22,28.0
579.28,22.0
579.35,35.0
579.41,37.0
579.47,72.0
579.54,53.0
579.6,53.0
579.66,61.0
579.73,60.0
579.79,83.0
579.85,68.0
579.91,81.0
579.98,90.0
580.04,88.0
580.1,78.0
580.17,67.0
580.23,98.0
580.29,97.0
580.36,105.0
580.42,110.0
580.48,101.0
580.54,105.0
580.61,103.0
580.67,103.0
580.73,109.0
580.8,107.0
580.86,116.0
580.92,119.0
580.99,120.0
581.05,132.0
581.11,132.0
581.17,142.0
581.24,134.0
581.3,145.0
581.36,147.0
581.43,124.0
581.49,126.0
581.55,133.0
581.62,126.0
581.68,139.0
581.74,154.0
581.8,159.0
581.87,150.0
581.93,137.0
581.99,131.0
582.06,121.0
582.12,114.0
582.18,137.0
582.25,158.0
582.31,146.0
582.37,142.0
582.43,172.0
582.5,159.0
582.56,160.0
582.62,163.0
582.69,181.0
582.75,199.0
582.81,167.0
582.88,185.0
582.94,199.0
583.0,180.0
583.06,197.0
583.13,181.0
583.19,174.0
583.25,192.0
583.32,178.0
583.38,172.0
583.44,175.0
583.51,182.0
583.57,183.0
583.63,183.0
583.69,181.0
583.76,175.0
583.82,185.0
583.88,173.0
583.95,183.0
584.01,196.0
584.07,204.0
584.14,199.0
584.2,202.0
584.26,188.0
584.32,200.0
584.39,179.0
584.45,156.0
584.51,169.0
584.58,180.0
584.64,183.0
584.7,167.0
584.77,172.0
584.83,171.0
584.89,163.0
584.95,154.0
585.02,162.0
585.08,172.0
585.14,147.0
585.21,151.0
585.27,158.0
585.33,158.0
585.4,150.0
585.46,138.0
585.52,152.0
585.58,163.0
585.65,147.0
585.71,151.0
585.77,136.0
585.84,123.0
585.9,128.0
585.96,124.0
586.03,111.0
586.09,113.0
586.15,88.0
586.21,92.0
586.28,103.0
586.34,108.0
586.4,100.0
586.47,69.0
586.53,100.0
586.59,114.0
586.66,120.0
586.72,102.0
586.78,102.0
586.84,96.0
586.91,82.0
586.97,88.0
587.03,81.0
587.1,83.0
587.16,72.0
587.22,92.0
587.29,81.0
587.35,88.0
587.41,72.0
587.47,70.0
587.54,74.0
587.6,76.0
587.66,87.0
587.73,72.0
587.79,66.0
587.85,70.0
587.92,101.0
587.98,87.0
588.04,82.0
588.1,76.0
588.17,78.0
588.23,78.0
588.29,71.0
588.36,80.0
588.42,83.0
588.48,90.0
588.55,83.0
588.61,75.0
588.67,73.0
588.73,70.0
588.8,85.0
588.86,73.0
588.92,68.0
588.99,81.0
589.05,105.0
589.11,114.0
589.18,91.0
589.24,100.0
589.3,100.0
589.36,101.0
589.43,78.0
589.49,97.0
589.55,100.0
589.62,86.0
589.68,75.0
589.74,64.0
589.81,86.0
589.87,75.0
589.93,62.0
589.99,59.0
590.06,60.0
590.12,64.0
590.18,56.0
590.25,71.0
590.31,66.0
590.37,93.0
590.44,79.0
590.5,79.0
590.56,63.0
590.62,84.0
590.69,79.0
590.75,92.0
590.81,90.0
590.88,89.0
590.94,100.0
591.0,107.0
591.07,84.0
591.13,78.0
591.19,90.0
591.25,100.0
591.32,99.0
591.38,95.0
591.44,114.0
591.51,119.0
591.57,107.0
591.63,120.0
591.7,120.0
591.76,86.0
591.82,94.0
591.88,98.0
591.95,91.0
592.01,117.0
592.07,108.0
592.14,100.0
592.2,104.0
592.26,95.0
592.33,86.0
592.39,102.0
592.45,104.0
592.51,92.0
592.58,98.0
592.64,98.0
592.7,82.0
592.77,98.0
592.83,89.0
592.89,88.0
592.96,110.0
593.02,125.0
593.08,116.0
593.14,112.0
593.21,106.0
593.27,105.0
593.33,124.0
593.4,130.0
593.46,124.0
593.52,115.0
593.59,119.0
593.65,127.0
593.71,125.0
593.77,134.0
593.84,119.0
593.9,136.0
593.96,123.0
594.03,118.0
594.09,132.0
594.15,143.0
594.22,130.0
594.28,124.0
594.34,112.0
594.4,128.0
594.47,101.0
594.53,100.0
594.59,83.0
594.66,94.0
594.72,106.0
594.78,97.0
594.85,95.0
594.91,71.0
594.97,92.0
595.03,94.0
595.1,89.0
595.16,69.0
595.22,72.0
595.29,60.0
595.35,71.0
595.41,84.0
595.48,62.0
595.54,78.0
595.6,80.0
595.66,88.0
595.73,70.0
595.79,59.0
595.85,62.0
595.92,59.0
595.98,46.0
596.04,45.0
596.11,61.0
596.17,73.0
596.23,89.0
596.29,99.0
596.36,68.0
596.42,90.0
596.48,95.0
596.55,88.0
596.61,97.0
596.67,97.0
596.74,104.0
596.8,100.0
596.86,111.0
596.92,103.0
596.99,103.0
597.05,98.0
597.11,122.0
597.18,106.0
597.24,134.0
597.3,134.0
597.37,115.0
597.43,120.0
597.49,120.0
597.55,126.0
597.62,128.0
597.68,134.0
597.74,132.0
597.81,133.0
597.87,129.0
597.93,147.0
598.0,155.0
598.06,150.0
598.12,168.0
598.18,151.0
598.25,161.0
598.31,153.0
598.37,130.0
598.44,129.0
598.5,127.0
598.56,122.0
598.63,141.0
598.69,140.0
598.75,138.0
598.81,152.0
598.88,170.0
598.94,167.0
599.0,176.0
599.07,163.0
599.13,147.0
599.19,154.0
599.26,158.0
599.32,173.0
599.38,163.0
599.44,153.0
599.51,163.0
599.57,172.0
599.63,175.0
599.7,177.0
599.76,152.0
599.82,146.0
599.89,151.0
599.95,160.0
600.01,163.0
600.07,163.0
600.14,139.0
600.2,148.0
600.26,163.0
600.33,147.0
600.39,165.0
600.45,137.0
600.52,149.0
600.58,143.0
600.64,145.0
600.7,157.0
600.77,151.0
600.83,152.0
600.89,152.0
600.96,140.0
601.02,129.0
601.08,144.0
601.15,133.0
601.21,128.0
601.27,139.0
601.33,156.0
601.4,156.0
601.46,136.0
601.52,154.0
601.59,145.0
601.65,143.0
601.71,129.0
601.78,126.0
601.84,131.0
601.9,114.0
601.96,134.0
602.03,119.0
602.09,120.0
602.15,112.0
602.22,105.0
602.28,97.0
602.34,97.0
602.41,99.0
602.47,88.0
602.53,114.0
602.59,132.0
602.66,135.0
602.72,116.0
602.78,92.0
602.85,111.0
602.91,91.0
602.97,97.0
603.04,82.0
603.1,71.0
603.16,75.0
603.22,75.0
603.29,58.0
603.35,41.0
603.41,68.0
603.48,59.0
603.54,57.0
603.6,55.0
603.67,48.0
603.73,53.0
603.79,57.0
603.85,58.0
603.92,46.0
603.98,61.0
604.04,45.0
604.11,52.0
604.17,48.0
604.23,52.0
604.3,27.0
604.36,24.0
604.42,40.0
604.48,49.0
604.55,65.0
604.61,53.0
604.67,78.0
604.74,55.0
604.8,46.0
604.86,71.0
604.93,56.0
604.99,69.0
605.05,56.0
605.11,71.0
605.18,70.0
605.24,61.0
605.3,33.0
605.37,30.0
605.43,35.0
605.49,58.0
605.56,64.0
605.62,58.0
605.68,46.0
605.74,45.0
605.81,39.0
605.87,32.0
605.93,54.0
606.0,40.0
606.06,43.0
606.12,64.0
606.19,43.0
606.25,38.0
606.31,48.0
606.37,40.0
606.44,59.0
606.5,35.0
606.56,31.0
606.63,33.0
606.69,50.0
606.75,60.0
606.82,62.0
606.88,53.0
606.94,46.0
607.0,54.0
607.07,36.0
607.13,44.0
607.19,47.0
607.26,49.0
607.32,40.0
607.38,47.0
607.45,60.0
607.51,69.0
607.57,58.0
607.63,31.0
607.7,53.0
607.76,44.0
607.82,31.0
607.89,26.0
607.95,30.0
608.01,31.0
608.08,38.0
608.14,38.0
608.2,30.0
608.26,23.0
608.33,18.0
608.39,30.0
608.45,32.0
608.52,10.0
608.58,29.0
608.64,30.0
608.71,21.0
608.77,18.0
608.83,26.0
608.89,46.0
608.96,25.0
609.02,34.0
609.08,30.0
609.15,17.0
609.21,31.0
609.27,40.0
609.34,48.0
609.4,62.0
609.46,70.0
609.52,57.0
609.59,62.0
609.65,69.0
609.71,63.0
609.78,68.0
609.84,55.0
609.9,61.0
609.97,57.0
610.03,62.0
610.09,78.0
610.15,50.0
610.22,47.0
610.28,17.0
610.34,27.0
610.41,55.0
610.47,35.0
610.53,24.0
610.6,35.0
610.66,42.0
610.72,49.0
610.78,51.0
610.85,42.0
610.91,45.0
610.97,51.0
611.04,38.0
611.1,35.0
611.16,35.0
611.23,61.0
611.29,46.0
611.35,44.0
611.41,28.0
611.48,28.0
611.54,42.0
611.6,41.0
611.67,35.0
611.73,29.0
611.79,24.0
611.86,31.0
611.92,53.0
611.98,26.0
612.04,9.0
612.11,24.0
612.17,31.0
612.23,38.0
612.3,35.0
612.36,42.0
612.42,52.0
612.49,60.0
612.55,32.0
612.61,34.0
612.67,59.0
612.74,67.0
612.8,65.0
612.86,49.0
612.93,61.0
612.99,58.0
613.05,67.0
613.12,71.0
613.18,64.0
613.24,92.0
613.3,86.0
613.37,85.0
613.43,80.0
613.49,111.0
613.56,106.0
613.62,101.0
613.68,114.0
613.75,133.0
613.81,118.0
613.87,116.0
613.93,129.0
614.0,129.0
614.06,127.0
614.12,121.0
614.19,141.0
614.25,129.0
614.31,134.0
614.38,133.0
614.44,123.0
614.5,126.0
614.56,121.0
614.63,147.0
614.69,149.0
614.75,155.0
614.82,153.0
614.88,144.0
614.94,143.0
615.01,152.0
615.07,161.0
615.13,169.0
615.19,147.0
615.26,149.0
615.32,167.0
615.38,150.0
615.45,156.0
615.51,155.0
615.57,172.0
615.64,149.0
615.7,152.0
615.76,135.0
615.82,145.0
615.89,147.0
615.95,142.0
616.01,129.0
616.08,141.0
616.14,155.0
616.2,186.0
616.27,183.0
616.33,183.0
616.39,167.0
616.45,171.0
616.52,171.0
616.58,166.0
616.64,177.0
616.71,185.0
616.77,164.0
616.83,182.0
616.9,189.0
616.96,196.0
617.02,207.0
617.08,213.0
617.15,209.0
617.21,214.0
617.27,189.0
617.34,189.0
617.4,191.0
617.46,214.0
617.53,197.0
617.59,185.0
617.65,186.0
617.71,181.0
617.78,194.0
617.84,168.0
617.9,196.0
617.97,187.0
618.03,172.0
618.09,180.0
618.16,182.0
618.22,178.0
618.28,173.0
618.34,166.0
618.41,170.0
618.47,144.0
618.53,157.0
618.6,152.0
618.66,175.0
618.72,181.0
618.79,145.0
618.85,141.0
618.91,141.0
618.97,158.0
619.04,150.0
619.1,162.0
619.16,131.0
619.23,147.0
619.29,154.0
619.35,149.0
619.42,150.0
619.48,135.0
619.54,146.0
619.6,151.0
619.67,144.0
619.73,145.0
619.79,161.0
619.86,132.0
619.92,140.0
619.98,138.0
620.05,141.0
620.11,121.0
620.17,127.0
620.23,126.0
620.3,149.0
620.36,156.0
620.42,161.0
620.49,160.0
620.55,142.0
620.61,169.0
620.68,170.0
620.74,168.0
620.8,148.0
620.86,132.0
620.93,124.0
620.99,136.0
621.05,160.0
621.12,146.0
621.18,159.0
621.24,137.0
621.31,150.0
621.37,141.0
621.43,134.0
621.49,147.0
621.56,138.0
621.62,164.0
621.68,146.0
621.75,128.0
621.81,121.0
621.87,134.0
621.94,137.0
622.0,128.0
622.06,135.0
622.12,100.0
622.19,128.0
622.25,138.0
622.31,131.0
622.38,151.0
622.44,147.0
622.5,133.0
622.57,118.0
622.63,133.0
622.69,150.0
622.75,152.0
622.82,133.0
622.88,112.0
622.94,120.0
623.01,139.0
623.07,124.0
623.13,117.0
623.2,132.0
623.26,133.0
623.32,131.0
623.38,134.0
623.45,145.0
623.51,148.0
623.57,152.0
623.64,149.0
623.7,134.0
623.76,141.0
623.83,159.0
623.89,142.0
623.95,136.0
624.01,157.0
624.08,134.0
624.14,137.0
624.2,160.0
624.27,150.0
624.33,150.0
624.39,149.0
624.46,149.0
624.52,125.0
624.58,130.0
624.64,138.0
624.71,131.0
624.77,124.0
624.83,105.0
624.9,110.0
624.96,109.0
625.02,105.0
625.09,95.0
625.15,93.0
625.21,102.0
625.27,124.0
625.34,118.0
625.4,100.0
625.46,102.0
625.53,119.0
625.59,119.0
625.65,95.0
625.72,109.0
625.78,94.0
625.84,92.0
625.9,90.0
625.97,85.0
626.03,114.0
626.09,114.0
626.16,113.0
626.22,89.0
626.28,104.0
626.35,98.0
626.41,93.0
626.47,111.0
626.53,93.0
626.6,110.0
626.66,95.0
626.72,94.0
626.79,104.0
626.85,98.0
626.91,113.0
626.98,102.0
627.04,98.0
627.1,86.0
627.16,108.0
627.23,106.0
627.29,120.0
627.35,99.0
627.42,111.0
627.48,116.0
627.54,108.0
627.61,117.0
627.67,110.0
627.73,85.0
627.79,79.0
627.86,112.0
627.92,98.0
627.98,104.0
628.05,109.0
628.11,95.0
628.17,92.0
628.24,101.0
628.3,102.0
628.36,106.0
628.42,94.0
628.49,103.0
628.55,100.0
628.61,79.0
628.68,83.0
628.74,74.0
628.8,85.0
628.87,96.0
628.93,98.0
628.99,91.0
629.05,90.0
629.12,66.0
629.18,70.0
629.24,64.0
629.31,64.0
629.37,61.0
629.43,56.0
629.5,40.0
629.56,61.0
629.62,46.0
629.68,60.0
629.75,62.0
629.81,60.0
629.87,49.0
629.94,43.0
630.0,26.0
630.06,16.0
630.13,43.0
630.19,25.0
630.25,48.0
630.31,47.0
630.38,67.0
630.44,59.0
630.5,61.0
630.57,82.0
630.63,92.0
630.69,99.0
630.76,79.0
630.82,101.0
630.88,87.0
630.94,95.0
631.01,92.0
631.07,105.0
631.13,101.0
631.2,96.0
631.26,89.0
631.32,106.0
631.39,108.0
631.45,117.0
631.51,100.0
631.57,120.0
631.64,118.0
631.7,106.0
631.76,115.0
631.83,123.0
631.89,86.0
631.95,111.0
632.02,122.0
632.08,124.0
632.14,113.0
632.2,108.0
632.27,128.0
632.33,112.0
632.39,116.0
632.46,123.0
632.52,101.0
632.58,111.0
632.65,137.0
632.71,139.0
632.77,117.0
632.83,101.0
632.9,133.0
632.96,133.0
633.02,127.0
633.09,101.0
633.15,109.0
633.21,133.0
633.28,131.0
633.34,143.0
633.4,135.0
633.46,153.0
633.53,176.0
633.59,161.0
633.65,169.0
633.72,162.0
633.78,155.0
633.84,152.0
633.91,143.0
633.97,150.0
634.03,149.0
634.09,157.0
634.16,143.0
634.22,148.0
634.28,140.0
634.35,130.0
634.41,154.0
634.47,145.0
634.54,163.0
634.6,149.0
634.66,152.0
634.72,149.0
634.79,150.0
634.85,155.0
634.91,134.0
634.98,152.0
635.04,157.0
635.1,141.0
635.17,141.0
635.23,138.0
635.29,139.0
635.35,158.0
635.42,170.0
635.48,147.0
635.54,138.0
635.61,133.0
635.67,116.0
635.73,118.0
635.8,103.0
635.86,101.0
635.92,127.0
635.98,96.0
636.05,83.0
636.11,80.0
636.17,73.0
636.24,82.0
636.3,81.0
636.36,94.0
636.43,106.0
636.49,94.0
636.55,91.0
636.61,75.0
636.68,93.0
636.74,114.0
636.8,88.0
636.87,98.0
636.93,106.0
636.99,118.0
637.06,117.0
637.12,127.0
637.18,110.0
637.24,114.0
637.31,127.0
637.37,108.0
637.43,102.0
637.5,86.0
637.56,100.0
637.62,98.0
637.69,94.0
637.75,120.0
637.81,93.0
637.87,87.0
637.94,86.0
638.0,108.0
638.06,119.0
638.13,123.0
638.19,97.0
638.25,102.0
638.32,129.0
638.38,145.0
638.44,111.0
638.5,149.0
638.57,156.0
638.63,150.0
638.69,136.0
638.76,144.0
638.82,149.0
638.88,143.0
638.95,140.0
639.01,144.0
639.07,144.0
639.13,136.0
639.2,139.0
639.26,139.0
639.32,149.0
639.39,136.0
639.45,143.0
639.51,145.0
639.58,139.0
639.64,154.0
639.7,175.0
639.76,174.0
639.83,181.0
639.89,171.0
639.95,148.0
640.02,147.0
640.08,134.0
640.14,151.0
640.21,162.0
640.27,158.0
640.33,142.0
640.39,128.0
640.46,132.0
640.52,128.0
640.58,130.0
640.65,122.0
640.71,134.0
640.77,135.0
640.84,125.0
640.9,139.0
640.96,161.0
641.02,141.0
641.09,140.0
641.15,132.0
641.21,113.0
641.28,124.0
641.34,134.0
641.4,134.0
641.47,144.0
641.53,134.0
641.59,128.0
641.65,129.0
641.72,143.0
641.78,130.0
641.84,132.0
641.91,160.0
641.97,143.0
642.03,140.0
642.1,125.0
642.16,127.0
642.22,130.0
642.28,147.0
642.35,146.0
642.41,113.0
642.47,113.0
642.54,125.0
642.6,132.0
642.66,123.0
642.73,149.0
642.79,126.0
642.85,128.0
642.91,125.0
642.98,131.0
643.04,139.0
643.1,129.0
643.17,139.0
643.23,136.0
643.29,139.0
643.36,135.0
643.42,124.0
643.48,119.0
643.54,136.0
643.61,133.0
643.67,115.0
643.73,120.0
643.8,130.0
643.86,121.0
643.92,123.0
643.99,112.0
644.05,120.0
644.11,125.0
644.17,117.0
644.24,123.0
644.3,120.0
644.36,124.0
644.43,98.0
644.49,109.0
644.55,91.0
644.62,112.0
644.68,108.0
644.74,101.0
644.8,111.0
644.87,103.0
644.93,96.0
644.99,59.0
645.06,90.0
645.12,85.0
645.18,85.0
645.25,73.0
645.31,84.0
645.37,103.0
645.43,95.0
645.5,87.0
645.56,77.0
645.62,79.0
645.69,89.0
645.75,93.0
645.81,83.0
645.88,67.0
645.94,75.0
646.0,63.0
646.06,71.0
646.13,66.0
646.19,67.0
646.25,66.0
646.32,62.0
646.38,64.0
646.44,88.0
646.51,90.0
646.57,77.0
646.63,84.0
646.69,75.0
646.76,92.0
646.82,80.0
646.88,72.0
646.95,105.0
647.01,92.0
647.07,86.0
647.14,84.0
647.2,106.0
647.26,115.0
647.32,123.0
647.39,124.0
647.45,122.0
647.51,114.0
647.58,123.0
647.64,124.0
647.7,120.0
647.77,138.0
647.83,142.0
647.89,152.0
647.95,142.0
648.02,133.0
648.08,133.0
648.14,147.0
648.21,153.0
648.27,135.0
648.33,145.0
648.4,147.0
648.46,144.0
648.52,151.0
648.58,168.0
648.65,151.0
648.71,154.0
648.77,161.0
648.84,151.0
648.9,155.0
648.96,153.0
649.03,137.0
649.09,145.0
649.15,156.0
649.21,152.0
649.28,158.0
649.34,170.0
649.4,158.0
649.47,151.0
649.53,153.0
649.59,147.0
649.66,164.0
649.72,150.0
649.78,168.0
649.84,163.0
649.91,146.0
649.97,150.0
650.03,149.0
650.1,161.0
650.16,166.0
650.22,147.0
650.29,147.0
650.35,152.0
650.41,180.0
650.47,176.0
650.54,177.0
650.6,193.0
650.66,204.0
650.73,201.0
650.79,190.0
650.85,205.0
650.92,215.0
650.98,202.0
651.04,192.0
651.1,199.0
651.17,186.0
651.23,172.0
651.29,183.0
651.36,175.0
651.42,178.0
651.48,168.0
651.55,163.0
651.61,166.0
651.67,171.0
651.73,143.0
651.8,150.0
651.86,139.0
651.92,145.0
651.99,140.0
652.05,139.0
652.11,160.0
652.18,137.0
652.24,133.0
652.3,130.0
652.36,110.0
652.43,92.0
652.49,105.0
652.55,94.0
652.62,98.0
652.68,89.0
652.74,97.0
652.81,119.0
652.87,112.0
652.93,102.0
652.99,85.0
653.06,86.0
653.12,95.0
653.18,100.0
653.25,99.0
653.31,102.0
653.37,85.0
653.44,90.0
653.5,93.0
653.56,98.0
653.62,117.0
653.69,79.0
653.75,81.0
653.81,83.0
653.88,92.0
653.94,101.0
654.0,106.0
654.07,98.0
654.13,90.0
654.19,90.0
654.25,92.0
654.32,93.0
654.38,78.0
654.44,74.0
654.51,67.0
654.57,91.0
654.63,82.0
654.7,98.0
654.76,100.0
654.82,83.0
654.88,78.0
654.95,90.0
655.01,93.0
655.07,97.0
655.14,97.0
655.2,63.0
655.26,68.0
655.33,78.0
655.39,86.0
655.45,84.0
655.51,85.0
655.58,94.0
655.64,102.0
655.7,91.0
655.77,75.0
655.83,84.0
655.89,89.0
655.96,103.0
656.02,82.0
656.08,88.0
656.14,95.0
656.21,83.0
656.27,96.0
656.33,79.0
656.4,90.0
656.46,82.0
656.52,64.0
656.59,77.0
656.65,75.0
656.71,97.0
656.77,77.0
656.84,75.0
656.9,79.0
656.96,72.0
657.03,89.0
657.09,77.0
657.15,61.0
657.22,61.0
657.28,73.0
657.34,60.0
657.4,51.0
657.47,53.0
657.53,70.0
657.59,46.0
657.66,42.0
657.72,42.0
657.78,50.0
657.85,57.0
657.91,48.0
657.97,67.0
658.03,67.0
658.1,66.0
658.16,58.0
658.22,60.0
658.29,73.0
658.35,70.0
658.41,55.0
658.48,48.0
658.54,57.0
658.6,63.0
658.66,45.0
658.73,42.0
658.79,53.0
658.85,56.0
658.92,64.0
658.98,51.0
659.04,62.0
659.11,53.0
659.17,51.0
659.23,32.0
659.29,38.0
659.36,42.0
659.42,41.0
659.48,39.0
659.55,57.0
659.61,68.0
659.67,50.0
659.74,68.0
659.8,69.0
659.86,62.0
659.92,62.0
659.99,71.0
660.05,77.0
660.11,63.0
660.18,57.0
660.24,62.0
660.3,60.0
660.37,76.0
660.43,52.0
660.49,43.0
660.55,48.0
660.62,46.0
660.68,30.0
660.74,27.0
660.81,48.0
660.87,45.0
660.93,28.0
661.0,39.0
661.06,56.0
661.12,44.0
661.18,53.0
661.25,44.0
661.31,61.0
661.37,62.0
661.44,67.0
661.5,68.0
661.56,70.0
661.63,39.0
661.69,40.0
661.75,30.0
661.81,46.0
661.88,25.0
661.94,4.0
662.0,41.0
662.07,49.0
662.13,37.0
662.19,39.0
662.26,42.0
662.32,48.0
662.38,41.0
662.44,68.0
662.51,57.0
662.57,42.0
662.63,48.0
662.7,56.0
662.76,75.0
662.82,59.0
662.89,52.0
662.95,63.0
663.01,75.0
663.07,50.0
663.14,28.0
663.2,51.0
663.26,49.0
663.33,42.0
663.39,35.0
663.45,26.0
663.52,59.0
663.58,76.0
663.64,62.0
663.7,66.0
663.77,89.0
663.83,88.0
663.89,88.0
663.96,97.0
664.02,94.0
664.08,87.0
664.15,108.0
664.21,110.0
664.27,101.0
664.33,108.0
664.4,100.0
664.46,130.0
664.52,119.0
664.59,114.0
664.65,117.0
664.71,125.0
664.78,136.0
664.84,130.0
664.9,136.0
664.96,133.0
665.03,146.0
665.09,155.0
665.15,161.0
665.22,161.0
665.28,164.0
665.34,178.0
665.41,180.0
665.47,192.0
665.53,193.0
665.59,190.0
665.66,203.0
665.72,192.0
665.78,208.0
665.85,180.0
665.91,167.0
665.97,180.0
666.04,211.0
666.1,233.0
666.16,225.0
666.22,235.0
666.29,233.0
666.35,229.0
666.41,227.0
666.48,204.0
666.54,221.0
666.6,230.0
666.67,232.0
666.73,230.0
666.79,224.0
666.85,229.0
666.92,226.0
666.98,222.0
667.04,233.0
667.11,225.0
667.17,219.0
667.23,214.0
667.3,238.0
667.36,233.0
667.42,234.0
667.48,240.0
667.55,238.0
667.61,240.0
667.67,250.0
667.74,255.0
667.8,243.0
667.86,222.0
667.93,243.0
667.99,230.0
668.05,223.0
668.11,244.0
668.18,241.0
668.24,222.0
668.3,217.0
668.37,229.0
668.43,211.0
668.49,211.0
668.56,212.0
668.62,212.0
668.68,214.0
668.74,224.0
668.81,207.0
668.87,198.0
668.93,193.0
669.0,191.0
669.06,211.0
669.12,216.0
669.19,224.0
669.25,214.0
669.31,200.0
669.37,221.0
669.44,226.0
669.5,235.0
669.56,210.0
669.63,204.0
669.69,218.0
669.75,205.0
669.82,193.0
669.88,207.0
669.94,224.0
670.0,219.0
670.07,215.0
670.13,211.0
670.19,205.0
670.26,205.0
670.32,184.0
670.38,188.0
670.45,179.0
670.51,185.0
670.57,193.0
670.63,173.0
670.7,164.0
670.76,174.0
670.82,166.0
670.89,173.0
670.95,163.0
671.01,159.0
671.08,147.0
671.14,129.0
671.2,141.0
671.26,141.0
671.33,138.0
671.39,143.0
671.45,155.0
671.52,143.0
671.58,152.0
671.64,149.0
671.71,125.0
671.77,132.0
671.83,131.0
671.89,140.0
671.96,138.0
672.02,155.0
672.08,155.0
672.15,145.0
672.21,144.0
672.27,134.0
672.34,152.0
672.4,148.0
672.46,132.0
672.52,133.0
672.59,152.0
672.65,150.0
672.71,136.0
672.78,103.0
672.84,114.0
672.9,117.0
672.97,129.0
673.03,123.0
673.09,116.0
673.15,116.0
673.22,115.0
673.28,117.0
673.34,115.0
673.41,117.0
673.47,130.0
673.53,108.0
673.6,121.0
673.66,123.0
673.72,117.0
673.78,112.0
673.85,101.0
673.91,92.0
673.97,100.0
674.04,102.0
674.1,124.0
674.16,118.0
674.23,116.0
674.29,111.0
674.35,103.0
674.41,120.0
674.48,101.0
674.54,96.0
674.6,95.0
674.67,95.0
674.73,96.0
674.79,82.0
674.86,98.0
674.92,97.0
674.98,68.0
675.04,89.0
675.11,63.0
675.17,53.0
675.23,56.0
675.3,56.0
675.36,67.0
675.42,62.0
675.49,75.0
675.55,75.0
675.61,68.0
675.67,71.0
675.74,67.0
675.8,82.0
675.86,97.0
675.93,88.0
675.99,91.0
676.05,73.0
676.12,94.0
676.18,99.0
676.24,102.0
676.3,90.0
676.37,97.0
676.43,97.0
676.49,78.0
676.56,73.0
676.62,103.0
676.68,90.0
676.75,86.0
676.81,98.0
676.87,100.0
676.93,100.0
677.0,101.0
677.06,80.0
677.12,84.0
677.19,104.0
677.25,89.0
677.31,87.0
677.38,87.0
677.44,80.0
677.5,80.0
677.56,68.0
677.63,67.0
677.69,77.0
677.75,71.0
677.82,64.0
677.88,65.0
677.94,46.0
678.01,65.0
678.07,48.0
678.13,37.0
678.19,51.0
678.26,49.0
678.32,34.0
678.38,40.0
678.45,50.0
678.51,56.0
678.57,46.0
678.64,35.0
678.7,37.0
678.76,35.0
678.82,36.0
678.89,17.0
678.95,9.0
679.01,2.0
679.08,8.0
679.14,-1.0
679.2,16.0
679.27,10.0
679.33,-4.0
679.39,3.0
679.45,8.0
679.52,12.0
679.58,15.0
679.64,4.0
679.71,34.0
679.77,13.0
679.83,27.0
679.9,34.0
679.96,-2.0
680.02,29.0
680.08,28.0
680.15,45.0
680.21,57.0
680.27,56.0
680.34,79.0
680.4,75.0
680.46,63.0
680.53,60.0
680.59,59.0
680.65,69.0
680.71,48.0
680.78,55.0
680.84,56.0
680.9,59.0
680.97,64.0
681.03,58.0
681.09,68.0
681.16,75.0
681.22,84.0
681.28,98.0
681.34,95.0
681.41,88.0
681.47,77.0
681.53,74.0
681.6,88.0
681.66,76.0
681.72,80.0
681.79,80.0
681.85,99.0
681.91,105.0
681.97,96.0
682.04,96.0
682.1,76.0
682.16,83.0
682.23,76.0
682.29,99.0
682.35,89.0
682.42,97.0
682.48,106.0
682.54,112.0
682.6,98.0
682.67,99.0
682.73,117.0
682.79,97.0
682.86,106.0
682.92,100.0
682.98,91.0
683.05,103.0
683.11,124.0
683.17,103.0
683.23,95.0
683.3,84.0
683.36,88.0
683.42,107.0
683.49,97.0
683.55,105.0
683.61,117.0
683.68,141.0
683.74,142.0
683.8,152.0
683.86,142.0
683.93,142.0
683.99,163.0
684.05,150.0
684.12,129.0
684.18,131.0
684.24,149.0
684.31,153.0
684.37,152.0
684.43,142.0
684.49,133.0
684.56,141.0
684.62,141.0
684.68,145.0
684.75,144.0
684.81,146.0
684.87,140.0
684.94,136.0
685.0,129.0
685.06,150.0
685.12,144.0
685.19,126.0
685.25,141.0
685.31,146.0
685.38,151.0
685.44,137.0
685.5,158.0
685.57,168.0
685.63,162.0
685.69,167.0
685.75,164.0
685.82,149.0
685.88,176.0
685.94,172.0
686.01,172.0
686.07,172.0
686.13,157.0
686.2,150.0
686.26,151.0
686.32,132.0
686.38,136.0
686.45,138.0
686.51,134.0
686.57,140.0
686.64,153.0
686.7,142.0
686.76,124.0
686.83,118.0
686.89,137.0
686.95,133.0
687.01,122.0
687.08,129.0
687.14,120.0
687.2,106.0
687.27,104.0
687.33,83.0
687.39,85.0
687.46,106.0
687.52,101.0
687.58,101.0
687.64,110.0
687.71,109.0
687.77,99.0
687.83,115.0
687.9,100.0
687.96,103.0
688.02,102.0
688.09,94.0
688.15,104.0
688.21,110.0
688.27,107.0
688.34,95.0
688.4,101.0
688.46,121.0
688.53,107.0
688.59,107.0
688.65,120.0
688.72,128.0
688.78,137.0
688.84,113.0
688.9,137.0
688.97,126.0
689.03,114.0
689.09,127.0
689.16,109.0
689.22,109.0
689.28,116.0
689.35,125.0
689.41,125.0
689.47,135.0
689.53,120.0
689.6,106.0
689.66,110.0
689.72,134.0
689.79,135.0
689.85,122.0
689.91,122.0
689.98,112.0
690.04,124.0
690.1,116.0
690.16,106.0
690.23,101.0
690.29,129.0
690.35,128.0
690.42,119.0
690.48,120.0
690.54,134.0
690.61,117.0
690.67,113.0
690.73,123.0
690.79,117.0
690.86,115.0
690.92,120.0
690.98,116.0
691.05,119.0
691.11,119.0
691.17,121.0
691.24,128.0
691.3,128.0
691.36,117.0
691.42,132.0
691.49,118.0
691.55,125.0
691.61,119.0
691.68,120.0
691.74,111.0
691.8,114.0
691.87,132.0
691.93,137.0
691.99,129.0
692.05,138.0
692.12,146.0
692.18,155.0
692.24,143.0
692.31,126.0
692.37,122.0
692.43,114.0
692.5,115.0
692.56,100.0
692.62,128.0
692.68,130.0
692.75,110.0
692.81,123.0
692.87,132.0
692.94,106.0
693.0,103.0
693.06,109.0
693.13,95.0
693.19,103.0
693.25,115.0
693.31,111.0
693.38,115.0
693.44,104.0
693.5,122.0
693.57,115.0
693.63,109.0
693.69,113.0
693.76,116.0
693.82,113.0
693.88,103.0
693.94,101.0
694.01,123.0
694.07,121.0
694.13,94.0
694.2,87.0
694.26,111.0
694.32,88.0
694.39,83.0
694.45,96.0
694.51,84.0
694.57,68.0
694.64,89.0
694.7,86.0
694.76,83.0
694.83,70.0
694.89,68.0
694.95,79.0
695.02,73.0
695.08,72.0
695.14,66.0
695.2,65.0
695.27,66.0
695.33,68.0
695.39,70.0
695.46,84.0
695.52,75.0
695.58,62.0
695.65,72.0
695.71,70.0
695.77,66.0
695.83,51.0
695.9,43.0
695.96,19.0
696.02,40.0
696.09,21.0
696.15,15.0
696.21,7.0
696.28,16.0
696.34,24.0
696.4,28.0
696.46,34.0
696.53,22.0
696.59,27.0
696.65,24.0
696.72,29.0
696.78,3.0
696.84,8.0
696.91,39.0
696.97,22.0
697.03,9.0
697.09,14.0
697.16,15.0
697.22,36.0
697.28,37.0
697.35,23.0
697.41,36.0
697.47,29.0
697.54,24.0
697.6,32.0
697.66,23.0
697.72,29.0
697.79,41.0
697.85,37.0
697.91,18.0
697.98,36.0
698.04,40.0
698.1,44.0
698.17,55.0
698.23,53.0
698.29,61.0
698.35,55.0
698.42,59.0
698.48,53.0
698.54,41.0
698.61,48.0
698.67,47.0
698.73,51.0
698.8,64.0
698.86,87.0
698.92,81.0
698.98,83.0
699.05,69.0
699.11,90.0
699.17,77.0
699.24,92.0
699.3,95.0
699.36,103.0
699.43,102.0
699.49,95.0
699.55,117.0
699.61,130.0
699.68,123.0
699.74,116.0
699.8,101.0
699.87,125.0
699.93,142.0
699.99,122.0
700.06,114.0
700.12,115.0
700.18,121.0
700.24,118.0
700.31,142.0
700.37,133.0
700.43,133.0
700.5,126.0
700.56,125.0
700.62,137.0
700.69,109.0
700.75,108.0
700.81,108.0
700.87,123.0
700.94,131.0
701.0,118.0
701.06,150.0
701.13,137.0
701.19,142.0
701.25,136.0
701.32,132.0
701.38,125.0
701.44,117.0
701.5,120.0
701.57,139.0
701.63,146.0
701.69,143.0
701.76,155.0
701.82,146.0
701.88,189.0
701.95,186.0
702.01,176.0
702.07,168.0
702.13,179.0
702.2,175.0
702.26,173.0
702.32,159.0
702.39,151.0
702.45,158.0
702.51,149.0
702.58,156.0
702.64,159.0
702.7,150.0
702.76,150.0
702.83,160.0
702.89,146.0
702.95,158.0
703.02,162.0
703.08,173.0
703.14,183.0
703.21,176.0
703.27,161.0
703.33,181.0
703.39,167.0
703.46,153.0
703.52,144.0
703.58,151.0
703.65,156.0
703.71,142.0
703.77,169.0
703.84,164.0
703.9,167.0
703.96,150.0
704.02,151.0
704.09,176.0
704.15,164.0
704.21,133.0
704.28,141.0
704.34,147.0
704.4,129.0
704.47,146.0
704.53,142.0
704.59,124.0
704.65,122.0
704.72,123.0
704.78,133.0
704.84,116.0
704.91,128.0
704.97,122.0
705.03,133.0
705.1,106.0
705.16,102.0
705.22,119.0
705.28,122.0
705.35,132.0
705.41,140.0
705.47,159.0
705.54,157.0
705.6,162.0
705.66,175.0
705.73,161.0
705.79,166.0
705.85,171.0
705.91,174.0
705.98,187.0
706.04,175.0
706.1,173.0
706.17,150.0
706.23,167.0
706.29,163.0
706.36,176.0
706.42,166.0
706.48,149.0
706.54,150.0
706.61,144.0
706.67,143.0
706.73,145.0
706.8,141.0
706.86,148.0
706.92,151.0
706.99,155.0
707.05,143.0
707.11,152.0
707.17,146.0
707.24,153.0
707.3,142.0
707.36,123.0
707.43,123.0
707.49,121.0
707.55,125.0
707.62,144.0
707.68,134.0
707.74,127.0
707.8,110.0
707.87,97.0
707.93,106.0
707.99,114.0
708.06,123.0
708.12,112.0
708.18,108.0
708.25,86.0
708.31,99.0
708.37,99.0
708.43,92.0
708.5,78.0
708.56,82.0
708.62,108.0
708.69,95.0
708.75,91.0
708.81,85.0
708.88,77.0
708.94,85.0
709.0,86.0
709.06,98.0
709.13,88.0
709.19,82.0
709.25,71.0
709.32,93.0
709.38,88.0
709.44,103.0
709.51,99.0
709.57,102.0
709.63,82.0
709.69,95.0
709.76,98.0
709.82,77.0
709.88,78.0
709.95,63.0
710.01,94.0
710.07,84.0
710.14,76.0
710.2,79.0
710.26,81.0
710.32,88.0
710.39,65.0
710.45,71.0
710.51,59.0
710.58,56.0
710.64,51.0
710.7,54.0
710.77,59.0
710.83,67.0
710.89,44.0
710.95,46.0
711.02,77.0
711.08,72.0
711.14,68.0
711.21,62.0
711.27,55.0
711.33,53.0
711.4,53.0
711.46,58.0
711.52,58.0
711.58,57.0
711.65,56.0
711.71,61.0
711.77,54.0
711.84,68.0
711.9,74.0
711.96,71.0
712.03,57.0
712.09,69.0
712.15,36.0
712.21,24.0
712.28,45.0
712.34,41.0
712.4,28.0
712.47,22.0
712.53,15.0
712.59,18.0
712.66,17.0
712.72,37.0
712.78,39.0
712.84,7.0
712.91,5.0
712.97,8.0
713.03,23.0
713.1,-23.0
713.16,-5.0
713.22,-19.0
713.29,-22.0
713.35,-20.0
713.41,-21.0
713.47,-12.0
713.54,5.0
713.6,0.0
713.66,17.0
713.73,3.0
713.79,7.0
713.85,23.0
713.92,18.0
713.98,18.0
714.04,-5.0
714.1,24.0
714.17,9.0
714.23,20.0
714.29,36.0
714.36,46.0
714.42,48.0
714.48,21.0
714.55,47.0
714.61,71.0
714.67,49.0
714.73,45.0
714.8,54.0
714.86,77.0
714.92,53.0
714.99,55.0
715.05,57.0
715.11,55.0
715.18,75.0
715.24,56.0
715.3,65.0
715.36,71.0
715.43,69.0
715.49,65.0
715.55,64.0
715.62,83.0
715.68,84.0
715.74,80.0
715.81,90.0
715.87,80.0
715.93,123.0
715.99,109.0
716.06,114.0
716.12,108.0
716.18,107.0
716.25,103.0
716.31,98.0
716.37,109.0
716.44,99.0
716.5,89.0
716.56,97.0
716.62,114.0
716.69,127.0
716.75,142.0
716.81,134.0
716.88,120.0
716.94,126.0
717.0,134.0
717.07,142.0
717.13,139.0
717.19,133.0
717.25,144.0
717.32,166.0
717.38,167.0
717.44,185.0
717.51,197.0
717.57,179.0
717.63,163.0
717.7,153.0
717.76,167.0
717.82,168.0
717.88,161.0
717.95,188.0
718.01,167.0
718.07,180.0
718.14,167.0
718.2,164.0
718.26,154.0
718.33,159.0
718.39,163.0
718.45,141.0
718.51,142.0
718.58,160.0
718.64,165.0
718.7,174.0
718.77,174.0
718.83,177.0
718.89,182.0
718.96,179.0
719.02,171.0
719.08,158.0
719.14,162.0
719.21,161.0
719.27,167.0
719.33,175.0
719.4,161.0
719.46,172.0
719.52,162.0
719.59,152.0
719.65,170.0
719.71,186.0
719.77,165.0
719.84,160.0
719.9,167.0
719.96,150.0
720.03,159.0
720.09,171.0
720.15,156.0
720.22,167.0
720.28,158.0
720.34,164.0
720.4,169.0
720.47,166.0
720.53,163.0
720.59,182.0
720.66,199.0
720.72,186.0
720.78,211.0
720.85,217.0
720.91,196.0
720.97,197.0
721.03,196.0
721.1,199.0
721.16,207.0
721.22,206.0
721.29,197.0
721.35,204.0
721.41,202.0
721.48,186.0
721.54,202.0
721.6,207.0
721.66,213.0
721.73,216.0
721.79,183.0
721.85,189.0
721.92,172.0
721.98,197.0
722.04,203.0
722.11,194.0
722.17,186.0
722.23,175.0
722.29,171.0
722.36,178.0
722.42,180.0
722.48,166.0
722.55,176.0
722.61,181.0
722.67,199.0
722.74,207.0
722.8,212.0
722.86,211.0
722.92,194.0
722.99,183.0
723.05,177.0
723.11,186.0
723.18,189.0
723.24,174.0
723.3,170.0
723.37,171.0
723.43,185.0
723.49,171.0
723.55,180.0
723.62,202.0
723.68,190.0
723.74,161.0
723.81,183.0
723.87,174.0
723.93,179.0
724.0,185.0
724.06,166.0
724.12,185.0
724.18,177.0
724.25,169.0
724.31,170.0
724.37,186.0
724.44,196.0
724.5,164.0
724.56,163.0
724.63,174.0
724.69,164.0
724.75,161.0
724.81,164.0
724.88,165.0
724.94,155.0
725.0,164.0
725.07,180.0
725.13,171.0
725.19,163.0
725.26,148.0
725.32,152.0
725.38,136.0
725.44,131.0
725.51,149.0
725.57,131.0
725.63,107.0
725.7,139.0
725.76,132.0
725.82,130.0
725.89,142.0
725.95,138.0
726.01,142.0
726.07,147.0
726.14,143.0
726.2,136.0
726.26,141.0
726.33,158.0
726.39,156.0
726.45,149.0
726.52,150.0
726.58,124.0
726.64,134.0
726.7,131.0
726.77,137.0
726.83,139.0
726.89,123.0
726.96,145.0
727.02,132.0
727.08,138.0
727.15,129.0
727.21,125.0
727.27,122.0
727.33,133.0
727.4,130.0
727.46,113.0
727.52,111.0
727.59,110.0
727.65,103.0
727.71,113.0
727.78,121.0
727.84,124.0
727.9,143.0
727.96,132.0
728.03,138.0
728.09,138.0
728.15,144.0
728.22,116.0
728.28,83.0
728.34,99.0
728.41,96.0
728.47,85.0
728.53,98.0
728.59,95.0
728.66,90.0
728.72,97.0
728.78,111.0
728.85,99.0
728.91,104.0
728.97,100.0
729.04,79.0
729.1,71.0
729.16,72.0
729.22,65.0
729.29,67.0
729.35,70.0
729.41,67.0
729.48,68.0
729.54,50.0
729.6,45.0
729.67,62.0
729.73,49.0
729.79,60.0
729.85,74.0
729.92,74.0
729.98,47.0
730.04,58.0
730.11,57.0
730.17,79.0
730.23,59.0
730.3,68.0
730.36,75.0
730.42,73.0
730.48,83.0
730.55,55.0
730.61,75.0
730.67,101.0
730.74,73.0
730.8,75.0
730.86,76.0
730.93,83.0
730.99,87.0
731.05,76.0
731.11,62.0
731.18,82.0
731.24,94.0
731.3,108.0
731.37,87.0
731.43,86.0
731.49,107.0
731.56,119.0
731.62,117.0
731.68,104.0
731.74,101.0
731.81,109.0
731.87,105.0
731.93,118.0
732.0,90.0
732.06,82.0
732.12,108.0
732.19,104.0
732.25,111.0
732.31,131.0
732.37,104.0
732.44,105.0
732.5,126.0
732.56,112.0
732.63,96.0
732.69,105.0
732.75,87.0
732.82,89.0
732.88,95.0
732.94,89.0
733.0,93.0
733.07,109.0
733.13,97.0
733.19,100.0
733.26,109.0
733.32,118.0
733.38,134.0
733.45,152.0
733.51,153.0
733.57,155.0
733.63,160.0
733.7,138.0
733.76,137.0
733.82,152.0
733.89,155.0
733.95,175.0
734.01,158.0
734.08,130.0
734.14,153.0
734.2,155.0
734.26,164.0
734.33,166.0
734.39,147.0
734.45,135.0
734.52,138.0
734.58,145.0
734.64,139.0
734.71,149.0
734.77,145.0
734.83,142.0
734.89,136.0
734.96,164.0
735.02,158.0
735.08,161.0
735.15,152.0
735.21,139.0
735.27,144.0
735.34,133.0
735.4,149.0
735.46,151.0
735.52,147.0
735.59,124.0
735.65,128.0
735.71,131.0
735.78,141.0
735.84,142.0
735.9,140.0
735.97,145.0
736.03,150.0
736.09,150.0
736.15,131.0
736.22,139.0
736.28,148.0
736.34,128.0
736.41,135.0
736.47,152.0
736.53,153.0
736.6,143.0
736.66,124.0
736.72,122.0
736.78,117.0
736.85,130.0
736.91,134.0
736.97,109.0
737.04,120.0
737.1,116.0
737.16,123.0
737.23,136.0
737.29,114.0
737.35,126.0
737.41,129.0
737.48,116.0
737.54,112.0
737.6,118.0
737.67,134.0
737.73,130.0
737.79,137.0
737.86,124.0
737.92,129.0
737.98,156.0
738.04,135.0
738.11,125.0
738.17,140.0
738.23,130.0
738.3,127.0
738.36,144.0
738.42,138.0
738.49,116.0
738.55,111.0
738.61,108.0
738.67,119.0
738.74,125.0
738.8,127.0
738.86,117.0
738.93,126.0
738.99,133.0
739.05,134.0
739.12,143.0
739.18,150.0
739.24,132.0
739.3,134.0
739.37,155.0
739.43,130.0
739.49,137.0
739.56,128.0
739.62,118.0
739.68,124.0
739.75,142.0
739.81,159.0
739.87,128.0
739.93,128.0
740.0,138.0
740.06,134.0
740.12,114.0
740.19,117.0
740.25,147.0
740.31,126.0
740.38,135.0
740.44,101.0
740.5,100.0
740.56,114.0
740.63,95.0
740.69,106.0
740.75,122.0
740.82,126.0
740.88,107.0
740.94,88.0
741.01,103.0
741.07,125.0
741.13,119.0
741.19,110.0
741.26,110.0
741.32,126.0
741.38,127.0
741.45,121.0
741.51,142.0
741.57,116.0
741.64,101.0
741.7,126.0
741.76,114.0
741.82,123.0
741.89,119.0
741.95,110.0
742.01,109.0
742.08,115.0
742.14,107.0
742.2,113.0
742.27,113.0
742.33,86.0
742.39,83.0
742.45,103.0
742.52,114.0
742.58,120.0
742.64,102.0
742.71,131.0
742.77,119.0
742.83,139.0
742.9,108.0
742.96,124.0
743.02,128.0
743.08,107.0
743.15,116.0
743.21,127.0
743.27,128.0
743.34,113.0
743.4,109.0
743.46,95.0
743.53,108.0
743.59,95.0
743.65,99.0
743.71,111.0
743.78,109.0
743.84,90.0
743.9,80.0
743.97,90.0
744.03,110.0
744.09,107.0
744.16,91.0
744.22,94.0
744.28,82.0
744.34,97.0
744.41,86.0
744.47,88.0
744.53,87.0
744.6,89.0
744.66,62.0
744.72,62.0
744.79,75.0
744.85,98.0
744.91,98.0
744.97,64.0
745.04,85.0
745.1,105.0
745.16,123.0
745.23,112.0
745.29,93.0
745.35,103.0
745.42,95.0
745.48,91.0
745.54,79.0
745.6,70.0
745.67,66.0
745.73,42.0
745.79,51.0
745.86,53.0
745.92,69.0
745.98,67.0
746.05,46.0
746.11,56.0
746.17,59.0
746.23,72.0
746.3,53.0
746.36,51.0
746.42,54.0
746.49,32.0
746.55,37.0
746.61,24.0
746.68,43.0
746.74,31.0
746.8,48.0
746.86,47.0
746.93,39.0
746.99,54.0
747.05,75.0
747.12,68.0
747.18,80.0
747.24,60.0
747.31,75.0
747.37,68.0
747.43,68.0
747.49,66.0
747.56,78.0
747.62,73.0
747.68,61.0
747.75,74.0
747.81,84.0
747.87,78.0
747.94,68.0
748.0,79.0
748.06,90.0
748.12,60.0
748.19,69.0
748.25,80.0
748.31,78.0
748.38,83.0
748.44,79.0
748.5,68.0
748.57,68.0
748.63,60.0
748.69,58.0
748.75,84.0
748.82,87.0
748.88,85.0
748.94,85.0
749.01,84.0
749.07,103.0
749.13,103.0
749.2,96.0
749.26,96.0
749.32,79.0
749.38,91.0
749.45,83.0
749.51,75.0
749.57,72.0
749.64,83.0
749.7,73.0
749.76,72.0
749.83,87.0
749.89,83.0
749.95,99.0
750.01,77.0
750.08,78.0
750.14,86.0
750.2,84.0
750.27,98.0
750.33,87.0
750.39,87.0
750.46,101.0
750.52,101.0
750.58,97.0
750.64,83.0
750.71,103.0
750.77,92.0
750.83,94.0
750.9,109.0
750.96,111.0
751.02,128.0
751.09,125.0
751.15,100.0
751.21,127.0
751.27,131.0
751.34,134.0
751.4,106.0
751.46,112.0
751.53,125.0
751.59,112.0
751.65,118.0
751.72,116.0
751.78,105.0
751.84,150.0
751.9,149.0
751.97,126.0
752.03,120.0
752.09,133.0
752.16,142.0
752.22,141.0
752.28,150.0
752.35,130.0
752.41,123.0
752.47,144.0
752.53,133.0
752.6,135.0
752.66,133.0
752.72,149.0
752.79,147.0
752.85,150.0
752.91,154.0
752.98,158.0
753.04,169.0
753.1,167.0
753.16,144.0
753.23,149.0
753.29,158.0
753.35,165.0
753.42,172.0
753.48,152.0
753.54,149.0
753.61,153.0
753.67,147.0
753.73,140.0
753.79,155.0
753.86,147.0
753.92,148.0
753.98,156.0
754.05,145.0
754.11,126.0
754.17,139.0
754.24,160.0
754.3,156.0
754.36,166.0
754.42,167.0
754.49,159.0
754.55,174.0
754.61,172.0
754.68,149.0
754.74,175.0
754.8,160.0
754.87,169.0
754.93,181.0
754.99,173.0
755.05,177.0
755.12,153.0
755.18,148.0
755.24,152.0
755.31,156.0
755.37,172.0
755.43,166.0
755.5,167.0
755.56,167.0
755.62,179.0
755.68,171.0
755.75,168.0
755.81,156.0
755.87,154.0
755.94,170.0
756.0,147.0
756.06,150.0
756.13,135.0
756.19,125.0
756.25,122.0
756.31,116.0
756.38,138.0
756.44,145.0
756.5,146.0
756.57,123.0
756.63,135.0
756.69,142.0
756.76,148.0
756.82,152.0
756.88,135.0
756.94,158.0
757.01,152.0
757.07,145.0
757.13,152.0
757.2,150.0
757.26,130.0
757.32,135.0
757.39,136.0
757.45,132.0
757.51,131.0
757.57,111.0
757.64,121.0
757.7,122.0
757.76,128.0
757.83,112.0
757.89,122.0
757.95,128.0
758.02,119.0
758.08,113.0
758.14,101.0
758.2,97.0
758.27,96.0
758.33,91.0
758.39,93.0
758.46,85.0
758.52,108.0
758.58,97.0
758.65,98.0
758.71,103.0
758.77,91.0
758.83,102.0
758.9,95.0
758.96,76.0
759.02,63.0
759.09,82.0
759.15,97.0
759.21,100.0
759.28,94.0
759.34,103.0
759.4,119.0
759.46,95.0
759.53,93.0
759.59,65.0
759.65,85.0
759.72,75.0
759.78,60.0
759.84,74.0
759.91,53.0
759.97,70.0
760.03,59.0
760.09,25.0
760.16,65.0
760.22,67.0
760.28,63.0
760.35,92.0
760.41,85.0
760.47,90.0
760.54,70.0
760.6,75.0
760.66,89.0
760.72,83.0
760.79,83.0
760.85,90.0
760.91,94.0
760.98,96.0
761.04,97.0
761.1,92.0
761.17,51.0
761.23,67.0
761.29,68.0
761.35,49.0
761.42,82.0
761.48,61.0
761.54,57.0
761.61,59.0
761.67,61.0
761.73,50.0
761.8,42.0
761.86,42.0
761.92,48.0
761.98,57.0
762.05,56.0
762.11,60.0
762.17,53.0
762.24,51.0
762.3,48.0
762.36,65.0
762.43,57.0
762.49,54.0
762.55,38.0
762.61,46.0
762.68,44.0
762.74,37.0
762.8,27.0
762.87,31.0
762.93,44.0
762.99,20.0
763.06,17.0
763.12,13.0
763.18,18.0
763.24,7.0
763.31,-6.0
763.37,-16.0
763.43,-21.0
763.5,-22.0
763.56,5.0
763.62,7.0
763.69,-3.0
763.75,-5.0
763.81,-8.0
763.87,6.0
763.94,9.0
764.0,1.0
764.06,3.0
764.13,6.0
764.19,22.0
764.25,-1.0
764.32,23.0
764.38,12.0
764.44,-15.0
764.5,11.0
764.57,-19.0
764.63,-1.0
764.69,-5.0
764.76,4.0
764.82,-5.0
764.88,-3.0
764.95,-4.0
765.01,-1.0
765.07,6.0
765.13,4.0
765.2,19.0
765.26,16.0
765.32,18.0
765.39,33.0
765.45,66.0
765.51,63.0
765.58,57.0
765.64,91.0
765.7,109.0
765.76,78.0
765.83,70.0
765.89,72.0
765.95,73.0
766.02,82.0
766.08,67.0
766.14,76.0
766.21,91.0
766.27,72.0
766.33,76.0
766.39,101.0
766.46,115.0
766.52,116.0
766.58,103.0
766.65,108.0
766.71,106.0
766.77,135.0
766.84,126.0
766.9,126.0
766.96,125.0
767.02,144.0
767.09,138.0
767.15,118.0
767.21,134.0
767.28,127.0
767.34,126.0
767.4,137.0
767.47,120.0
767.53,122.0
767.59,122.0
767.65,145.0
767.72,131.0
767.78,136.0
767.84,141.0
767.91,137.0
767.97,131.0
768.03,151.0
768.1,178.0
768.16,165.0
768.22,154.0
768.28,136.0
768.35,132.0
768.41,167.0
768.47,157.0
768.54,138.0
768.6,140.0
768.66,145.0
768.73,135.0
768.79,139.0
768.85,137.0
768.91,149.0
768.98,148.0
769.04,174.0
769.1,161.0
769.17,149.0
769.23,168.0
769.29,161.0
769.36,160.0
769.42,164.0
769.48,167.0
769.54,161.0
769.61,178.0
769.67,167.0
769.73,169.0
769.8,164.0
769.86,131.0
769.92,139.0
769.99,154.0
770.05,171.0
770.11,146.0
770.17,139.0
770.24,134.0
770.3,144.0
770.36,147.0
770.43,149.0
770.49,137.0
770.55,131.0
770.62,128.0
770.68,134.0
770.74,135.0
770.8,139.0
770.87,123.0
770.93,127.0
770.99,121.0
771.06,119.0
771.12,129.0
771.18,122.0
771.25,106.0
771.31,137.0
771.37,119.0
771.43,118.0
771.5,121.0
771.56,131.0
771.62,140.0
771.69,129.0
771.75,139.0
771.81,134.0
771.88,148.0
771.94,164.0
772.0,151.0
772.06,159.0
772.13,140.0
772.19,135.0
772.25,137.0
772.32,156.0
772.38,136.0
772.44,113.0
772.51,145.0
772.57,141.0
772.63,148.0
772.69,140.0
772.76,146.0
772.82,142.0
772.88,143.0
772.95,158.0
773.01,167.0
773.07,146.0
773.14,160.0
773.2,175.0
773.26,144.0
773.32,149.0
773.39,162.0
773.45,156.0
773.51,145.0
773.58,142.0
773.64,170.0
773.7,159.0
773.77,144.0
773.83,136.0
773.89,159.0
773.95,136.0
774.02,120.0
774.08,136.0
774.14,131.0
774.21,131.0
774.27,135.0
774.33,129.0
774.4,132.0
774.46,123.0
774.52,113.0
774.58,128.0
774.65,120.0
774.71,117.0
774.77,125.0
774.84,101.0
774.9,112.0
774.96,129.0
775.03,120.0
775.09,113.0
775.15,122.0
775.21,116.0
775.28,116.0
775.34,118.0
775.4,108.0
775.47,113.0
775.53,123.0
775.59,105.0
775.66,127.0
775.72,115.0
775.78,109.0
775.84,112.0
775.91,109.0
775.97,120.0
776.03,101.0
776.1,112.0
776.16,107.0
776.22,122.0
776.29,112.0
776.35,88.0
776.41,113.0
776.47,111.0
776.54,98.0
776.6,102.0
776.66,91.0
776.73,76.0
776.79,84.0
776.85,102.0
776.92,101.0
776.98,103.0
777.04,86.0
777.1,85.0
777.17,90.0
777.23,101.0
777.29,103.0
777.36,95.0
777.42,84.0
777.48,106.0
777.55,98.0
777.61,91.0
777.67,90.0
777.73,93.0
777.8,86.0
777.86,99.0
777.92,83.0
777.99,91.0
778.05,106.0
778.11,106.0
778.18,99.0
778.24,95.0
778.3,105.0
778.36,120.0
778.43,112.0
778.49,94.0
778.55,101.0
778.62,101.0
778.68,87.0
778.74,82.0
778.81,79.0
778.87,85.0
778.93,107.0
778.99,102.0
779.06,87.0
779.12,90.0
779.18,86.0
779.25,99.0
779.31,108.0
779.37,110.0
779.44,98.0
779.5,108.0
779.56,86.0
779.62,93.0
779.69,72.0
779.75,85.0
779.81,97.0
779.88,79.0
779.94,83.0
780.0,81.0
780.07,66.0
780.13,78.0
780.19,84.0
780.25,96.0
780.32,99.0
780.38,72.0
780.44,79.0
780.51,79.0
780.57,78.0
780.63,70.0
780.7,60.0
780.76,66.0
780.82,42.0
780.88,41.0
780.95,39.0
781.01,44.0
781.07,30.0
781.14,43.0
781.2,60.0
781.26,65.0
781.33,63.0
781.39,79.0
781.45,63.0
781.51,54.0
781.58,63.0
781.64,55.0
781.7,52.0
781.77,52.0
781.83,58.0
781.89,56.0
781.96,51.0
782.02,77.0
782.08,68.0
782.14,82.0
782.21,88.0
782.27,64.0
782.33,69.0
782.4,72.0
782.46,72.0
782.52,85.0
782.59,104.0
782.65,81.0
782.71,74.0
782.77,112.0
782.84,106.0
782.9,115.0
782.96,109.0
783.03,100.0
783.09,124.0
783.15,137.0
783.22,115.0
783.28,115.0
783.34,115.0
783.4,96.0
783.47,110.0
783.53,107.0
783.59,122.0
783.66,131.0
783.72,145.0
783.78,159.0
783.85,161.0
783.91,167.0
783.97,149.0
784.03,154.0
784.1,163.0
784.16,159.0
784.22,160.0
784.29,165.0
784.35,183.0
784.41,200.0
784.48,195.0
784.54,184.0
784.6,172.0
784.66,172.0
784.73,204.0
784.79,191.0
784.85,178.0
784.92,181.0
784.98,181.0
785.04,195.0
785.11,186.0
785.17,197.0
785.23,193.0
785.29,185.0
785.36,160.0
785.42,157.0
785.48,176.0
785.55,176.0
785.61,173.0
785.67,156.0
785.74,187.0
785.8,166.0
785.86,176.0
785.92,180.0
785.99,160.0
786.05,170.0
786.11,189.0
786.18,179.0
786.24,167.0
786.3,193.0
786.37,171.0
786.43,173.0
786.49,181.0
786.55,164.0
786.62,159.0
786.68,168.0
786.74,153.0
786.81,157.0
786.87,169.0
786.93,159.0
787.0,160.0
787.06,153.0
787.12,149.0
787.18,160.0
787.25,165.0
787.31,166.0
787.37,165.0
787.44,151.0
787.5,141.0
787.56,147.0
787.63,168.0
787.69,144.0
787.75,167.0
787.81,152.0
787.88,140.0
787.94,146.0
788.0,182.0
788.07,179.0
788.13,190.0
788.19,184.0
788.26,179.0
788.32,185.0
788.38,186.0
788.44,195.0
788.51,182.0
788.57,173.0
788.63,193.0
788.7,199.0
788.76,207.0
788.82,209.0
788.89,195.0
788.95,201.0
789.01,203.0
789.07,197.0
789.14,197.0
789.2,196.0
789.26,194.0
789.33,196.0
789.39,169.0
789.45,183.0
789.52,171.0
789.58,176.0
789.64,162.0
789.7,168.0
789.77,180.0
789.83,182.0
789.89,165.0
789.96,160.0
790.02,198.0
790.08,168.0
790.15,172.0
790.21,170.0
790.27,176.0
790.33,174.0
790.4,166.0
790.46,176.0
790.52,165.0
790.59,154.0
790.65,157.0
790.71,153.0
790.78,147.0
790.84,149.0
790.9,134.0
790.96,129.0
791.03,130.0
791.09,132.0
791.15,150.0
791.22,151.0
791.28,164.0
791.34,161.0
791.41,145.0
791.47,145.0
791.53,150.0
791.59,164.0
791.66,159.0
791.72,153.0
791.78,162.0
791.85,156.0
791.91,173.0
791.97,154.0
792.04,166.0
792.1,183.0
792.16,168.0
792.22,154.0
792.29,150.0
792.35,159.0
792.41,138.0
792.48,155.0
792.54,139.0
792.6,131.0
792.67,134.0
792.73,121.0
792.79,113.0
792.85,102.0
792.92,102.0
792.98,110.0
793.04,112.0
793.11,111.0
793.17,112.0
793.23,97.0
793.3,97.0
793.36,99.0
793.42,116.0
793.48,111.0
793.55,96.0
793.61,112.0
793.67,97.0
793.74,111.0
793.8,102.0
793.86,113.0
793.93,113.0
793.99,109.0
794.05,110.0
794.11,76.0
794.18,97.0
794.24,93.0
794.3,106.0
794.37,115.0
794.43,112.0
794.49,113.0
794.56,112.0
794.62,94.0
794.68,96.0
794.74,90.0
794.81,90.0
794.87,72.0
794.93,43.0
795.0,66.0
795.06,86.0
795.12,84.0
795.19,97.0
795.25,83.0
795.31,72.0
795.37,82.0
795.44,68.0
795.5,59.0
795.56,63.0
795.63,71.0
795.69,63.0
795.75,47.0
795.82,53.0
795.88,79.0
795.94,51.0
796.0,61.0
796.07,53.0
796.13,64.0
796.19,44.0
796.26,39.0
796.32,42.0
796.38,28.0
796.45,21.0
796.51,20.0
796.57,44.0
796.63,19.0
796.7,19.0
796.76,13.0
796.82,13.0
796.89,-15.0
796.95,-24.0
797.01,-10.0
797.08,-16.0
797.14,-23.0
797.2,-13.0
797.26,-20.0
797.33,-23.0
797.39,-15.0
797.45,-28.0
797.52,-19.0
797.58,-14.0
797.64,-30.0
797.71,-19.0
797.77,4.0
797.83,-3.0
797.89,-24.0
797.96,4.0
798.02,-13.0
798.08,4.0
798.15,-7.0
798.21,-14.0
798.27,-11.0
798.34,-9.0
798.4,-9.0
798.46,-11.0
798.52,-14.0
798.59,8.0
798.65,17.0
798.71,19.0
798.78,9.0
798.84,22.0
798.9,41.0
798.97,30.0
799.03,22.0
799.09,31.0
799.15,32.0
799.22,33.0
799.28,32.0
799.34,35.0
799.41,36.0
799.47,32.0
799.53,29.0
799.6,25.0
799.66,31.0
799.72,46.0
799.78,42.0
799.85,42.0
799.91,22.0
799.97,43.0
800.04,53.0
800.1,50.0
800.16,38.0
800.23,56.0
800.29,67.0
800.35,42.0
800.41,56.0
800.48,51.0
800.54,73.0
800.6,75.0
800.67,58.0
800.73,63.0
800.79,78.0
800.86,80.0
800.92,66.0
800.98,88.0
801.04,52.0
801.11,58.0
801.17,70.0
801.23,62.0
801.3,64.0
801.36,67.0
801.42,75.0
801.49,83.0
801.55,93.0
801.61,78.0
801.67,64.0
801.74,86.0
801.8,90.0
801.86,84.0
801.93,93.0
801.99,126.0
802.05,114.0
802.12,96.0
802.18,88.0
802.24,76.0
802.3,96.0
802.37,105.0
802.43,92.0
802.49,93.0
802.56,118.0
802.62,118.0
802.68,91.0
802.75,93.0
802.81,96.0
802.87,93.0
802.93,108.0
803.0,99.0
803.06,86.0
803.12,115.0
803.19,122.0
803.25,113.0
803.31,111.0
803.38,108.0
803.44,120.0
803.5,109.0
803.56,123.0
803.63,124.0
803.69,119.0
803.75,125.0
803.82,126.0
803.88,129.0
803.94,142.0
804.01,145.0
804.07,141.0
804.13,121.0
804.19,147.0
804.26,152.0
804.32,160.0
804.38,129.0
804.45,120.0
804.51,118.0
804.57,137.0
804.64,154.0
804.7,153.0
804.76,170.0
804.82,173.0
804.89,136.0
804.95,163.0
805.01,170.0
805.08,162.0
805.14,184.0
805.2,174.0
805.27,181.0
805.33,198.0
805.39,175.0
805.45,186.0
805.52,184.0
805.58,180.0
805.64,188.0
805.71,180.0
805.77,180.0
805.83,181.0
805.9,181.0
805.96,180.0
806.02,179.0
806.08,198.0
806.15,199.0
806.21,182.0
806.27,197.0
806.34,190.0
806.4,191.0
806.46,203.0
806.53,187.0
806.59,210.0
806.65,208.0
806.71,206.0
806.78,199.0
806.84,187.0
806.9,209.0
806.97,212.0
807.03,192.0
807.09,194.0
807.16,210.0
807.22,195.0
807.28,187.0
807.34,176.0
807.41,189.0
807.47,184.0
807.53,168.0
807.6,177.0
807.66,184.0
807.72,186.0
807.79,184.0
807.85,177.0
807.91,196.0
807.97,184.0
808.04,192.0
808.1,199.0
808.16,176.0
808.23,191.0
808.29,182.0
808.35,188.0
808.42,199.0
808.48,207.0
808.54,201.0
808.6,209.0
808.67,195.0
808.73,190.0
808.79,195.0
808.86,206.0
808.92,200.0
808.98,195.0
809.05,195.0
809.11,174.0
809.17,184.0
809.23,169.0
809.3,180.0
809.36,170.0
809.42,160.0
809.49,182.0
809.55,174.0
809.61,177.0
809.68,165.0
809.74,169.0
809.8,153.0
809.86,151.0
809.93,141.0
809.99,176.0
810.05,163.0
810.12,144.0
810.18,139.0
810.24,147.0
810.31,153.0
810.37,161.0
810.43,159.0
810.49,170.0
810.56,178.0
810.62,171.0
810.68,177.0
810.75,166.0
810.81,166.0
810.87,166.0
810.94,169.0
811.0,154.0
811.06,173.0
811.12,167.0
811.19,173.0
811.25,171.0
811.31,150.0
811.38,133.0
811.44,147.0
811.5,140.0
811.57,138.0
811.63,144.0
811.69,147.0
811.75,149.0
811.82,140.0
811.88,116.0
811.94,118.0
812.01,130.0
812.07,127.0
812.13,126.0
812.2,119.0
812.26,120.0
812.32,126.0
812.38,110.0
812.45,112.0
812.51,102.0
812.57,100.0
812.64,88.0
812.7,100.0
812.76,83.0
812.83,93.0
812.89,77.0
812.95,82.0
813.01,111.0
813.08,81.0
813.14,74.0
813.2,76.0
813.27,52.0
813.33,45.0
813.39,61.0
813.46,57.0
813.52,58.0
813.58,81.0
813.64,58.0
813.71,41.0
813.77,46.0
813.83,55.0
813.9,67.0
813.96,60.0
814.02,36.0
814.09,55.0
814.15,55.0
814.21,53.0
814.27,48.0
814.34,52.0
814.4,59.0
814.46,46.0
814.53,54.0
814.59,38.0
814.65,47.0
814.72,45.0
814.78,39.0
814.84,70.0
814.9,68.0
814.97,79.0
815.03,75.0
815.09,63.0
815.16,91.0
815.22,84.0
815.28,113.0
815.35,101.0
815.41,103.0
815.47,94.0
815.53,84.0
815.6,89.0
815.66,87.0
815.72,99.0
815.79,88.0
815.85,99.0
815.91,67.0
815.98,89.0
816.04,100.0
816.1,94.0
816.16,107.0
816.23,94.0
816.29,93.0
816.35,75.0
816.42,88.0
816.48,85.0
816.54,77.0
816.61,89.0
816.67,90.0
816.73,86.0
816.79,85.0
816.86,96.0
816.92,100.0
816.98,88.0
817.05,85.0
817.11,92.0
817.17,100.0
817.24,107.0
817.3,118.0
817.36,108.0
817.42,100.0
817.49,107.0
817.55,116.0
817.61,92.0
817.68,92.0
817.74,100.0
817.8,96.0
817.87,104.0
817.93,106.0
817.99,121.0
818.05,115.0
818.12,148.0
818.18,149.0
818.24,139.0
818.31,146.0
818.37,133.0
818.43,110.0
818.5,104.0
818.56,112.0
818.62,103.0
818.68,88.0
818.75,75.0
818.81,90.0
818.87,87.0
818.94,103.0
819.0,106.0
819.06,96.0
819.13,89.0
819.19,97.0
819.25,101.0
819.31,96.0
819.38,80.0
819.44,72.0
819.5,68.0
819.57,84.0
819.63,78.0
819.69,74.0
819.76,87.0
819.82,85.0
819.88,82.0
819.94,71.0
820.01,76.0
820.07,88.0
820.13,63.0
820.2,67.0
820.26,94.0
820.32,105.0
820.39,97.0
820.45,98.0
820.51,102.0
820.57,102.0
820.64,99.0
820.7,101.0
820.76,84.0
820.83,100.0
820.89,118.0
820.95,127.0
821.02,107.0
821.08,110.0
821.14,92.0
821.2,86.0
821.27,103.0
821.33,124.0
821.39,141.0
821.46,137.0
821.52,121.0
821.58,128.0
821.65,137.0
821.71,124.0
821.77,118.0
821.83,130.0
821.9,118.0
821.96,119.0
822.02,133.0
822.09,129.0
822.15,112.0
822.21,100.0
822.28,103.0
822.34,116.0
822.4,130.0
822.46,114.0
822.53,107.0
822.59,110.0
822.65,127.0
822.72,143.0
822.78,130.0
822.84,125.0
822.91,125.0
822.97,126.0
823.03,133.0
823.09,144.0
823.16,135.0
823.22,143.0
823.28,154.0
823.35,144.0
823.41,161.0
823.47,158.0
823.54,160.0
823.6,155.0
823.66,128.0
823.72,152.0
823.79,149.0
823.85,141.0
823.91,141.0
823.98,160.0
824.04,136.0
824.1,126.0
824.17,156.0
824.23,175.0
824.29,162.0
824.35,165.0
824.42,184.0
824.48,154.0
824.54,192.0
824.61,180.0
824.67,168.0
824.73,169.0
824.8,178.0
824.86,176.0
824.92,178.0
824.98,201.0
825.05,195.0
825.11,179.0
825.17,179.0
825.24,186.0
825.3,174.0
825.36,166.0
825.43,173.0
825.49,170.0
825.55,168.0
825.61,166.0
825.68,161.0
825.74,163.0
825.8,153.0
825.87,148.0
825.93,157.0
825.99,148.0
826.06,161.0
826.12,154.0
826.18,149.0
826.24,152.0
826.31,166.0
826.37,152.0
826.43,167.0
826.5,171.0
826.56,173.0
826.62,174.0
826.69,174.0
826.75,167.0
826.81,168.0
826.87,162.0
826.94,155.0
827.0,162.0
827.06,162.0
827.13,130.0
827.19,162.0
827.25,146.0
827.32,135.0
827.38,148.0
827.44,125.0
827.5,145.0
827.57,148.0
827.63,134.0
827.69,142.0
827.76,136.0
827.82,135.0
827.88,138.0
827.95,124.0
828.01,119.0
828.07,124.0
828.13,111.0
828.2,127.0
828.26,126.0
828.32,118.0
828.39,130.0
828.45,124.0
828.51,115.0
828.58,114.0
828.64,107.0
828.7,112.0
828.76,122.0
828.83,130.0
828.89,122.0
828.95,136.0
829.02,137.0
829.08,133.0
829.14,137.0
829.21,117.0
829.27,117.0
829.33,114.0
829.39,132.0
829.46,103.0
829.52,110.0
829.58,107.0
829.65,102.0
829.71,85.0
829.77,85.0
829.84,93.0
829.9,91.0
829.96,76.0
830.02,85.0
830.09,91.0
830.15,81.0
830.21,85.0
830.28,89.0
830.34,92.0
830.4,85.0
830.47,80.0
830.53,74.0
830.59,83.0
830.65,88.0
830.72,68.0
830.78,67.0
830.84,59.0
830.91,79.0
830.97,91.0
831.03,86.0
831.1,98.0
831.16,102.0
831.22,105.0
831.28,115.0
831.35,127.0
831.41,106.0
831.47,111.0
831.54,100.0
831.6,109.0
831.66,102.0
831.73,105.0
831.79,109.0
831.85,91.0
831.91,91.0
831.98,96.0
832.04,113.0
832.1,113.0
832.17,113.0
832.23,106.0
832.29,103.0
832.36,109.0
832.42,79.0
832.48,81.0
832.54,97.0
832.61,85.0
832.67,96.0
832.73,99.0
832.8,94.0
832.86,103.0
832.92,104.0
832.99,117.0
833.05,114.0
833.11,107.0
833.17,121.0
833.24,127.0
833.3,128.0
833.36,127.0
833.43,132.0
833.49,131.0
833.55,120.0
833.62,122.0
833.68,131.0
833.74,123.0
833.8,114.0
833.87,114.0
833.93,122.0
833.99,127.0
834.06,109.0
834.12,133.0
834.18,122.0
834.25,125.0
834.31,130.0
834.37,130.0
834.43,140.0
834.5,143.0
834.56,165.0
834.62,140.0
834.69,139.0
834.75,148.0
834.81,143.0
834.88,153.0
834.94,145.0
835.0,154.0
835.06,151.0
835.13,137.0
835.19,131.0
835.25,143.0
835.32,146.0
835.38,153.0
835.44,162.0
835.51,159.0
835.57,163.0
835.63,151.0
835.69,140.0
835.76,164.0
835.82,158.0
835.88,157.0
835.95,157.0
836.01,189.0
836.07,182.0
836.14,182.0
836.2,169.0
836.26,181.0
836.32,197.0
836.39,160.0
836.45,163.0
836.51,172.0
836.58,171.0
836.64,176.0
836.7,159.0
836.77,150.0
836.83,145.0
836.89,156.0
836.95,168.0
837.02,181.0
837.08,173.0
837.14,164.0
837.21,149.0
837.27,155.0
837.33,161.0
837.4,154.0
837.46,162.0
837.52,155.0
837.58,163.0
837.65,147.0
837.71,154.0
837.77,168.0
837.84,188.0
837.9,193.0
837.96,177.0
838.03,170.0
838.09,168.0
838.15,185.0
838.21,165.0
838.28,163.0
838.34,180.0
838.4,164.0
838.47,168.0
838.53,160.0
838.59,170.0
838.66,172.0
838.72,169.0
838.78,157.0
838.84,143.0
838.91,155.0
838.97,157.0
839.03,167.0
839.1,166.0
839.16,166.0
839.22,179.0
839.29,176.0
839.35,190.0
839.41,196.0
839.47,195.0
839.54,214.0
839.6,198.0
839.66,203.0
839.73,196.0
839.79,192.0
839.85,208.0
839.92,177.0
839.98,192.0
840.04,174.0
840.1,188.0
840.17,178.0
840.23,177.0
840.29,174.0
840.36,170.0
840.42,195.0
840.48,204.0
840.55,189.0
840.61,192.0
840.67,201.0
840.73,202.0
840.8,191.0
840.86,208.0
840.92,192.0
840.99,184.0
841.05,199.0
841.11,208.0
841.18,202.0
841.24,198.0
841.3,180.0
841.36,204.0
841.43,207.0
841.49,199.0
841.55,213.0
841.62,211.0
841.68,222.0
841.74,212.0
841.81,191.0
841.87,202.0
841.93,199.0
841.99,187.0
842.06,170.0
842.12,168.0
842.18,179.0
842.25,189.0
842.31,166.0
842.37,167.0
842.44,189.0
842.5,180.0
842.56,170.0
842.62,182.0
842.69,163.0
842.75,176.0
842.81,174.0
842.88,173.0
842.94,171.0
843.0,160.0
843.07,184.0
843.13,177.0
843.19,163.0
843.25,170.0
843.32,181.0
843.38,159.0
843.44,154.0
843.51,165.0
843.57,174.0
843.63,172.0
843.7,186.0
843.76,181.0
843.82,185.0
843.88,177.0
843.95,157.0
844.01,183.0
844.07,173.0
844.14,168.0
844.2,156.0
844.26,149.0
844.33,137.0
844.39,133.0
844.45,142.0
844.51,141.0
844.58,126.0
844.64,116.0
844.7,121.0
844.77,133.0
844.83,140.0
844.89,124.0
844.96,119.0
845.02,111.0
845.08,110.0
845.14,121.0
845.21,130.0
845.27,124.0
845.33,111.0
845.4,114.0
845.46,115.0
845.52,108.0
845.59,127.0
845.65,117.0
845.71,123.0
845.77,111.0
845.84,89.0
845.9,100.0
845.96,109.0
846.03,119.0
846.09,119.0
846.15,110.0
846.22,85.0
846.28,97.0
846.34,94.0
846.4,76.0
846.47,74.0
846.53,75.0
846.59,67.0
846.66,80.0
846.72,66.0
846.78,45.0
846.85,47.0
846.91,50.0
846.97,39.0
847.03,47.0
847.1,31.0
847.16,45.0
847.22,61.0
847.29,57.0
847.35,59.0
847.41,31.0
847.48,33.0
847.54,25.0
847.6,39.0
847.66,34.0
847.73,36.0
847.79,58.0
847.85,39.0
847.92,44.0
847.98,30.0
848.04,40.0
848.11,45.0
848.17,27.0
848.23,52.0
848.29,34.0
848.36,42.0
848.42,38.0
848.48,41.0
848.55,47.0
848.61,39.0
848.67,50.0
848.74,42.0
848.8,56.0
848.86,63.0
848.92,53.0
848.99,52.0
849.05,61.0
849.11,61.0
849.18,50.0
849.24,44.0
849.3,39.0
849.37,30.0
849.43,31.0
849.49,48.0
849.55,58.0
849.62,52.0
849.68,60.0
849.74,78.0
849.81,75.0
849.87,75.0
849.93,74.0
850.0,60.0
850.06,76.0
850.12,69.0
850.18,82.0
850.25,82.0
850.31,82.0
850.37,99.0
850.44,87.0
850.5,116.0
850.56,113.0
850.63,94.0
850.69,113.0
850.75,97.0
850.81,104.0
850.88,111.0
850.94,102.0
851.0,110.0
851.07,119.0
851.13,111.0
851.19,111.0
851.26,115.0
851.32,116.0
851.38,118.0
851.44,123.0
851.51,127.0
851.57,104.0
851.63,100.0
851.7,107.0
851.76,97.0
851.82,101.0
851.89,122.0
851.95,118.0
852.01,112.0
852.07,133.0
852.14,111.0
852.2,113.0
852.26,114.0
852.33,110.0
852.39,116.0
852.45,105.0
852.52,117.0
852.58,114.0
852.64,112.0
852.7,110.0
852.77,118.0
852.83,107.0
852.89,106.0
852.96,108.0
853.02,96.0
853.08,99.0
853.15,94.0
853.21,108.0
853.27,102.0
853.33,100.0
853.4,104.0
853.46,89.0
853.52,122.0
853.59,81.0
853.65,93.0
853.71,98.0
853.78,82.0
853.84,95.0
853.9,94.0
853.96,92.0
854.03,83.0
854.09,90.0
854.15,98.0
854.22,95.0
854.28,89.0
854.34,93.0
854.41,102.0
854.47,116.0
854.53,112.0
854.59,97.0
854.66,105.0
854.72,125.0
854.78,125.0
854.85,126.0
854.91,132.0
854.97,132.0
855.04,129.0
855.1,141.0
855.16,136.0
855.22,116.0
855.29,125.0
855.35,137.0
855.41,138.0
855.48,136.0
855.54,144.0
855.6,136.0
855.67,134.0
855.73,145.0
855.79,147.0
855.85,135.0
855.92,127.0
855.98,134.0
856.04,100.0
856.11,119.0
856.17,129.0
856.23,138.0
856.3,149.0
856.36,148.0
856.42,155.0
856.48,143.0
856.55,135.0
856.61,152.0
856.67,148.0
856.74,155.0
856.8,160.0
856.86,175.0
856.93,173.0
856.99,180.0
857.05,177.0
857.11,179.0
857.18,173.0
857.24,166.0
857.3,184.0
857.37,181.0
857.43,184.0
857.49,179.0
857.56,186.0
857.62,175.0
857.68,161.0
857.74,162.0
857.81,173.0
857.87,196.0
857.93,186.0
858.0,202.0
858.06,196.0
858.12,188.0
858.19,195.0
858.25,199.0
858.31,182.0
858.37,184.0
858.44,188.0
858.5,176.0
858.56,182.0
858.63,177.0
858.69,187.0
858.75,183.0
858.82,185.0
858.88,188.0
858.94,197.0
859.0,187.0
859.07,173.0
859.13,162.0
859.19,143.0
859.26,166.0
859.32,157.0
859.38,141.0
859.45,165.0
859.51,175.0
859.57,183.0
859.63,176.0
859.7,175.0
859.76,173.0
859.82,170.0
859.89,174.0
859.95,176.0
860.01,183.0
860.08,198.0
860.14,187.0
860.2,177.0
860.26,206.0
860.33,211.0
860.39,212.0
860.45,227.0
860.52,202.0
860.58,176.0
860.64,198.0
860.71,210.0
860.77,211.0
860.83,215.0
860.89,207.0
860.96,219.0
861.02,221.0
861.08,198.0
861.15,193.0
861.21,206.0
861.27,194.0
861.34,195.0
861.4,184.0
861.46,171.0
861.52,176.0
861.59,172.0
861.65,180.0
861.71,161.0
861.78,163.0
861.84,165.0
861.9,193.0
861.97,155.0
862.03,165.0
862.09,152.0
862.15,155.0
862.22,163.0
862.28,152.0
862.34,143.0
862.41,143.0
862.47,151.0
862.53,144.0
862.6,134.0
862.66,136.0
862.72,146.0
862.78,115.0
862.85,103.0
862.91,121.0
862.97,120.0
863.04,114.0
863.1,119.0
863.16,118.0
863.23,124.0
863.29,110.0
863.35,137.0
863.41,122.0
863.48,115.0
863.54,113.0
863.6,105.0
863.67,124.0
863.73,127.0
863.79,137.0
863.86,127.0
863.92,123.0
863.98,111.0
864.04,101.0
864.11,107.0
864.17,81.0
864.23,89.0
864.3,93.0
864.36,87.0
864.42,89.0
864.49,77.0
864.55,65.0
864.61,61.0
864.67,64.0
864.74,66.0
864.8,77.0
864.86,74.0
864.93,61.0
864.99,65.0
865.05,77.0
865.12,101.0
865.18,76.0
865.24,62.0
865.3,75.0
865.37,107.0
865.43,97.0
865.49,95.0
865.56,106.0
865.62,101.0
865.68,97.0
865.75,110.0
865.81,115.0
865.87,99.0
865.93,105.0
866.0,115.0
866.06,100.0
866.12,114.0
866.19,116.0
866.25,122.0
866.31,125.0
866.38,136.0
866.44,133.0
866.5,150.0
866.56,129.0
866.63,123.0
866.69,136.0
866.75,126.0
866.82,130.0
866.88,141.0
866.94,144.0
867.01,126.0
867.07,115.0
867.13,119.0
867.19,133.0
867.26,128.0
867.32,128.0
867.38,135.0
867.45,118.0
867.51,138.0
867.57,121.0
867.64,95.0
867.7,116.0
867.76,109.0
867.82,126.0
867.89,107.0
867.95,103.0
868.01,117.0
868.08,102.0
868.14,103.0
868.2,117.0
868.27,99.0
868.33,105.0
868.39,118.0
868.45,102.0
868.52,104.0
868.58,113.0
868.64,116.0
868.71,121.0
868.77,116.0
868.83,104.0
868.9,107.0
868.96,113.0
869.02,88.0
869.08,83.0
869.15,93.0
869.21,82.0
869.27,87.0
869.34,96.0
869.4,91.0
869.46,91.0
869.53,85.0
869.59,82.0
869.65,108.0
869.71,101.0
869.78,99.0
869.84,67.0
869.9,73.0
869.97,86.0
870.03,77.0
870.09,82.0
870.16,107.0
870.22,100.0
870.28,103.0
870.34,97.0
870.41,105.0
870.47,113.0
870.53,125.0
870.6,110.0
870.66,111.0
870.72,123.0
870.79,107.0
870.85,105.0
870.91,110.0
870.97,105.0
871.04,113.0
871.1,116.0
871.16,102.0
871.23,113.0
871.29,94.0
871.35,99.0
871.42,92.0
871.48,91.0
871.54,95.0
871.6,103.0
871.67,105.0
871.73,104.0
871.79,116.0
871.86,111.0
871.92,111.0
871.98,113.0
872.05,119.0
872.11,102.0
872.17,105.0
872.23,126.0
872.3,107.0
872.36,97.0
872.42,110.0
872.49,100.0
872.55,106.0
872.61,121.0
872.68,97.0
872.74,101.0
872.8,105.0
872.86,89.0
872.93,95.0
872.99,96.0
873.05,97.0
873.12,109.0
873.18,103.0
873.24,95.0
873.31,95.0
873.37,82.0
873.43,107.0
873.49,113.0
873.56,89.0
873.62,104.0
873.68,97.0
873.75,93.0
873.81,85.0
873.87,78.0
873.94,92.0
874.0,108.0
874.06,89.0
874.12,81.0
874.19,85.0
874.25,79.0
874.31,80.0
874.38,102.0
874.44,97.0
874.5,94.0
874.57,87.0
874.63,104.0
874.69,86.0
874.75,109.0
874.82,106.0
874.88,110.0
874.94,115.0
875.01,127.0
875.07,107.0
875.13,104.0
875.2,115.0
875.26,115.0
875.32,126.0
875.38,112.0
875.45,115.0
875.51,118.0
875.57,108.0
875.64,139.0
875.7,128.0
875.76,130.0
875.83,118.0
875.89,126.0
875.95,155.0
876.01,152.0
876.08,143.0
876.14,146.0
876.2,122.0
876.27,127.0
876.33,152.0
876.39,151.0
876.46,138.0
876.52,139.0
876.58,134.0
876.64,138.0
876.71,165.0
876.77,154.0
876.83,146.0
876.9,148.0
876.96,138.0
877.02,137.0
877.09,167.0
877.15,145.0
877.21,146.0
877.27,162.0
877.34,142.0
877.4,154.0
877.46,140.0
877.53,148.0
877.59,148.0
877.65,126.0
877.72,126.0
877.78,142.0
877.84,129.0
877.9,126.0
877.97,119.0
878.03,108.0
878.09,140.0
878.16,125.0
878.22,122.0
878.28,112.0
878.35,110.0
878.41,100.0
878.47,112.0
878.53,126.0
878.6,119.0
878.66,126.0
878.72,118.0
878.79,118.0
878.85,100.0
878.91,95.0
878.98,136.0
879.04,127.0
879.1,111.0
879.16,96.0
879.23,95.0
879.29,118.0
879.35,117.0
879.42,99.0
879.48,92.0
879.54,118.0
879.61,104.0
879.67,96.0
879.73,97.0
879.79,110.0
879.86,105.0
879.92,115.0
879.98,101.0
880.05,97.0
880.11,100.0
880.17,103.0
880.24,104.0
880.3,98.0
880.36,111.0
880.42,125.0
880.49,125.0
880.55,106.0
880.61,104.0
880.68,95.0
880.74,91.0
880.8,74.0
880.87,88.0
880.93,93.0
880.99,81.0
881.05,62.0
881.12,49.0
881.18,62.0
881.24,83.0
881.31,74.0
881.37,80.0
881.43,97.0
881.5,85.0
881.56,95.0
881.62,93.0
881.68,84.0
881.75,96.0
881.81,97.0
881.87,92.0
881.94,102.0
882.0,115.0
882.06,113.0
882.13,105.0
882.19,100.0
882.25,82.0
882.31,86.0
882.38,93.0
882.44,87.0
882.5,86.0
882.57,103.0
882.63,107.0
882.69,107.0
882.76,99.0
882.82,94.0
882.88,87.0
882.94,97.0
883.01,88.0
883.07,82.0
883.13,91.0
883.2,104.0
883.26,88.0
883.32,82.0
883.39,107.0
883.45,110.0
883.51,97.0
883.57,121.0
883.64,114.0
883.7,117.0
883.76,122.0
883.83,114.0
883.89,113.0
883.95,128.0
884.02,124.0
884.08,119.0
884.14,110.0
884.2,116.0
884.27,100.0
884.33,103.0
884.39,92.0
884.46,86.0
884.52,96.0
884.58,88.0
884.65,89.0
884.71,98.0
884.77,98.0
884.83,105.0
884.9,93.0
884.96,85.0
885.02,103.0
885.09,106.0
885.15,85.0
885.21,88.0
885.28,100.0
885.34,113.0
885.4,140.0
885.46,83.0
885.53,81.0
885.59,83.0
885.65,102.0
885.72,111.0
885.78,83.0
885.84,92.0
885.91,82.0
885.97,95.0
886.03,89.0
886.09,94.0
886.16,111.0
886.22,107.0
886.28,110.0
886.35,106.0
886.41,102.0
886.47,104.0
886.54,122.0
886.6,103.0
886.66,87.0
886.72,104.0
886.79,85.0
886.85,107.0
886.91,104.0
886.98,111.0
887.04,108.0
887.1,85.0
887.17,97.0
887.23,107.0
887.29,129.0
887.35,136.0
887.42,131.0
887.48,117.0
887.54,133.0
887.61,130.0
887.67,134.0
887.73,117.0
887.8,119.0
887.86,113.0
887.92,128.0
887.98,136.0
888.05,121.0
888.11,125.0
888.17,145.0
888.24,136.0
888.3,137.0
888.36,117.0
888.43,114.0
888.49,132.0
888.55,145.0
888.61,124.0
888.68,135.0
888.74,135.0
888.8,147.0
888.87,164.0
888.93,162.0
888.99,155.0
889.06,155.0
889.12,163.0
889.18,181.0
889.24,188.0
889.31,166.0
889.37,174.0
889.43,179.0
889.5,188.0
889.56,195.0
889.62,186.0
889.69,197.0
889.75,173.0
889.81,157.0
889.87,169.0
889.94,157.0
890.0,151.0
890.06,135.0
890.13,131.0
890.19,153.0
890.25,162.0
890.32,162.0
890.38,136.0
890.44,160.0
890.5,175.0
890.57,171.0
890.63,160.0
890.69,172.0
890.76,169.0
890.82,190.0
890.88,166.0
890.95,174.0
891.01,169.0
891.07,180.0
891.13,176.0
891.2,180.0
891.26,197.0
891.32,202.0
891.39,193.0
891.45,187.0
891.51,184.0
891.58,201.0
891.64,192.0
891.7,193.0
891.76,226.0
891.83,213.0
891.89,205.0
891.95,196.0
892.02,202.0
892.08,195.0
892.14,186.0
892.21,196.0
892.27,190.0
892.33,195.0
892.39,169.0
892.46,174.0
892.52,192.0
892.58,187.0
892.65,198.0
892.71,206.0
892.77,196.0
892.84,181.0
892.9,175.0
892.96,155.0
893.02,161.0
893.09,158.0
893.15,144.0
893.21,147.0
893.28,135.0
893.34,147.0
893.4,154.0
893.47,154.0
893.53,169.0
893.59,140.0
893.65,138.0
893.72,122.0
893.78,124.0
893.84,129.0
893.91,133.0
893.97,113.0
894.03,116.0
894.1,144.0
894.16,154.0
894.22,139.0
894.28,140.0
894.35,135.0
894.41,122.0
894.47,137.0
894.54,136.0
894.6,136.0
894.66,134.0
894.73,138.0
894.79,152.0
894.85,168.0
894.91,175.0
894.98,172.0
895.04,152.0
895.1,130.0
895.17,125.0
895.23,133.0
895.29,136.0
895.36,128.0
895.42,143.0
895.48,113.0
895.54,119.0
895.61,123.0
895.67,126.0
895.73,127.0
895.8,122.0
895.86,135.0
895.92,133.0
895.99,122.0
896.05,104.0
896.11,118.0
896.17,118.0
896.24,103.0
896.3,135.0
896.36,109.0
896.43,102.0
896.49,98.0
896.55,80.0
896.62,105.0
896.68,99.0
896.74,101.0
896.8,85.0
896.87,85.0
896.93,102.0
896.99,80.0
897.06,77.0
897.12,63.0
897.18,60.0
897.25,70.0
897.31,63.0
897.37,53.0
897.43,48.0
897.5,47.0
897.56,60.0
897.62,54.0
897.69,78.0
897.75,52.0
897.81,44.0
897.88,30.0
897.94,47.0
898.0,42.0
898.06,34.0
898.13,39.0
898.19,37.0
898.25,31.0
898.32,25.0
898.38,35.0
898.44,30.0
898.51,29.0
898.57,41.0
898.63,38.0
898.69,22.0
898.76,19.0
898.82,26.0
898.88,40.0
898.95,42.0
899.01,43.0
899.07,26.0
899.14,38.0
899.2,34.0
899.26,36.0
899.32,29.0
899.39,37.0
899.45,33.0
899.51,44.0
899.58,30.0
899.64,44.0
899.7,48.0
899.77,41.0
899.83,31.0
899.89,54.0
899.95,57.0
900.02,39.0
900.08,45.0
900.14,62.0
900.21,53.0
900.27,63.0
900.33,52.0
900.4,48.0
900.46,53.0
900.52,71.0
900.58,62.0
900.65,28.0
900.71,36.0
900.77,47.0
900.84,51.0
900.9,67.0
900.96,64.0
901.03,64.0
901.09,83.0
901.15,81.0
901.21,82.0
901.28,92.0
901.34,91.0
901.4,95.0
901.47,105.0
901.53,114.0
901.59,110.0
901.66,94.0
901.72,85.0
901.78,88.0
901.84,82.0
901.91,42.0
901.97,61.0
902.03,67.0
902.1,75.0
902.16,83.0
902.22,77.0
902.29,63.0
902.35,84.0
902.41,69.0
902.47,67.0
902.54,71.0
902.6,56.0
902.66,63.0
902.73,62.0
902.79,64.0
902.85,70.0
902.92,75.0
902.98,90.0
903.04,89.0
903.1,93.0
903.17,90.0
903.23,102.0
903.29,107.0
903.36,86.0
903.42,78.0
903.48,82.0
903.55,83.0
903.61,82.0
903.67,97.0
903.73,100.0
903.8,103.0
903.86,80.0
903.92,83.0
903.99,80.0
904.05,90.0
904.11,80.0
904.18,68.0
904.24,92.0
904.3,88.0
904.36,75.0
904.43,67.0
904.49,65.0
904.55,106.0
904.62,93.0
904.68,104.0
904.74,96.0
904.81,110.0
904.87,105.0
904.93,104.0
904.99,93.0
905.06,100.0
905.12,93.0
905.18,114.0
905.25,117.0
905.31,126.0
905.37,141.0
905.44,144.0
905.5,133.0
905.56,143.0
905.62,128.0
905.69,144.0
905.75,146.0
905.81,132.0
905.88,170.0
905.94,141.0
906.0,145.0
906.07,158.0
906.13,164.0
906.19,145.0
906.25,141.0
906.32,136.0
906.38,140.0
906.44,144.0
906.51,152.0
906.57,151.0
906.63,151.0
906.7,160.0
906.76,161.0
906.82,174.0
906.88,166.0
906.95,157.0
907.01,165.0
907.07,184.0
907.14,171.0
907.2,184.0
907.26,199.0
907.33,201.0
907.39,177.0
907.45,197.0
907.51,207.0
907.58,180.0
907.64,195.0
907.7,180.0
907.77,171.0
907.83,180.0
907.89,178.0
907.96,176.0
908.02,185.0
908.08,162.0
908.14,192.0
908.21,174.0
908.27,173.0
908.33,177.0
908.4,171.0
908.46,187.0
908.52,197.0
908.59,210.0
908.65,217.0
908.71,188.0
908.77,197.0
908.84,192.0
908.9,187.0
908.96,188.0
909.03,201.0
909.09,206.0
909.15,203.0
909.22,202.0
909.28,175.0
909.34,168.0
909.4,193.0
909.47,206.0
909.53,201.0
909.59,187.0
909.66,171.0
909.72,157.0
909.78,177.0
909.85,182.0
909.91,195.0
909.97,183.0
910.03,193.0
910.1,191.0
910.16,207.0
910.22,196.0
910.29,184.0
910.35,192.0
910.41,181.0
910.48,160.0
910.54,153.0
910.6,155.0
910.66,153.0
910.73,176.0
910.79,147.0
910.85,185.0
910.92,162.0
910.98,162.0
911.04,168.0
911.11,170.0
911.17,157.0
911.23,160.0
911.29,198.0
911.36,173.0
911.42,170.0
911.48,172.0
911.55,176.0
911.61,179.0
911.67,182.0
911.74,188.0
911.8,174.0
911.86,155.0
911.92,162.0
911.99,166.0
912.05,179.0
912.11,169.0
912.18,181.0
912.24,184.0
912.3,154.0
912.37,158.0
912.43,170.0
912.49,143.0
912.55,135.0
912.62,163.0
912.68,143.0
912.74,141.0
912.81,137.0
912.87,127.0
912.93,143.0
913.0,129.0
913.06,111.0
913.12,105.0
913.18,103.0
913.25,101.0
913.31,116.0
913.37,110.0
913.44,107.0
913.5,96.0
913.56,98.0
913.63,105.0
913.69,88.0
913.75,102.0
913.81,107.0
913.88,107.0
913.94,80.0
914.0,68.0
914.07,71.0
914.13,76.0
914.19,79.0
914.26,92.0
914.32,85.0
914.38,83.0
914.44,71.0
914.51,78.0
914.57,89.0
914.63,96.0
914.7,116.0
914.76,94.0
914.82,93.0
914.89,105.0
914.95,125.0
915.01,121.0
915.07,103.0
915.14,109.0
915.2,117.0
915.26,101.0
915.33,96.0
915.39,82.0
915.45,91.0
915.52,95.0
915.58,74.0
915.64,74.0
915.7,69.0
915.77,77.0
915.83,72.0
915.89,83.0
915.96,80.0
916.02,96.0
916.08,90.0
916.15,86.0
916.21,80.0
916.27,89.0
916.33,98.0
916.4,110.0
916.46,105.0
916.52,74.0
916.59,82.0
916.65,89.0
916.71,75.0
916.78,80.0
916.84,94.0
916.9,100.0
916.96,102.0
917.03,97.0
917.09,112.0
917.15,102.0
917.22,88.0
917.28,80.0
917.34,109.0
917.41,93.0
917.47,69.0
917.53,97.0
917.59,102.0
917.66,106.0
917.72,96.0
917.78,114.0
917.85,121.0
917.91,123.0
917.97,120.0
918.04,135.0
918.1,129.0
918.16,115.0
918.22,135.0
918.29,138.0
918.35,135.0
918.41,115.0
918.48,115.0
918.54,122.0
918.6,104.0
918.67,111.0
918.73,111.0
918.79,123.0
918.85,125.0
918.92,103.0
918.98,121.0
919.04,98.0
919.11,85.0
919.17,99.0
919.23,100.0
919.3,90.0
919.36,77.0
919.42,91.0
919.48,89.0
919.55,83.0
919.61,87.0
919.67,85.0
919.74,74.0
919.8,74.0
919.86,71.0
919.93,88.0
919.99,86.0
920.05,76.0
920.11,74.0
920.18,75.0
920.24,81.0
920.3,71.0
920.37,68.0
920.43,82.0
920.49,93.0
920.56,84.0
920.62,93.0
920.68,98.0
920.74,75.0
920.81,78.0
920.87,82.0
920.93,87.0
921.0,76.0
921.06,77.0
921.12,85.0
921.19,89.0
921.25,93.0
921.31,122.0
921.37,119.0
921.44,107.0
921.5,103.0
921.56,99.0
921.63,101.0
921.69,96.0
921.75,122.0
921.82,130.0
921.88,134.0
921.94,146.0
922.0,138.0
922.07,136.0
922.13,159.0
922.19,137.0
922.26,163.0
922.32,149.0
922.38,160.0
922.45,144.0
922.51,152.0
922.57,162.0
922.63,158.0
922.7,166.0
922.76,163.0
922.82,151.0
922.89,143.0
922.95,147.0
923.01,150.0
923.08,151.0
923.14,135.0
923.2,161.0
923.26,178.0
923.33,151.0
923.39,177.0
923.45,176.0
923.52,175.0
923.58,173.0
923.64,156.0
923.71,193.0
923.77,193.0
923.83,165.0
923.89,163.0
923.96,171.0
924.02,177.0
924.08,166.0
924.15,164.0
924.21,155.0
924.27,140.0
924.34,168.0
924.4,153.0
924.46,152.0
924.52,152.0
924.59,153.0
924.65,154.0
924.71,166.0
924.78,151.0
924.84,155.0
924.9,169.0
924.97,165.0
925.03,169.0
925.09,163.0
925.15,182.0
925.22,198.0
925.28,193.0
925.34,181.0
925.41,195.0
925.47,182.0
925.53,200.0
925.6,201.0
925.66,184.0
925.72,191.0
925.78,184.0
925.85,173.0
925.91,195.0
925.97,193.0
926.04,162.0
926.1,171.0
926.16,183.0
926.23,185.0
926.29,203.0
926.35,218.0
926.41,232.0
926.48,227.0
926.54,242.0
926.6,220.0
926.67,207.0
926.73,240.0
926.79,237.0
926.86,234.0
926.92,248.0
926.98,237.0
927.04,248.0
927.11,251.0
927.17,243.0
927.23,229.0
927.3,245.0
927.36,247.0
927.42,200.0
927.49,236.0
927.55,215.0
927.61,222.0
927.67,225.0
927.74,201.0
927.8,206.0
927.86,198.0
927.93,219.0
927.99,195.0
928.05,198.0
928.12,195.0
928.18,207.0
928.24,211.0
928.3,171.0
928.37,175.0
928.43,194.0
928.49,193.0
928.56,206.0
928.62,217.0
928.68,222.0
928.75,222.0
928.81,210.0
928.87,201.0
928.93,198.0
929.0,206.0
929.06,207.0
929.12,178.0
929.19,183.0
929.25,168.0
929.31,167.0
929.38,199.0
929.44,219.0
929.5,182.0
929.56,200.0
929.63,186.0
929.69,207.0
929.75,188.0
929.82,174.0
929.88,158.0
929.94,160.0
930.01,169.0
930.07,148.0
930.13,162.0
930.19,170.0
930.26,145.0
930.32,134.0
930.38,125.0
930.45,127.0
930.51,133.0
930.57,114.0
930.64,118.0
930.7,121.0
930.76,129.0
930.82,120.0
930.89,124.0
930.95,125.0
931.01,134.0
931.08,113.0
931.14,113.0
931.2,95.0
931.27,97.0
931.33,108.0
931.39,90.0
931.45,90.0
931.52,95.0
931.58,119.0
931.64,107.0
931.71,107.0
931.77,112.0
931.83,113.0
931.9,110.0
931.96,101.0
932.02,109.0
932.08,114.0
932.15,112.0
932.21,94.0
932.27,90.0
932.34,88.0
932.4,96.0
932.46,89.0
932.53,105.0
932.59,100.0
932.65,104.0
932.71,95.0
932.78,92.0
932.84,98.0
932.9,100.0
932.97,74.0
933.03,85.0
933.09,96.0
933.16,74.0
933.22,82.0
933.28,89.0
933.34,75.0
933.41,79.0
933.47,100.0
933.53,88.0
933.6,91.0
933.66,85.0
933.72,77.0
933.79,107.0
933.85,100.0
933.91,107.0
933.97,88.0
934.04,83.0
934.1,90.0
934.16,88.0
934.23,102.0
934.29,92.0
934.35,89.0
934.42,90.0
934.48,98.0
934.54,56.0
934.6,97.0
934.67,64.0
934.73,69.0
934.79,87.0
934.86,88.0
934.92,95.0
934.98,89.0
935.05,87.0
935.11,97.0
935.17,97.0
935.23,107.0
935.3,99.0
935.36,91.0
935.42,94.0
935.49,79.0
935.55,78.0
935.61,89.0
935.68,81.0
935.74,84.0
935.8,74.0
935.86,95.0
935.93,86.0
935.99,96.0
936.05,84.0
936.12,76.0
936.18,85.0
936.24,81.0
936.31,82.0
936.37,84.0
936.43,70.0
936.49,85.0
936.56,78.0
936.62,74.0
936.68,71.0
936.75,72.0
936.81,64.0
936.87,69.0
936.94,78.0
937.0,88.0
937.06,93.0
937.12,78.0
937.19,86.0
937.25,73.0
937.31,78.0
937.38,74.0
937.44,77.0
937.5,73.0
937.57,82.0
937.63,79.0
937.69,80.0
937.75,87.0
937.82,77.0
937.88,70.0
937.94,72.0
938.01,78.0
938.07,101.0
938.13,70.0
938.2,71.0
938.26,85.0
938.32,83.0
938.38,82.0
938.45,76.0
938.51,104.0
938.57,88.0
938.64,94.0
938.7,81.0
938.76,71.0
938.83,67.0
938.89,77.0
938.95,65.0
939.01,61.0
939.08,86.0
939.14,89.0
939.2,67.0
939.27,73.0
939.33,73.0
939.39,66.0
939.46,57.0
939.52,63.0
939.58,61.0
939.64,72.0
939.71,74.0
939.77,75.0
939.83,77.0
939.9,89.0
939.96,72.0
940.02,60.0
940.09,74.0
940.15,71.0
940.21,76.0
940.27,85.0
940.34,84.0
940.4,81.0
940.46,66.0
940.53,77.0
940.59,73.0
940.65,61.0
940.72,83.0
940.78,69.0
940.84,86.0
940.9,93.0
940.97,116.0
941.03,97.0
941.09,89.0
941.16,103.0
941.22,100.0
941.28,102.0
941.35,92.0
941.41,86.0
941.47,78.0
941.53,88.0
941.6,78.0
941.66,73.0
941.72,94.0
941.79,86.0
941.85,97.0
941.91,93.0
941.98,100.0
942.04,93.0
942.1,111.0
942.16,107.0
942.23,101.0
942.29,99.0
942.35,103.0
942.42,102.0
942.48,104.0
942.54,118.0
942.61,106.0
942.67,121.0
942.73,102.0
942.79,113.0
942.86,111.0
942.92,92.0
942.98,104.0
943.05,100.0
943.11,105.0
943.17,111.0
943.24,120.0
943.3,129.0
943.36,124.0
943.42,125.0
943.49,151.0
943.55,159.0
943.61,157.0
943.68,167.0
943.74,180.0
943.8,175.0
943.87,168.0
943.93,173.0
943.99,178.0
944.05,181.0
944.12,183.0
944.18,173.0
944.24,164.0
944.31,151.0
944.37,172.0
944.43,179.0
944.5,173.0
944.56,176.0
944.62,171.0
944.68,180.0
944.75,162.0
944.81,162.0
944.87,188.0
944.94,178.0
945.0,170.0
945.06,189.0
945.13,163.0
945.19,170.0
945.25,173.0
945.31,164.0
945.38,167.0
945.44,198.0
945.5,169.0
945.57,162.0
945.63,143.0
945.69,151.0
945.76,169.0
945.82,165.0
945.88,171.0
945.94,161.0
946.01,145.0
946.07,153.0
946.13,138.0
946.2,158.0
946.26,155.0
946.32,142.0
946.39,158.0
946.45,169.0
946.51,164.0
946.57,147.0
946.64,144.0
946.7,133.0
946.76,140.0
946.83,135.0
946.89,140.0
946.95,137.0
947.02,135.0
947.08,111.0
947.14,111.0
947.2,106.0
947.27,124.0
947.33,137.0
947.39,129.0
947.46,136.0
947.52,129.0
947.58,114.0
947.65,130.0
947.71,131.0
947.77,121.0
947.83,130.0
947.9,120.0
947.96,120.0
948.02,118.0
948.09,108.0
948.15,94.0
948.21,96.0
948.28,84.0
948.34,85.0
948.4,93.0
948.46,72.0
948.53,88.0
948.59,80.0
948.65,88.0
948.72,84.0
948.78,100.0
948.84,104.0
948.91,94.0
948.97,98.0
949.03,91.0
949.09,96.0
949.16,105.0
949.22,96.0
949.28,91.0
949.35,111.0
949.41,97.0
949.47,116.0
949.54,112.0
949.6,104.0
949.66,114.0
949.72,110.0
949.79,99.0
949.85,83.0
949.91,72.0
949.98,82.0
950.04,77.0
950.1,92.0
950.17,85.0
950.23,95.0
950.29,99.0
950.35,74.0
950.42,85.0
950.48,90.0
950.54,82.0
950.61,105.0
950.67,114.0
950.73,114.0
950.8,125.0
950.86,112.0
950.92,118.0
950.98,115.0
951.05,129.0
951.11,136.0
951.17,125.0
951.24,120.0
951.3,127.0
951.36,123.0
951.43,110.0
951.49,133.0
951.55,137.0
951.61,140.0
951.68,135.0
951.74,134.0
951.8,138.0
951.87,122.0
951.93,129.0
951.99,148.0
952.06,129.0
952.12,124.0
952.18,122.0
952.24,141.0
952.31,119.0
952.37,118.0
952.43,101.0
952.5,89.0
952.56,104.0
952.62,106.0
952.69,109.0
952.75,90.0
952.81,100.0
952.87,116.0
952.94,111.0
953.0,126.0
953.06,136.0
953.13,131.0
953.19,140.0
953.25,153.0
953.32,135.0
953.38,121.0
953.44,129.0
953.5,135.0
953.57,135.0
953.63,150.0
953.69,157.0
953.76,153.0
953.82,143.0
953.88,146.0
953.95,140.0
954.01,151.0
954.07,142.0
954.13,149.0
954.2,134.0
954.26,143.0
954.32,130.0
954.39,135.0
954.45,144.0
954.51,113.0
954.58,104.0
954.64,116.0
954.7,117.0
954.76,135.0
954.83,127.0
954.89,126.0
954.95,127.0
955.02,133.0
955.08,132.0
955.14,121.0
955.21,114.0
955.27,131.0
955.33,157.0
955.39,152.0
955.46,164.0
955.52,151.0
955.58,141.0
955.65,151.0
955.71,157.0
955.77,159.0
955.84,170.0
955.9,180.0
955.96,146.0
956.02,148.0
956.09,150.0
956.15,156.0
956.21,146.0
956.28,151.0
956.34,144.0
956.4,144.0
956.47,134.0
956.53,137.0
956.59,132.0
956.65,159.0
956.72,151.0
956.78,163.0
956.84,167.0
956.91,164.0
956.97,144.0
957.03,132.0
957.1,154.0
957.16,129.0
957.22,127.0
957.28,123.0
957.35,135.0
957.41,146.0
957.47,134.0
957.54,146.0
957.6,135.0
957.66,131.0
957.73,130.0
957.79,125.0
957.85,133.0
957.91,129.0
957.98,139.0
958.04,141.0
958.1,138.0
958.17,131.0
958.23,133.0
958.29,149.0
958.36,155.0
958.42,158.0
958.48,140.0
958.54,133.0
958.61,118.0
958.67,151.0
958.73,162.0
958.8,174.0
958.86,162.0
958.92,168.0
958.99,173.0
959.05,169.0
959.11,188.0
959.17,177.0
959.24,174.0
959.3,176.0
959.36,168.0
959.43,176.0
959.49,179.0
959.55,177.0
959.62,187.0
959.68,179.0
959.74,196.0
959.8,202.0
959.87,203.0
959.93,215.0
959.99,217.0
960.06,217.0
960.12,215.0
960.18,221.0
960.25,204.0
960.31,226.0
960.37,224.0
960.43,215.0
960.5,199.0
960.56,196.0
960.62,213.0
960.69,216.0
960.75,221.0
960.81,230.0
960.88,209.0
960.94,203.0
961.0,211.0
961.06,204.0
961.13,224.0
961.19,212.0
961.25,182.0
961.32,198.0
961.38,184.0
961.44,203.0
961.51,208.0
961.57,206.0
961.63,186.0
961.69,199.0
961.76,184.0
961.82,172.0
961.88,169.0
961.95,188.0
962.01,198.0
962.07,182.0
962.14,200.0
962.2,204.0
962.26,209.0
962.32,196.0
962.39,187.0
962.45,202.0
962.51,178.0
962.58,198.0
962.64,202.0
962.7,184.0
962.77,192.0
962.83,178.0
962.89,192.0
962.95,187.0
963.02,179.0
963.08,175.0
963.14,166.0
963.21,169.0
963.27,166.0
963.33,179.0
963.4,185.0
963.46,202.0
963.52,184.0
963.58,172.0
963.65,179.0
963.71,170.0
963.77,165.0
963.84,167.0
963.9,163.0
963.96,166.0
964.03,158.0
964.09,166.0
964.15,175.0
964.21,176.0
964.28,162.0
964.34,132.0
964.4,136.0
964.47,135.0
964.53,141.0
964.59,125.0
964.66,118.0
964.72,112.0
964.78,93.0
964.84,106.0
964.91,111.0
964.97,92.0
965.03,107.0
965.1,91.0
965.16,73.0
965.22,59.0
965.29,77.0
965.35,74.0
965.41,58.0
965.47,78.0
965.54,76.0
965.6,81.0
965.66,81.0
965.73,84.0
965.79,94.0
965.85,64.0
965.92,71.0
965.98,78.0
966.04,93.0
966.1,97.0
966.17,79.0
966.23,90.0
966.29,77.0
966.36,85.0
966.42,89.0
966.48,83.0
966.55,108.0
966.61,85.0
966.67,88.0
966.73,89.0
966.8,86.0
966.86,85.0
966.92,83.0
966.99,78.0
967.05,89.0
967.11,112.0
967.18,121.0
967.24,123.0
967.3,111.0
967.36,126.0
967.43,125.0
967.49,129.0
967.55,110.0
967.62,113.0
967.68,119.0
967.74,130.0
967.81,129.0
967.87,133.0
967.93,138.0
967.99,126.0
968.06,136.0
968.12,143.0
968.18,140.0
968.25,143.0
968.31,144.0
968.37,159.0
968.44,159.0
968.5,159.0
968.56,157.0
968.62,141.0
968.69,130.0
968.75,142.0
968.81,135.0
968.88,136.0
968.94,161.0
969.0,148.0
969.07,143.0
969.13,138.0
969.19,124.0
969.25,126.0
969.32,115.0
969.38,125.0
969.44,140.0
969.51,129.0
969.57,123.0
969.63,111.0
969.7,103.0
969.76,107.0
969.82,116.0
969.88,116.0
969.95,119.0
970.01,108.0
970.07,99.0
970.14,120.0
970.2,119.0
970.26,126.0
970.33,131.0
970.39,111.0
970.45,97.0
970.51,100.0
970.58,97.0
970.64,96.0
970.7,139.0
970.77,101.0
970.83,99.0
970.89,104.0
970.96,97.0
971.02,97.0
971.08,100.0
971.14,98.0
971.21,92.0
971.27,91.0
971.33,114.0
971.4,95.0
971.46,104.0
971.52,94.0
971.59,100.0
971.65,124.0
971.71,110.0
971.77,131.0
971.84,115.0
971.9,108.0
971.96,116.0
972.03,103.0
972.09,114.0
972.15,108.0
972.22,96.0
972.28,97.0
972.34,126.0
972.4,116.0
972.47,112.0
972.53,126.0
972.59,124.0
972.66,123.0
972.72,131.0
972.78,134.0
972.85,119.0
972.91,127.0
972.97,124.0
973.03,126.0
973.1,127.0
973.16,115.0
973.22,124.0
973.29,104.0
973.35,134.0
973.41,138.0
973.48,122.0
973.54,143.0
973.6,140.0
973.66,154.0
973.73,151.0
973.79,138.0
973.85,163.0
973.92,157.0
973.98,158.0
974.04,155.0
974.11,151.0
974.17,153.0
974.23,157.0
974.29,142.0
974.36,136.0
974.42,159.0
974.48,149.0
974.55,129.0
974.61,143.0
974.67,149.0
974.74,128.0
974.8,135.0
974.86,138.0
974.92,144.0
974.99,156.0
975.05,169.0
975.11,164.0
975.18,164.0
975.24,162.0
975.3,182.0
975.37,190.0
975.43,177.0
975.49,177.0
975.55,174.0
975.62,163.0
975.68,167.0
975.74,168.0
975.81,152.0
975.87,138.0
975.93,157.0
976.0,154.0
976.06,140.0
976.12,148.0
976.18,171.0
976.25,151.0
976.31,164.0
976.37,199.0
976.44,179.0
976.5,170.0
976.56,199.0
976.63,192.0
976.69,178.0
976.75,173.0
976.81,174.0
976.88,160.0
976.94,158.0
977.0,176.0
977.07,157.0
977.13,161.0
977.19,156.0
977.26,164.0
977.32,140.0
977.38,152.0
977.44,153.0
977.51,151.0
977.57,171.0
977.63,154.0
977.7,173.0
977.76,202.0
977.82,194.0
977.89,191.0
977.95,199.0
978.01,193.0
978.07,195.0
978.14,200.0
978.2,195.0
978.26,196.0
978.33,185.0
978.39,202.0
978.45,196.0
978.52,194.0
978.58,191.0
978.64,190.0
978.7,207.0
978.77,191.0
978.83,179.0
978.89,196.0
978.96,192.0
979.02,204.0
979.08,184.0
979.15,200.0
979.21,195.0
979.27,195.0
979.33,202.0
979.4,190.0
979.46,184.0
979.52,190.0
979.59,182.0
979.65,161.0
979.71,161.0
979.78,157.0
979.84,165.0
979.9,158.0
979.96,133.0
980.03,143.0
980.09,118.0
980.15,135.0
980.22,129.0
980.28,158.0
980.34,146.0
980.41,154.0
980.47,149.0
980.53,127.0
980.59,140.0
980.66,144.0
980.72,144.0
980.78,140.0
980.85,138.0
980.91,128.0
980.97,122.0
981.04,130.0
981.1,124.0
981.16,125.0
981.22,110.0
981.29,107.0
981.35,112.0
981.41,105.0
981.48,86.0
981.54,72.0
981.6,78.0
981.67,58.0
981.73,75.0
981.79,86.0
981.85,79.0
981.92,74.0
981.98,69.0
982.04,57.0
982.11,69.0
982.17,84.0
982.23,95.0
982.3,80.0
982.36,82.0
982.42,69.0
982.48,76.0
982.55,71.0
982.61,71.0
982.67,96.0
982.74,84.0
982.8,83.0
982.86,80.0
982.93,72.0
982.99,69.0
983.05,74.0
983.11,91.0
983.18,80.0
983.24,77.0
983.3,59.0
983.37,75.0
983.43,43.0
983.49,47.0
983.56,49.0
983.62,45.0
983.68,49.0
983.74,47.0
983.81,48.0
983.87,72.0
983.93,68.0
984.0,60.0
984.06,59.0
984.12,78.0
984.19,63.0
984.25,72.0
984.31,95.0
984.37,89.0
984.44,90.0
984.5,91.0
984.56,67.0
984.63,87.0
984.69,81.0
984.75,86.0
984.82,62.0
984.88,84.0
984.94,77.0
985.0,68.0
985.07,56.0
985.13,77.0
985.19,65.0
985.26,55.0
985.32,65.0
985.38,50.0
985.45,56.0
985.51,56.0
985.57,49.0
985.63,43.0
985.7,46.0
985.76,39.0
985.82,53.0
985.89,44.0
985.95,42.0
986.01,39.0
986.08,49.0
986.14,34.0
986.2,12.0
986.26,22.0
986.33,41.0
986.39,43.0
986.45,45.0
986.52,44.0
986.58,59.0
986.64,35.0
986.71,37.0
986.77,41.0
986.83,23.0
986.89,38.0
986.96,27.0
987.02,25.0
987.08,28.0
987.15,29.0
987.21,24.0
987.27,21.0
987.34,23.0
987.4,33.0
987.46,33.0
987.52,9.0
987.59,29.0
987.65,45.0
987.71,50.0
987.78,37.0
987.84,24.0
987.9,36.0
987.97,31.0
988.03,28.0
988.09,39.0
988.15,29.0
988.22,33.0
988.28,15.0
988.34,28.0
988.41,44.0
988.47,41.0
988.53,47.0
988.6,55.0
988.66,52.0
988.72,64.0
988.78,67.0
988.85,75.0
988.91,63.0
988.97,49.0
989.04,52.0
989.1,67.0
989.16,52.0
989.23,77.0
989.29,74.0
989.35,83.0
989.41,78.0
989.48,78.0
989.54,77.0
989.6,72.0
989.67,67.0
989.73,64.0
989.79,59.0
989.86,63.0
989.92,74.0
989.98,60.0
990.04,55.0
990.11,45.0
990.17,56.0
990.23,52.0
990.3,54.0
990.36,42.0
990.42,48.0
990.49,61.0
990.55,59.0
990.61,50.0
990.67,44.0
990.74,56.0
990.8,39.0
990.86,56.0
990.93,83.0
990.99,62.0
991.05,71.0
991.12,91.0
991.18,76.0
991.24,53.0
991.3,54.0
991.37,57.0
991.43,57.0
991.49,55.0
991.56,43.0
991.62,56.0
991.68,66.0
991.75,59.0
991.81,76.0
991.87,75.0
991.93,67.0
992.0,80.0
992.06,63.0
992.12,101.0
992.19,91.0
992.25,75.0
992.31,83.0
992.38,78.0
992.44,90.0
992.5,98.0
992.56,89.0
992.63,115.0
992.69,121.0
992.75,123.0
992.82,127.0
992.88,132.0
992.94,141.0
993.01,147.0
993.07,127.0
993.13,124.0
993.19,118.0
993.26,129.0
993.32,133.0
993.38,130.0
993.45,152.0
993.51,137.0
993.57,150.0
993.64,136.0
993.7,148.0
993.76,148.0
993.82,160.0
993.89,155.0
993.95,193.0
994.01,173.0
994.08,178.0
994.14,195.0
994.2,184.0
994.27,183.0
994.33,184.0
994.39,199.0
994.45,167.0
994.52,181.0
994.58,188.0
994.64,199.0
994.71,184.0
994.77,174.0
994.83,191.0
994.9,191.0
994.96,192.0
995.02,177.0
995.08,174.0
995.15,189.0
995.21,198.0
995.27,179.0
995.34,173.0
995.4,215.0
995.46,225.0
995.53,216.0
995.59,211.0
995.65,225.0
995.71,225.0
995.78,240.0
995.84,215.0
995.9,198.0
995.97,179.0
996.03,189.0
996.09,202.0
996.16,192.0
996.22,202.0
996.28,188.0
996.34,203.0
996.41,195.0
996.47,179.0
996.53,187.0
996.6,169.0
996.66,168.0
996.72,166.0
996.79,160.0
996.85,166.0
996.91,169.0
996.97,153.0
997.04,138.0
997.1,147.0
997.16,158.0
997.23,159.0
997.29,162.0
997.35,173.0
997.42,164.0
997.48,176.0
997.54,185.0
997.6,173.0
997.67,166.0
997.73,157.0
997.79,156.0
997.86,124.0
997.92,140.0
997.98,165.0
998.05,150.0
998.11,138.0
998.17,144.0
998.23,145.0
998.3,146.0
998.36,118.0
998.42,123.0
998.49,117.0
998.55,120.0
998.61,118.0
998.68,109.0
998.74,122.0
998.8,110.0
998.86,110.0
998.93,105.0
998.99,86.0
999.05,83.0
999.12,86.0
999.18,95.0
999.24,95.0
999.31,104.0
999.37,100.0
999.43,110.0
999.49,104.0
999.56,113.0
999.62,100.0
999.68,101.0
999.75,110.0
999.81,121.0
999.87,91.0
