timestamp,intensity
0,-221.0
0.06,-233.0
0.13,-236.0
0.19,-229.0
0.25,-220.0
0.32,-219.0
0.38,-221.0
0.44,-201.0
0.5,-203.0
0.57,-205.0
0.63,-202.0
0.69,-202.0
0.76,-220.0
0.82,-211.0
0.88,-212.0
0.94,-231.0
1.01,-204.0
1.07,-201.0
1.13,-184.0
1.2,-184.0
1.26,-194.0
1.32,-173.0
1.39,-179.0
1.45,-180.0
1.51,-161.0
1.57,-171.0
1.64,-165.0
1.7,-163.0
1.76,-154.0
1.83,-162.0
1.89,-170.0
1.95,-166.0
2.02,-161.0
2.08,-162.0
2.14,-162.0
2.2,-180.0
2.27,-175.0
2.33,-182.0
2.39,-181.0
2.46,-198.0
2.52,-206.0
2.58,-186.0
2.65,-208.0
2.71,-199.0
2.77,-204.0
2.84,-226.0
2.9,-215.0
2.96,-216.0
3.02,-199.0
3.09,-178.0
3.15,-185.0
3.21,-184.0
3.28,-178.0
3.34,-188.0
3.4,-185.0
3.47,-189.0
3.53,-208.0
3.59,-197.0
3.65,-201.0
3.72,-206.0
3.78,-179.0
3.84,-187.0
3.91,-204.0
3.97,-197.0
4.03,-186.0
4.1,-172.0
4.16,-202.0
4.22,-185.0
4.28,-180.0
4.35,-214.0
4.41,-224.0
4.47,-211.0
4.54,-191.0
4.6,-213.0
4.66,-217.0
4.73,-211.0
4.79,-200.0
4.85,-199.0
4.91,-183.0
4.98,-193.0
5.04,-185.0
5.1,-205.0
5.17,-215.0
5.23,-203.0
5.29,-209.0
5.35,-196.0
5.42,-192.0
5.48,-202.0
5.54,-230.0
5.61,-202.0
5.67,-219.0
5.73,-219.0
5.8,-243.0
5.86,-239.0
5.92,-234.0
5.98,-220.0
6.05,-209.0
6.11,-213.0
6.17,-210.0
6.24,-216.0
6.3,-207.0
6.36,-205.0
6.43,-227.0
6.49,-227.0
6.55,-229.0
6.61,-224.0
6.68,-225.0
6.74,-215.0
6.8,-241.0
6.87,-235.0
6.93,-228.0
6.99,-233.0
7.06,-239.0
7.12,-250.0
7.18,-247.0
7.24,-234.0
7.31,-239.0
7.37,-248.0
7.43,-257.0
7.5,-262.0
7.56,-237.0
7.62,-233.0
7.69,-238.0
7.75,-236.0
7.81,-245.0
7.87,-236.0
7.94,-243.0
8.0,-253.0
8.06,-225.0
8.13,-250.0
8.19,-230.0
8.25,-246.0
8.32,-254.0
8.38,-235.0
8.44,-263.0
8.5,-248.0
8.57,-256.0
8.63,-265.0
8.69,-251.0
8.76,-260.0
8.82,-277.0
8.88,-246.0
8.95,-245.0
9.01,-248.0
9.07,-259.0
9.13,-261.0
9.2,-267.0
9.26,-261.0
9.32,-262.0
9.39,-247.0
9.45,-242.0
9.51,-247.0
9.58,-250.0
9.64,-253.0
9.7,-265.0
9.77,-247.0
9.83,-264.0
9.89,-253.0
9.95,-254.0
10.02,-231.0
10.08,-230.0
10.14,-243.0
10.21,-220.0
10.27,-244.0
10.33,-252.0
10.4,-242.0
10.46,-243.0
10.52,-260.0
10.58,-262.0
10.65,-261.0
10.71,-259.0
10.77,-248.0
10.84,-247.0
10.9,-244.0
10.96,-241.0
11.03,-249.0
11.09,-247.0
11.15,-249.0
11.21,-246.0
11.28,-257.0
11.34,-255.0
11.4,-257.0
11.47,-247.0
11.53,-250.0
11.59,-252.0
11.66,-242.0
11.72,-235.0
11.78,-238.0
11.84,-236.0
11.91,-257.0
11.97,-249.0
12.03,-247.0
12.1,-233.0
12.16,-245.0
12.22,-259.0
12.29,-252.0
12.35,-261.0
12.41,-257.0
12.47,-244.0
12.54,-218.0
12.6,-224.0
12.66,-246.0
12.73,-228.0
12.79,-243.0
12.85,-255.0
12.92,-237.0
12.98,-232.0
13.04,-236.0
13.1,-219.0
13.17,-214.0
13.23,-224.0
13.29,-231.0
13.36,-209.0
13.42,-212.0
13.48,-225.0
13.55,-220.0
13.61,-239.0
13.67,-224.0
13.73,-213.0
13.8,-229.0
13.86,-229.0
13.92,-247.0
13.99,-252.0
14.05,-247.0
14.11,-269.0
14.18,-281.0
14.24,-256.0
14.3,-280.0
14.36,-261.0
14.43,-239.0
14.49,-266.0
14.55,-280.0
14.62,-279.0
14.68,-285.0
14.74,-284.0
14.81,-278.0
14.87,-292.0
14.93,-298.0
14.99,-280.0
15.06,-269.0
15.12,-281.0
15.18,-249.0
15.25,-247.0
15.31,-275.0
15.37,-251.0
15.44,-264.0
15.5,-262.0
15.56,-253.0
15.62,-241.0
15.69,-239.0
15.75,-251.0
15.81,-250.0
15.88,-247.0
15.94,-262.0
16.0,-226.0
16.07,-213.0
16.13,-242.0
16.19,-232.0
16.25,-234.0
16.32,-229.0
16.38,-219.0
16.44,-238.0
16.51,-225.0
16.57,-231.0
16.63,-232.0
16.7,-211.0
16.76,-225.0
16.82,-229.0
16.88,-214.0
16.95,-207.0
17.01,-214.0
17.07,-223.0
17.14,-220.0
17.2,-200.0
17.26,-187.0
17.33,-206.0
17.39,-211.0
17.45,-219.0
17.51,-203.0
17.58,-190.0
17.64,-188.0
17.7,-199.0
17.77,-196.0
17.83,-201.0
17.89,-195.0
17.96,-191.0
18.02,-181.0
18.08,-180.0
18.14,-204.0
18.21,-204.0
18.27,-191.0
18.33,-193.0
18.4,-193.0
18.46,-171.0
18.52,-171.0
18.59,-174.0
18.65,-162.0
18.71,-171.0
18.77,-166.0
18.84,-164.0
18.9,-156.0
18.96,-169.0
19.03,-166.0
19.09,-172.0
19.15,-165.0
19.22,-140.0
19.28,-150.0
19.34,-147.0
19.4,-152.0
19.47,-151.0
19.53,-143.0
19.59,-128.0
19.66,-132.0
19.72,-138.0
19.78,-133.0
19.84,-118.0
19.91,-121.0
19.97,-119.0
20.03,-115.0
20.1,-113.0
20.16,-112.0
20.22,-127.0
20.29,-124.0
20.35,-130.0
20.41,-132.0
20.47,-120.0
20.54,-129.0
20.6,-125.0
20.66,-144.0
20.73,-144.0
20.79,-126.0
20.85,-119.0
20.92,-139.0
20.98,-131.0
21.04,-118.0
21.1,-136.0
21.17,-134.0
21.23,-141.0
21.29,-151.0
21.36,-136.0
21.42,-140.0
21.48,-162.0
21.55,-159.0
21.61,-150.0
21.67,-148.0
21.73,-156.0
21.8,-153.0
21.86,-143.0
21.92,-133.0
21.99,-141.0
22.05,-119.0
22.11,-113.0
22.18,-109.0
22.24,-112.0
22.3,-141.0
22.36,-125.0
22.43,-132.0
22.49,-137.0
22.55,-135.0
22.62,-121.0
22.68,-135.0
22.74,-126.0
22.81,-130.0
22.87,-122.0
22.93,-152.0
22.99,-144.0
23.06,-117.0
23.12,-125.0
23.18,-151.0
23.25,-135.0
23.31,-151.0
23.37,-137.0
23.44,-149.0
23.5,-167.0
23.56,-162.0
23.62,-166.0
23.69,-158.0
23.75,-152.0
23.81,-152.0
23.88,-166.0
23.94,-184.0
24.0,-160.0
24.07,-142.0
24.13,-160.0
24.19,-176.0
24.25,-204.0
24.32,-188.0
24.38,-186.0
24.44,-176.0
24.51,-208.0
24.57,-211.0
24.63,-219.0
24.7,-211.0
24.76,-207.0
24.82,-237.0
24.88,-211.0
24.95,-213.0
25.01,-213.0
25.07,-224.0
25.14,-231.0
25.2,-202.0
25.26,-198.0
25.33,-206.0
25.39,-204.0
25.45,-188.0
25.51,-201.0
25.58,-184.0
25.64,-197.0
25.7,-200.0
25.77,-196.0
25.83,-196.0
25.89,-228.0
25.96,-208.0
26.02,-197.0
26.08,-204.0
26.14,-198.0
26.21,-195.0
26.27,-205.0
26.33,-197.0
26.4,-200.0
26.46,-212.0
26.52,-211.0
26.59,-190.0
26.65,-179.0
26.71,-177.0
26.77,-182.0
26.84,-184.0
26.9,-184.0
26.96,-188.0
27.03,-188.0
27.09,-178.0
27.15,-191.0
27.22,-191.0
27.28,-180.0
27.34,-164.0
27.4,-159.0
27.47,-164.0
27.53,-146.0
27.59,-157.0
27.66,-158.0
27.72,-189.0
27.78,-183.0
27.85,-171.0
27.91,-183.0
27.97,-191.0
28.03,-213.0
28.1,-183.0
28.16,-183.0
28.22,-186.0
28.29,-172.0
28.35,-189.0
28.41,-192.0
28.48,-197.0
28.54,-195.0
28.6,-207.0
28.66,-204.0
28.73,-195.0
28.79,-214.0
28.85,-201.0
28.92,-192.0
28.98,-186.0
29.04,-180.0
29.11,-181.0
29.17,-185.0
29.23,-171.0
29.29,-168.0
29.36,-195.0
29.42,-187.0
29.48,-183.0
29.55,-193.0
29.61,-172.0
29.67,-159.0
29.74,-176.0
29.8,-168.0
29.86,-199.0
29.92,-193.0
29.99,-180.0
30.05,-181.0
30.11,-198.0
30.18,-193.0
30.24,-193.0
30.3,-204.0
30.37,-195.0
30.43,-195.0
30.49,-185.0
30.55,-180.0
30.62,-182.0
30.68,-190.0
30.74,-198.0
30.81,-203.0
30.87,-173.0
30.93,-190.0
31.0,-201.0
31.06,-201.0
31.12,-199.0
31.18,-196.0
31.25,-195.0
31.31,-201.0
31.37,-195.0
31.44,-206.0
31.5,-195.0
31.56,-211.0
31.63,-203.0
31.69,-215.0
31.75,-214.0
31.81,-205.0
31.88,-216.0
31.94,-203.0
32.0,-213.0
32.07,-202.0
32.13,-207.0
32.19,-202.0
32.26,-204.0
32.32,-216.0
32.38,-205.0
32.44,-203.0
32.51,-219.0
32.57,-211.0
32.63,-191.0
32.7,-194.0
32.76,-187.0
32.82,-193.0
32.89,-206.0
32.95,-203.0
33.01,-208.0
33.07,-188.0
33.14,-197.0
33.2,-198.0
33.26,-174.0
33.33,-159.0
33.39,-158.0
33.45,-163.0
33.52,-167.0
33.58,-180.0
33.64,-159.0
33.7,-157.0
33.77,-176.0
33.83,-157.0
33.89,-179.0
33.96,-185.0
34.02,-178.0
34.08,-185.0
34.15,-171.0
34.21,-172.0
34.27,-177.0
34.33,-166.0
34.4,-155.0
34.46,-161.0
34.52,-161.0
34.59,-171.0
34.65,-142.0
34.71,-143.0
34.78,-156.0
34.84,-152.0
34.9,-155.0
34.96,-133.0
35.03,-134.0
35.09,-154.0
35.15,-160.0
35.22,-137.0
35.28,-147.0
35.34,-140.0
35.41,-137.0
35.47,-148.0
35.53,-134.0
35.59,-123.0
35.66,-132.0
35.72,-138.0
35.78,-141.0
35.85,-137.0
35.91,-129.0
35.97,-156.0
36.04,-153.0
36.1,-141.0
36.16,-139.0
36.22,-150.0
36.29,-153.0
36.35,-162.0
36.41,-141.0
36.48,-132.0
36.54,-137.0
36.6,-139.0
36.67,-126.0
36.73,-128.0
36.79,-161.0
36.85,-141.0
36.92,-134.0
36.98,-117.0
37.04,-139.0
37.11,-148.0
37.17,-117.0
37.23,-131.0
37.3,-122.0
37.36,-127.0
37.42,-129.0
37.48,-140.0
37.55,-152.0
37.61,-139.0
37.67,-119.0
37.74,-129.0
37.8,-138.0
37.86,-143.0
37.93,-139.0
37.99,-148.0
38.05,-146.0
38.12,-141.0
38.18,-148.0
38.24,-143.0
38.3,-159.0
38.37,-152.0
38.43,-155.0
38.49,-159.0
38.56,-160.0
38.62,-154.0
38.68,-161.0
38.75,-154.0
38.81,-141.0
38.87,-141.0
38.93,-145.0
39.0,-128.0
39.06,-144.0
39.12,-155.0
39.19,-151.0
39.25,-145.0
39.31,-157.0
39.38,-176.0
39.44,-169.0
39.5,-167.0
39.56,-173.0
39.63,-170.0
39.69,-163.0
39.75,-182.0
39.82,-172.0
39.88,-178.0
39.94,-158.0
40.01,-166.0
40.07,-161.0
40.13,-168.0
40.19,-158.0
40.26,-176.0
40.32,-185.0
40.38,-177.0
40.45,-168.0
40.51,-168.0
40.57,-166.0
40.64,-161.0
40.7,-142.0
40.76,-141.0
40.82,-136.0
40.89,-138.0
40.95,-131.0
41.01,-122.0
41.08,-138.0
41.14,-137.0
41.2,-140.0
41.27,-134.0
41.33,-156.0
41.39,-170.0
41.45,-167.0
41.52,-163.0
41.58,-168.0
41.64,-174.0
41.71,-158.0
41.77,-178.0
41.83,-181.0
41.9,-162.0
41.96,-159.0
42.02,-161.0
42.08,-157.0
42.15,-147.0
42.21,-150.0
42.27,-144.0
42.34,-142.0
42.4,-180.0
42.46,-151.0
42.53,-149.0
42.59,-148.0
42.65,-127.0
42.71,-137.0
42.78,-137.0
42.84,-140.0
42.9,-132.0
42.97,-152.0
43.03,-129.0
43.09,-141.0
43.16,-143.0
43.22,-156.0
43.28,-131.0
43.34,-146.0
43.41,-111.0
43.47,-96.0
43.53,-120.0
43.6,-110.0
43.66,-122.0
43.72,-123.0
43.79,-131.0
43.85,-135.0
43.91,-135.0
43.97,-147.0
44.04,-141.0
44.1,-143.0
44.16,-163.0
44.23,-150.0
44.29,-140.0
44.35,-126.0
44.42,-142.0
44.48,-150.0
44.54,-125.0
44.6,-114.0
44.67,-136.0
44.73,-132.0
44.79,-135.0
44.86,-135.0
44.92,-127.0
44.98,-107.0
45.05,-115.0
45.11,-101.0
45.17,-110.0
45.23,-109.0
45.3,-110.0
45.36,-110.0
45.42,-126.0
45.49,-109.0
45.55,-116.0
45.61,-118.0
45.68,-95.0
45.74,-89.0
45.8,-104.0
45.86,-104.0
45.93,-89.0
45.99,-95.0
46.05,-66.0
46.12,-85.0
46.18,-101.0
46.24,-83.0
46.31,-75.0
46.37,-84.0
46.43,-94.0
46.49,-80.0
46.56,-45.0
46.62,-54.0
46.68,-58.0
46.75,-53.0
46.81,-50.0
46.87,-50.0
46.94,-71.0
47.0,-48.0
47.06,-63.0
47.12,-69.0
47.19,-46.0
47.25,-37.0
47.31,-43.0
47.38,-40.0
47.44,-23.0
47.5,-17.0
47.57,-38.0
47.63,-48.0
47.69,-62.0
47.75,-68.0
47.82,-63.0
47.88,-59.0
47.94,-53.0
48.01,-61.0
48.07,-62.0
48.13,-45.0
48.2,-44.0
48.26,-62.0
48.32,-48.0
48.38,-63.0
48.45,-59.0
48.51,-57.0
48.57,-63.0
48.64,-65.0
48.7,-68.0
48.76,-64.0
48.83,-47.0
48.89,-39.0
48.95,-56.0
49.01,-64.0
49.08,-73.0
49.14,-59.0
49.2,-56.0
49.27,-68.0
49.33,-55.0
49.39,-66.0
49.46,-68.0
49.52,-53.0
49.58,-60.0
49.64,-54.0
49.71,-58.0
49.77,-26.0
49.83,-38.0
49.9,-53.0
49.96,-49.0
50.02,-42.0
50.09,-45.0
50.15,-26.0
50.21,-21.0
50.27,-22.0
50.34,-33.0
50.4,-29.0
50.46,-36.0
50.53,-6.0
50.59,-1.0
50.65,-4.0
50.72,-2.0
50.78,9.0
50.84,1.0
50.9,-16.0
50.97,11.0
51.03,10.0
51.09,14.0
51.16,28.0
51.22,13.0
51.28,26.0
51.35,11.0
51.41,13.0
51.47,3.0
51.53,21.0
51.6,23.0
51.66,16.0
51.72,16.0
51.79,26.0
51.85,21.0
51.91,50.0
51.98,49.0
52.04,23.0
52.1,14.0
52.16,19.0
52.23,39.0
52.29,29.0
52.35,36.0
52.42,35.0
52.48,35.0
52.54,57.0
52.61,48.0
52.67,27.0
52.73,40.0
52.79,21.0
52.86,39.0
52.92,43.0
52.98,40.0
53.05,40.0
53.11,21.0
53.17,18.0
53.24,25.0
53.3,21.0
53.36,30.0
53.42,12.0
53.49,44.0
53.55,23.0
53.61,22.0
53.68,-6.0
53.74,3.0
53.8,2.0
53.87,6.0
53.93,9.0
53.99,13.0
54.05,9.0
54.12,-23.0
54.18,-5.0
54.24,-5.0
54.31,14.0
54.37,-7.0
54.43,1.0
54.5,-11.0
54.56,6.0
54.62,5.0
54.68,30.0
54.75,21.0
54.81,18.0
54.87,22.0
54.94,31.0
55.0,21.0
55.06,22.0
55.13,-2.0
55.19,2.0
55.25,2.0
55.31,4.0
55.38,8.0
55.44,32.0
55.5,31.0
55.57,22.0
55.63,5.0
55.69,6.0
55.76,4.0
55.82,-5.0
55.88,-2.0
55.94,-25.0
56.01,-1.0
56.07,-4.0
56.13,-23.0
56.2,-22.0
56.26,-31.0
56.32,-29.0
56.39,-30.0
56.45,-11.0
56.51,-14.0
56.57,-33.0
56.64,-28.0
56.7,-18.0
56.76,14.0
56.83,-19.0
56.89,-18.0
56.95,-10.0
57.02,25.0
57.08,0.0
57.14,-3.0
57.2,17.0
57.27,1.0
57.33,4.0
57.39,12.0
57.46,8.0
57.52,6.0
57.58,-7.0
57.65,-37.0
57.71,-17.0
57.77,0.0
57.83,-28.0
57.9,-31.0
57.96,-32.0
58.02,-41.0
58.09,-66.0
58.15,-55.0
58.21,-72.0
58.28,-61.0
58.34,-83.0
58.4,-98.0
58.46,-83.0
58.53,-80.0
58.59,-78.0
58.65,-86.0
58.72,-85.0
58.78,-85.0
58.84,-84.0
58.91,-83.0
58.97,-98.0
59.03,-85.0
59.09,-70.0
59.16,-54.0
59.22,-60.0
59.28,-62.0
59.35,-35.0
59.41,-55.0
59.47,-77.0
59.54,-72.0
59.6,-57.0
59.66,-79.0
59.72,-72.0
59.79,-62.0
59.85,-43.0
59.91,-38.0
59.98,-37.0
60.04,-45.0
60.1,-62.0
60.17,-54.0
60.23,-39.0
60.29,-50.0
60.35,-71.0
60.42,-68.0
60.48,-73.0
60.54,-67.0
60.61,-74.0
60.67,-68.0
60.73,-82.0
60.8,-83.0
60.86,-70.0
60.92,-65.0
60.98,-55.0
61.05,-46.0
61.11,-62.0
61.17,-66.0
61.24,-63.0
61.3,-76.0
61.36,-48.0
61.43,-34.0
61.49,-46.0
61.55,-48.0
61.61,-39.0
61.68,-24.0
61.74,-41.0
61.8,-46.0
61.87,-31.0
61.93,-16.0
61.99,-20.0
62.06,-38.0
62.12,-43.0
62.18,-41.0
62.24,-59.0
62.31,-67.0
62.37,-66.0
62.43,-56.0
62.5,-43.0
62.56,-44.0
62.62,-57.0
62.69,-54.0
62.75,-38.0
62.81,-48.0
62.87,-45.0
62.94,-59.0
63.0,-75.0
63.06,-57.0
63.13,-40.0
63.19,-75.0
63.25,-50.0
63.32,-41.0
63.38,-52.0
63.44,-67.0
63.5,-59.0
63.57,-64.0
63.63,-36.0
63.69,-45.0
63.76,-60.0
63.82,-55.0
63.88,-62.0
63.95,-43.0
64.01,-54.0
64.07,-68.0
64.13,-71.0
64.2,-40.0
64.26,-54.0
64.32,-58.0
64.39,-67.0
64.45,-44.0
64.51,-62.0
64.58,-78.0
64.64,-60.0
64.7,-54.0
64.76,-55.0
64.83,-87.0
64.89,-85.0
64.95,-85.0
65.02,-61.0
65.08,-86.0
65.14,-76.0
65.21,-83.0
65.27,-76.0
65.33,-76.0
65.39,-69.0
65.46,-66.0
65.52,-90.0
65.58,-84.0
65.65,-79.0
65.71,-92.0
65.77,-107.0
65.84,-104.0
65.9,-72.0
65.96,-104.0
66.02,-102.0
66.09,-79.0
66.15,-88.0
66.21,-88.0
66.28,-66.0
66.34,-59.0
66.4,-66.0
66.47,-67.0
66.53,-72.0
66.59,-68.0
66.65,-71.0
66.72,-65.0
66.78,-45.0
66.84,-76.0
66.91,-59.0
66.97,-70.0
67.03,-65.0
67.1,-58.0
67.16,-67.0
67.22,-71.0
67.28,-80.0
67.35,-82.0
67.41,-84.0
67.47,-85.0
67.54,-86.0
67.6,-64.0
67.66,-64.0
67.73,-75.0
67.79,-70.0
67.85,-80.0
67.91,-82.0
67.98,-80.0
68.04,-73.0
68.1,-50.0
68.17,-57.0
68.23,-55.0
68.29,-39.0
68.36,-65.0
68.42,-62.0
68.48,-60.0
68.54,-67.0
68.61,-80.0
68.67,-62.0
68.73,-54.0
68.8,-40.0
68.86,-26.0
68.92,-23.0
68.99,-26.0
69.05,-30.0
69.11,-32.0
69.17,-36.0
69.24,-39.0
69.3,-48.0
69.36,-44.0
69.43,-19.0
69.49,-36.0
69.55,-9.0
69.62,-12.0
69.68,-4.0
69.74,-11.0
69.8,-25.0
69.87,-9.0
69.93,3.0
69.99,2.0
70.06,-11.0
70.12,-9.0
70.18,1.0
70.25,-5.0
70.31,-10.0
70.37,-1.0
70.43,21.0
70.5,5.0
70.56,22.0
70.62,-2.0
70.69,20.0
70.75,8.0
70.81,-2.0
70.88,9.0
70.94,5.0
71.0,7.0
71.06,13.0
71.13,34.0
71.19,16.0
71.25,24.0
71.32,15.0
71.38,13.0
71.44,23.0
71.51,26.0
71.57,25.0
71.63,19.0
71.69,24.0
71.76,43.0
71.82,20.0
71.88,4.0
71.95,35.0
72.01,24.0
72.07,25.0
72.14,34.0
72.2,40.0
72.26,59.0
72.32,64.0
72.39,47.0
72.45,47.0
72.51,40.0
72.58,74.0
72.64,58.0
72.7,41.0
72.77,38.0
72.83,27.0
72.89,36.0
72.95,47.0
73.02,60.0
73.08,42.0
73.14,40.0
73.21,31.0
73.27,9.0
73.33,2.0
73.4,18.0
73.46,20.0
73.52,15.0
73.58,26.0
73.65,19.0
73.71,26.0
73.77,2.0
73.84,12.0
73.9,2.0
73.96,-8.0
74.03,-4.0
74.09,-2.0
74.15,2.0
74.21,14.0
74.28,7.0
74.34,16.0
74.4,30.0
74.47,32.0
74.53,14.0
74.59,-7.0
74.66,1.0
74.72,24.0
74.78,0.0
74.84,-9.0
74.91,-25.0
74.97,-17.0
75.03,5.0
75.1,-27.0
75.16,-16.0
75.22,-5.0
75.29,-25.0
75.35,0.0
75.41,-2.0
75.47,-11.0
75.54,-4.0
75.6,-5.0
75.66,-5.0
75.73,-2.0
75.79,-2.0
75.85,1.0
75.92,-12.0
75.98,-35.0
76.04,-39.0
76.1,-26.0
76.17,-15.0
76.23,-12.0
76.29,-11.0
76.36,-8.0
76.42,-4.0
76.48,10.0
76.55,17.0
76.61,5.0
76.67,-1.0
76.73,-10.0
76.8,3.0
76.86,-5.0
76.92,-4.0
76.99,-5.0
77.05,-3.0
77.11,2.0
77.18,-1.0
77.24,0.0
77.3,18.0
77.36,4.0
77.43,15.0
77.49,6.0
77.55,15.0
77.62,7.0
77.68,22.0
77.74,23.0
77.81,3.0
77.87,4.0
77.93,-1.0
77.99,-14.0
78.06,10.0
78.12,4.0
78.18,-9.0
78.25,-7.0
78.31,-1.0
78.37,-17.0
78.44,1.0
78.5,1.0
78.56,1.0
78.62,-20.0
78.69,-9.0
78.75,-14.0
78.81,-19.0
78.88,-11.0
78.94,-20.0
79.0,-36.0
79.07,-22.0
79.13,-25.0
79.19,-25.0
79.25,-30.0
79.32,-21.0
79.38,-7.0
79.44,-25.0
79.51,-23.0
79.57,-2.0
79.63,-28.0
79.7,-32.0
79.76,-28.0
79.82,-25.0
79.88,-38.0
79.95,-24.0
80.01,-25.0
80.07,-35.0
80.14,-23.0
80.2,-53.0
80.26,-57.0
80.33,-64.0
80.39,-75.0
80.45,-51.0
80.51,-41.0
80.58,-44.0
80.64,-42.0
80.7,-54.0
80.77,-36.0
80.83,-43.0
80.89,-47.0
80.96,-18.0
81.02,-47.0
81.08,-45.0
81.14,-43.0
81.21,-32.0
81.27,-47.0
81.33,-49.0
81.4,-61.0
81.46,-50.0
81.52,-38.0
81.59,-53.0
81.65,-55.0
81.71,-59.0
81.77,-41.0
81.84,-49.0
81.9,-51.0
81.96,-52.0
82.03,-63.0
82.09,-83.0
82.15,-69.0
82.22,-45.0
82.28,-62.0
82.34,-68.0
82.4,-64.0
82.47,-60.0
82.53,-50.0
82.59,-56.0
82.66,-63.0
82.72,-48.0
82.78,-51.0
82.85,-26.0
82.91,-23.0
82.97,-34.0
83.03,-19.0
83.1,-15.0
83.16,-23.0
83.22,-18.0
83.29,-21.0
83.35,-13.0
83.41,-9.0
83.48,-10.0
83.54,0.0
83.6,-11.0
83.66,-5.0
83.73,-23.0
83.79,-20.0
83.85,-17.0
83.92,-7.0
83.98,-10.0
84.04,-10.0
84.11,-17.0
84.17,-24.0
84.23,-22.0
84.29,-11.0
84.36,-11.0
84.42,-4.0
84.48,-22.0
84.55,-32.0
84.61,-16.0
84.67,-29.0
84.74,-25.0
84.8,-11.0
84.86,-14.0
84.92,-30.0
84.99,-22.0
85.05,-38.0
85.11,-23.0
85.18,-28.0
85.24,-39.0
85.3,-29.0
85.37,-21.0
85.43,-31.0
85.49,0.0
85.55,-23.0
85.62,-21.0
85.68,8.0
85.74,-10.0
85.81,-18.0
85.87,-15.0
85.93,6.0
86.0,-4.0
86.06,20.0
86.12,8.0
86.18,9.0
86.25,9.0
86.31,5.0
86.37,16.0
86.44,26.0
86.5,29.0
86.56,26.0
86.63,10.0
86.69,19.0
86.75,33.0
86.81,-1.0
86.88,11.0
86.94,11.0
87.0,18.0
87.07,24.0
87.13,12.0
87.19,32.0
87.26,40.0
87.32,41.0
87.38,49.0
87.44,32.0
87.51,42.0
87.57,53.0
87.63,47.0
87.7,56.0
87.76,66.0
87.82,57.0
87.89,45.0
87.95,53.0
88.01,60.0
88.07,72.0
88.14,67.0
88.2,68.0
88.26,61.0
88.33,63.0
88.39,77.0
88.45,42.0
88.52,47.0
88.58,51.0
88.64,47.0
88.7,54.0
88.77,85.0
88.83,74.0
88.89,69.0
88.96,69.0
89.02,64.0
89.08,82.0
89.15,88.0
89.21,58.0
89.27,78.0
89.33,74.0
89.4,59.0
89.46,71.0
89.52,82.0
89.59,80.0
89.65,60.0
89.71,60.0
89.78,56.0
89.84,64.0
89.9,67.0
89.96,69.0
90.03,42.0
90.09,56.0
90.15,53.0
90.22,51.0
90.28,39.0
90.34,62.0
90.41,64.0
90.47,74.0
90.53,38.0
90.59,24.0
90.66,36.0
90.72,32.0
90.78,23.0
90.85,24.0
90.91,23.0
90.97,27.0
91.04,14.0
91.1,-1.0
91.16,14.0
91.22,10.0
91.29,25.0
91.35,19.0
91.41,12.0
91.48,15.0
91.54,-2.0
91.6,7.0
91.67,3.0
91.73,18.0
91.79,27.0
91.85,19.0
91.92,-8.0
91.98,-1.0
92.04,6.0
92.11,-8.0
92.17,-10.0
92.23,-15.0
92.3,-4.0
92.36,-5.0
92.42,-1.0
92.48,1.0
92.55,-6.0
92.61,7.0
92.67,3.0
92.74,-3.0
92.8,7.0
92.86,-4.0
92.93,12.0
92.99,-2.0
93.05,2.0
93.11,6.0
93.18,-5.0
93.24,21.0
93.3,-5.0
93.37,-5.0
93.43,-2.0
93.49,-1.0
93.56,-11.0
93.62,-23.0
93.68,-11.0
93.74,-9.0
93.81,-1.0
93.87,-19.0
93.93,22.0
94.0,16.0
94.06,16.0
94.12,4.0
94.19,-8.0
94.25,9.0
94.31,24.0
94.37,31.0
94.44,23.0
94.5,10.0
94.56,17.0
94.63,14.0
94.69,14.0
94.75,15.0
94.82,26.0
94.88,23.0
94.94,17.0
95.0,25.0
95.07,22.0
95.13,16.0
95.19,27.0
95.26,25.0
95.32,16.0
95.38,11.0
95.45,11.0
95.51,33.0
95.57,19.0
95.63,11.0
95.7,-11.0
95.76,5.0
95.82,1.0
95.89,-4.0
95.95,-6.0
96.01,1.0
96.08,-10.0
96.14,-14.0
96.2,-4.0
96.26,-1.0
96.33,-3.0
96.39,10.0
96.45,2.0
96.52,-16.0
96.58,-11.0
96.64,-4.0
96.71,3.0
96.77,-2.0
96.83,-6.0
96.89,-21.0
96.96,-11.0
97.02,1.0
97.08,-24.0
97.15,-30.0
97.21,-34.0
97.27,-7.0
97.34,-15.0
97.4,-40.0
97.46,-28.0
97.52,-11.0
97.59,-12.0
97.65,-9.0
97.71,1.0
97.78,-5.0
97.84,1.0
97.9,2.0
97.97,-12.0
98.03,0.0
98.09,-5.0
98.15,-23.0
98.22,-12.0
98.28,9.0
98.34,2.0
98.41,-14.0
98.47,-11.0
98.53,-17.0
98.6,-7.0
98.66,-18.0
98.72,8.0
98.78,5.0
98.85,-2.0
98.91,8.0
98.97,4.0
99.04,11.0
99.1,6.0
99.16,1.0
99.23,-4.0
99.29,-14.0
99.35,-9.0
99.41,8.0
99.48,-12.0
99.54,-20.0
99.6,-9.0
99.67,-14.0
99.73,-23.0
99.79,-21.0
99.86,-8.0
99.92,-14.0
99.98,-25.0
100.04,-19.0
100.11,-23.0
100.17,-12.0
100.23,-15.0
100.3,11.0
100.36,19.0
100.42,1.0
100.49,12.0
100.55,19.0
100.61,20.0
100.67,33.0
100.74,34.0
100.8,41.0
100.86,50.0
100.93,41.0
100.99,48.0
101.05,52.0
101.12,30.0
101.18,33.0
101.24,13.0
101.3,22.0
101.37,30.0
101.43,24.0
101.49,43.0
101.56,40.0
101.62,24.0
101.68,26.0
101.75,30.0
101.81,27.0
101.87,7.0
101.93,37.0
102.0,49.0
102.06,74.0
102.12,51.0
102.19,74.0
102.25,77.0
102.31,92.0
102.38,82.0
102.44,81.0
102.5,78.0
102.56,76.0
102.63,89.0
102.69,84.0
102.75,67.0
102.82,76.0
102.88,69.0
102.94,73.0
103.01,97.0
103.07,97.0
103.13,104.0
103.19,117.0
103.26,107.0
103.32,117.0
103.38,110.0
103.45,116.0
103.51,114.0
103.57,129.0
103.64,121.0
103.7,131.0
103.76,129.0
103.82,140.0
103.89,129.0
103.95,105.0
104.01,140.0
104.08,150.0
104.14,134.0
104.2,143.0
104.27,144.0
104.33,127.0
104.39,148.0
104.45,134.0
104.52,122.0
104.58,133.0
104.64,125.0
104.71,146.0
104.77,156.0
104.83,158.0
104.9,146.0
104.96,140.0
105.02,114.0
105.08,122.0
105.15,121.0
105.21,123.0
105.27,133.0
105.34,125.0
105.4,119.0
105.46,108.0
105.53,101.0
105.59,116.0
105.65,111.0
105.71,101.0
105.78,117.0
105.84,109.0
105.9,133.0
105.97,143.0
106.03,143.0
106.09,108.0
106.16,117.0
106.22,132.0
106.28,125.0
106.34,131.0
106.41,122.0
106.47,109.0
106.53,122.0
106.6,112.0
106.66,88.0
106.72,85.0
106.79,100.0
106.85,99.0
106.91,94.0
106.97,102.0
107.04,125.0
107.1,130.0
107.16,125.0
107.23,103.0
107.29,103.0
107.35,131.0
107.42,120.0
107.48,107.0
107.54,99.0
107.6,101.0
107.67,96.0
107.73,99.0
107.79,90.0
107.86,106.0
107.92,96.0
107.98,97.0
108.05,95.0
108.11,112.0
108.17,92.0
108.23,98.0
108.3,100.0
108.36,88.0
108.42,91.0
108.49,94.0
108.55,93.0
108.61,77.0
108.68,83.0
108.74,91.0
108.8,74.0
108.86,87.0
108.93,73.0
108.99,68.0
109.05,66.0
109.12,61.0
109.18,67.0
109.24,78.0
109.31,71.0
109.37,59.0
109.43,75.0
109.49,75.0
109.56,88.0
109.62,102.0
109.68,105.0
109.75,116.0
109.81,101.0
109.87,93.0
109.94,97.0
110.0,99.0
110.06,106.0
110.12,105.0
110.19,107.0
110.25,129.0
110.31,133.0
110.38,111.0
110.44,126.0
110.5,117.0
110.57,127.0
110.63,134.0
110.69,137.0
110.75,133.0
110.82,128.0
110.88,120.0
110.94,113.0
111.01,134.0
111.07,125.0
111.13,116.0
111.2,109.0
111.26,91.0
111.32,112.0
111.38,111.0
111.45,125.0
111.51,118.0
111.57,102.0
111.64,71.0
111.7,79.0
111.76,107.0
111.83,92.0
111.89,95.0
111.95,110.0
112.01,100.0
112.08,83.0
112.14,104.0
112.2,85.0
112.27,87.0
112.33,87.0
112.39,79.0
112.46,89.0
112.52,96.0
112.58,92.0
112.64,84.0
112.71,99.0
112.77,78.0
112.83,84.0
112.9,106.0
112.96,94.0
113.02,87.0
113.09,95.0
113.15,100.0
113.21,109.0
113.27,98.0
113.34,89.0
113.4,93.0
113.46,70.0
113.53,100.0
113.59,88.0
113.65,77.0
113.72,81.0
113.78,76.0
113.84,71.0
113.9,74.0
113.97,96.0
114.03,91.0
114.09,92.0
114.16,77.0
114.22,70.0
114.28,65.0
114.35,52.0
114.41,57.0
114.47,40.0
114.53,53.0
114.6,47.0
114.66,38.0
114.72,40.0
114.79,30.0
114.85,31.0
114.91,27.0
114.98,35.0
115.04,35.0
115.1,23.0
115.16,32.0
115.23,28.0
115.29,15.0
115.35,24.0
115.42,33.0
115.48,20.0
115.54,19.0
115.61,3.0
115.67,4.0
115.73,16.0
115.79,30.0
115.86,19.0
115.92,6.0
115.98,12.0
116.05,6.0
116.11,20.0
116.17,10.0
116.24,5.0
116.3,6.0
116.36,-5.0
116.42,0.0
116.49,-2.0
116.55,-3.0
116.61,-20.0
116.68,-11.0
116.74,5.0
116.8,-6.0
116.87,-6.0
116.93,-8.0
116.99,6.0
117.05,19.0
117.12,4.0
117.18,9.0
117.24,1.0
117.31,3.0
117.37,7.0
117.43,12.0
117.5,23.0
117.56,19.0
117.62,17.0
117.68,35.0
117.75,35.0
117.81,53.0
117.87,43.0
117.94,36.0
118.0,58.0
118.06,61.0
118.13,41.0
118.19,47.0
118.25,53.0
118.31,39.0
118.38,51.0
118.44,40.0
118.5,31.0
118.57,39.0
118.63,26.0
118.69,40.0
118.76,39.0
118.82,47.0
118.88,50.0
118.94,39.0
119.01,55.0
119.07,35.0
119.13,30.0
119.2,55.0
119.26,46.0
119.32,29.0
119.39,29.0
119.45,36.0
119.51,54.0
119.57,34.0
119.64,46.0
119.7,17.0
119.76,7.0
119.83,29.0
119.89,15.0
119.95,17.0
120.02,35.0
120.08,28.0
120.14,52.0
120.2,33.0
120.27,43.0
120.33,28.0
120.39,48.0
120.46,42.0
120.52,32.0
120.58,35.0
120.65,32.0
120.71,32.0
120.77,14.0
120.83,21.0
120.9,8.0
120.96,14.0
121.02,2.0
121.09,27.0
121.15,43.0
121.21,24.0
121.28,46.0
121.34,35.0
121.4,35.0
121.46,44.0
121.53,61.0
121.59,59.0
121.65,29.0
121.72,24.0
121.78,38.0
121.84,52.0
121.91,61.0
121.97,28.0
122.03,26.0
122.09,61.0
122.16,24.0
122.22,60.0
122.28,46.0
122.35,47.0
122.41,52.0
122.47,34.0
122.54,38.0
122.6,39.0
122.66,47.0
122.72,46.0
122.79,40.0
122.85,54.0
122.91,44.0
122.98,51.0
123.04,49.0
123.1,32.0
123.17,34.0
123.23,56.0
123.29,56.0
123.35,34.0
123.42,57.0
123.48,59.0
123.54,81.0
123.61,72.0
123.67,67.0
123.73,83.0
123.8,69.0
123.86,95.0
123.92,71.0
123.98,81.0
124.05,69.0
124.11,56.0
124.17,77.0
124.24,80.0
124.3,72.0
124.36,79.0
124.43,77.0
124.49,76.0
124.55,62.0
124.61,56.0
124.68,58.0
124.74,53.0
124.8,47.0
124.87,54.0
124.93,52.0
124.99,35.0
125.06,35.0
125.12,45.0
125.18,50.0
125.24,61.0
125.31,63.0
125.37,41.0
125.43,42.0
125.5,57.0
125.56,40.0
125.62,29.0
125.69,25.0
125.75,37.0
125.81,46.0
125.87,43.0
125.94,45.0
126.0,30.0
126.06,37.0
126.13,56.0
126.19,52.0
126.25,42.0
126.32,35.0
126.38,56.0
126.44,50.0
126.5,53.0
126.57,32.0
126.63,21.0
126.69,24.0
126.76,8.0
126.82,23.0
126.88,5.0
126.95,12.0
127.01,1.0
127.07,-2.0
127.13,7.0
127.2,-7.0
127.26,4.0
127.32,-3.0
127.39,4.0
127.45,-3.0
127.51,0.0
127.58,-10.0
127.64,-9.0
127.7,-5.0
127.76,-17.0
127.83,-1.0
127.89,8.0
127.95,-4.0
128.02,5.0
128.08,4.0
128.14,28.0
128.21,14.0
128.27,-1.0
128.33,9.0
128.39,30.0
128.46,26.0
128.52,10.0
128.58,23.0
128.65,15.0
128.71,-3.0
128.77,-2.0
128.84,12.0
128.9,12.0
128.96,2.0
129.02,20.0
129.09,28.0
129.15,24.0
129.21,25.0
129.28,32.0
129.34,32.0
129.4,38.0
129.47,46.0
129.53,48.0
129.59,40.0
129.65,31.0
129.72,26.0
129.78,34.0
129.84,45.0
129.91,45.0
129.97,43.0
130.03,19.0
130.1,40.0
130.16,22.0
130.22,27.0
130.28,41.0
130.35,34.0
130.41,35.0
130.47,51.0
130.54,21.0
130.6,21.0
130.66,13.0
130.73,15.0
130.79,38.0
130.85,30.0
130.91,19.0
130.98,21.0
131.04,32.0
131.1,29.0
131.17,31.0
131.23,32.0
131.29,49.0
131.36,43.0
131.42,28.0
131.48,34.0
131.54,23.0
131.61,30.0
131.67,25.0
131.73,21.0
131.8,25.0
131.86,23.0
131.92,11.0
131.99,12.0
132.05,42.0
132.11,30.0
132.17,12.0
132.24,26.0
132.3,29.0
132.36,27.0
132.43,15.0
132.49,10.0
132.55,6.0
132.62,23.0
132.68,23.0
132.74,10.0
132.8,5.0
132.87,2.0
132.93,16.0
132.99,-5.0
133.06,4.0
133.12,11.0
133.18,-3.0
133.25,-18.0
133.31,-5.0
133.37,-2.0
133.43,-14.0
133.5,-8.0
133.56,-17.0
133.62,-2.0
133.69,-11.0
133.75,-9.0
133.81,2.0
133.88,1.0
133.94,15.0
134.0,21.0
134.06,27.0
134.13,48.0
134.19,53.0
134.25,45.0
134.32,60.0
134.38,56.0
134.44,69.0
134.51,65.0
134.57,63.0
134.63,74.0
134.69,75.0
134.76,78.0
134.82,81.0
134.88,82.0
134.95,81.0
135.01,74.0
135.07,81.0
135.14,78.0
135.2,73.0
135.26,61.0
135.32,77.0
135.39,81.0
135.45,69.0
135.51,71.0
135.58,53.0
135.64,57.0
135.7,88.0
135.77,52.0
135.83,41.0
135.89,59.0
135.95,53.0
136.02,54.0
136.08,45.0
136.14,64.0
136.21,62.0
136.27,71.0
136.33,57.0
136.4,64.0
136.46,61.0
136.52,50.0
136.58,50.0
136.65,31.0
136.71,52.0
136.77,57.0
136.84,56.0
136.9,65.0
136.96,60.0
137.03,56.0
137.09,56.0
137.15,56.0
137.21,61.0
137.28,49.0
137.34,56.0
137.4,62.0
137.47,69.0
137.53,78.0
137.59,78.0
137.66,78.0
137.72,78.0
137.78,85.0
137.84,77.0
137.91,86.0
137.97,86.0
138.03,69.0
138.1,81.0
138.16,90.0
138.22,95.0
138.29,79.0
138.35,84.0
138.41,100.0
138.47,104.0
138.54,114.0
138.6,117.0
138.66,114.0
138.73,98.0
138.79,63.0
138.85,71.0
138.92,78.0
138.98,66.0
139.04,67.0
139.1,68.0
139.17,63.0
139.23,81.0
139.29,81.0
139.36,82.0
139.42,89.0
139.48,98.0
139.55,75.0
139.61,78.0
139.67,91.0
139.73,87.0
139.8,82.0
139.86,93.0
139.92,87.0
139.99,78.0
140.05,93.0
140.11,109.0
140.18,114.0
140.24,102.0
140.3,100.0
140.36,100.0
140.43,97.0
140.49,95.0
140.55,123.0
140.62,105.0
140.68,107.0
140.74,120.0
140.81,101.0
140.87,101.0
140.93,101.0
140.99,101.0
141.06,111.0
141.12,89.0
141.18,79.0
141.25,82.0
141.31,77.0
141.37,73.0
141.44,56.0
141.5,82.0
141.56,89.0
141.62,84.0
141.69,62.0
141.75,61.0
141.81,74.0
141.88,62.0
141.94,75.0
142.0,60.0
142.07,65.0
142.13,79.0
142.19,68.0
142.25,60.0
142.32,55.0
142.38,56.0
142.44,63.0
142.51,80.0
142.57,60.0
142.63,71.0
142.7,99.0
142.76,98.0
142.82,97.0
142.88,80.0
142.95,65.0
143.01,78.0
143.07,73.0
143.14,69.0
143.2,53.0
143.26,79.0
143.33,73.0
143.39,55.0
143.45,63.0
143.51,52.0
143.58,76.0
143.64,54.0
143.7,54.0
143.77,82.0
143.83,64.0
143.89,70.0
143.96,57.0
144.02,73.0
144.08,75.0
144.14,67.0
144.21,75.0
144.27,50.0
144.33,61.0
144.4,47.0
144.46,68.0
144.52,62.0
144.59,33.0
144.65,45.0
144.71,56.0
144.77,54.0
144.84,68.0
144.9,71.0
144.96,71.0
145.03,77.0
145.09,75.0
145.15,81.0
145.22,79.0
145.28,71.0
145.34,75.0
145.4,86.0
145.47,79.0
145.53,68.0
145.59,75.0
145.66,101.0
145.72,84.0
145.78,101.0
145.85,55.0
145.91,80.0
145.97,66.0
146.03,65.0
146.1,54.0
146.16,71.0
146.22,75.0
146.29,67.0
146.35,79.0
146.41,82.0
146.47,55.0
146.54,49.0
146.6,49.0
146.66,25.0
146.73,20.0
146.79,52.0
146.85,36.0
146.92,27.0
146.98,45.0
147.04,49.0
147.1,36.0
147.17,36.0
147.23,26.0
147.29,26.0
147.36,29.0
147.42,7.0
147.48,13.0
147.55,10.0
147.61,15.0
147.67,31.0
147.73,15.0
147.8,3.0
147.86,5.0
147.92,12.0
147.99,2.0
148.05,23.0
148.11,13.0
148.18,8.0
148.24,13.0
148.3,0.0
148.36,-4.0
148.43,-2.0
148.49,1.0
148.55,-15.0
148.62,9.0
148.68,-8.0
148.74,-5.0
148.81,-2.0
148.87,-24.0
148.93,-12.0
148.99,-1.0
149.06,1.0
149.12,7.0
149.18,1.0
149.25,1.0
149.31,-16.0
149.37,-21.0
149.44,-16.0
149.5,-29.0
149.56,-38.0
149.62,-31.0
149.69,-36.0
149.75,-11.0
149.81,-20.0
149.88,-20.0
149.94,-21.0
150.0,-40.0
150.07,-15.0
150.13,-4.0
150.19,-12.0
150.25,-23.0
150.32,-20.0
150.38,-3.0
150.44,-18.0
150.51,-14.0
150.57,-11.0
150.63,-1.0
150.7,-2.0
150.76,-7.0
150.82,4.0
150.88,-6.0
150.95,13.0
151.01,6.0
151.07,21.0
151.14,30.0
151.2,26.0
151.26,27.0
151.33,27.0
151.39,21.0
151.45,24.0
151.51,7.0
151.58,25.0
151.64,30.0
151.7,17.0
151.77,11.0
151.83,7.0
151.89,33.0
151.96,19.0
152.02,25.0
152.08,15.0
152.14,24.0
152.21,16.0
152.27,21.0
152.33,23.0
152.4,8.0
152.46,15.0
152.52,39.0
152.59,26.0
152.65,32.0
152.71,56.0
152.77,46.0
152.84,44.0
152.9,55.0
152.96,52.0
153.03,55.0
153.09,54.0
153.15,34.0
153.22,29.0
153.28,30.0
153.34,39.0
153.4,34.0
153.47,41.0
153.53,31.0
153.59,12.0
153.66,26.0
153.72,34.0
153.78,41.0
153.85,52.0
153.91,54.0
153.97,51.0
154.03,52.0
154.1,57.0
154.16,63.0
154.22,74.0
154.29,58.0
154.35,71.0
154.41,58.0
154.48,70.0
154.54,56.0
154.6,63.0
154.66,72.0
154.73,67.0
154.79,59.0
154.85,46.0
154.92,55.0
154.98,38.0
155.04,37.0
155.11,52.0
155.17,50.0
155.23,48.0
155.29,52.0
155.36,30.0
155.42,53.0
155.48,71.0
155.55,73.0
155.61,51.0
155.67,50.0
155.74,61.0
155.8,71.0
155.86,76.0
155.92,96.0
155.99,77.0
156.05,79.0
156.11,77.0
156.18,94.0
156.24,92.0
156.3,95.0
156.37,113.0
156.43,107.0
156.49,95.0
156.55,92.0
156.62,98.0
156.68,84.0
156.74,96.0
156.81,100.0
156.87,86.0
156.93,89.0
157.0,90.0
157.06,85.0
157.12,99.0
157.18,96.0
157.25,91.0
157.31,77.0
157.37,74.0
157.44,94.0
157.5,88.0
157.56,108.0
157.63,113.0
157.69,116.0
157.75,109.0
157.81,108.0
157.88,113.0
157.94,85.0
158.0,89.0
158.07,84.0
158.13,73.0
158.19,88.0
158.26,95.0
158.32,101.0
158.38,85.0
158.44,64.0
158.51,74.0
158.57,112.0
158.63,87.0
158.7,99.0
158.76,80.0
158.82,79.0
158.89,84.0
158.95,74.0
159.01,62.0
159.07,44.0
159.14,53.0
159.2,56.0
159.26,83.0
159.33,93.0
159.39,75.0
159.45,88.0
159.52,68.0
159.58,65.0
159.64,88.0
159.7,88.0
159.77,82.0
159.83,84.0
159.89,109.0
159.96,75.0
160.02,88.0
160.08,113.0
160.15,120.0
160.21,118.0
160.27,91.0
160.33,107.0
160.4,106.0
160.46,89.0
160.52,122.0
160.59,110.0
160.65,93.0
160.71,112.0
160.78,120.0
160.84,120.0
160.9,122.0
160.96,121.0
161.03,118.0
161.09,129.0
161.15,133.0
161.22,127.0
161.28,131.0
161.34,140.0
161.41,126.0
161.47,111.0
161.53,86.0
161.59,113.0
161.66,131.0
161.72,118.0
161.78,118.0
161.85,114.0
161.91,122.0
161.97,115.0
162.04,119.0
162.1,111.0
162.16,98.0
162.22,114.0
162.29,103.0
162.35,118.0
162.41,109.0
162.48,95.0
162.54,116.0
162.6,118.0
162.67,127.0
162.73,112.0
162.79,109.0
162.85,106.0
162.92,108.0
162.98,118.0
163.04,122.0
163.11,115.0
163.17,118.0
163.23,113.0
163.3,111.0
163.36,111.0
163.42,131.0
163.48,118.0
163.55,117.0
163.61,101.0
163.67,102.0
163.74,90.0
163.8,89.0
163.86,94.0
163.93,102.0
163.99,104.0
164.05,101.0
164.11,116.0
164.18,116.0
164.24,103.0
164.3,96.0
164.37,112.0
164.43,88.0
164.49,107.0
164.56,103.0
164.62,88.0
164.68,88.0
164.74,93.0
164.81,81.0
164.87,62.0
164.93,70.0
165.0,60.0
165.06,72.0
165.12,81.0
165.19,81.0
165.25,78.0
165.31,95.0
165.37,82.0
165.44,84.0
165.5,70.0
165.56,68.0
165.63,81.0
165.69,59.0
165.75,107.0
165.82,100.0
165.88,90.0
165.94,103.0
166.0,87.0
166.07,99.0
166.13,80.0
166.19,92.0
166.26,90.0
166.32,87.0
166.38,85.0
166.45,87.0
166.51,79.0
166.57,81.0
166.63,85.0
166.7,59.0
166.76,70.0
166.82,57.0
166.89,66.0
166.95,67.0
167.01,54.0
167.08,60.0
167.14,59.0
167.2,51.0
167.26,33.0
167.33,53.0
167.39,57.0
167.45,70.0
167.52,59.0
167.58,45.0
167.64,79.0
167.71,83.0
167.77,60.0
167.83,60.0
167.89,70.0
167.96,69.0
168.02,78.0
168.08,65.0
168.15,74.0
168.21,89.0
168.27,66.0
168.34,64.0
168.4,59.0
168.46,88.0
168.52,72.0
168.59,78.0
168.65,74.0
168.71,63.0
168.78,93.0
168.84,78.0
168.9,63.0
168.97,59.0
169.03,83.0
169.09,103.0
169.15,77.0
169.22,74.0
169.28,84.0
169.34,96.0
169.41,89.0
169.47,76.0
169.53,74.0
169.6,91.0
169.66,74.0
169.72,56.0
169.78,83.0
169.85,70.0
169.91,68.0
169.97,80.0
170.04,69.0
170.1,56.0
170.16,67.0
170.23,71.0
170.29,85.0
170.35,102.0
170.41,87.0
170.48,81.0
170.54,88.0
170.6,98.0
170.67,88.0
170.73,100.0
170.79,103.0
170.86,90.0
170.92,81.0
170.98,94.0
171.04,93.0
171.11,100.0
171.17,101.0
171.23,89.0
171.3,92.0
171.36,93.0
171.42,87.0
171.49,92.0
171.55,93.0
171.61,94.0
171.67,107.0
171.74,101.0
171.8,102.0
171.86,130.0
171.93,115.0
171.99,111.0
172.05,115.0
172.12,95.0
172.18,94.0
172.24,106.0
172.3,95.0
172.37,103.0
172.43,101.0
172.49,85.0
172.56,85.0
172.62,96.0
172.68,87.0
172.75,96.0
172.81,89.0
172.87,71.0
172.93,82.0
173.0,94.0
173.06,72.0
173.12,74.0
173.19,92.0
173.25,95.0
173.31,97.0
173.38,84.0
173.44,91.0
173.5,98.0
173.56,98.0
173.63,93.0
173.69,97.0
173.75,93.0
173.82,78.0
173.88,103.0
173.94,95.0
174.01,109.0
174.07,114.0
174.13,119.0
174.19,110.0
174.26,96.0
174.32,88.0
174.38,82.0
174.45,80.0
174.51,68.0
174.57,78.0
174.64,89.0
174.7,57.0
174.76,49.0
174.82,48.0
174.89,76.0
174.95,59.0
175.01,58.0
175.08,34.0
175.14,34.0
175.2,42.0
175.27,36.0
175.33,7.0
175.39,15.0
175.45,19.0
175.52,25.0
175.58,19.0
175.64,26.0
175.71,17.0
175.77,16.0
175.83,30.0
175.9,31.0
175.96,32.0
176.02,15.0
176.08,22.0
176.15,5.0
176.21,8.0
176.27,19.0
176.34,16.0
176.4,13.0
176.46,22.0
176.53,19.0
176.59,22.0
176.65,12.0
176.71,15.0
176.78,6.0
176.84,7.0
176.9,26.0
176.97,13.0
177.03,22.0
177.09,19.0
177.16,10.0
177.22,26.0
177.28,37.0
177.34,52.0
177.41,43.0
177.47,48.0
177.53,51.0
177.6,54.0
177.66,49.0
177.72,35.0
177.79,49.0
177.85,59.0
177.91,49.0
177.97,49.0
178.04,50.0
178.1,41.0
178.16,49.0
178.23,49.0
178.29,44.0
178.35,47.0
178.42,56.0
178.48,43.0
178.54,38.0
178.6,43.0
178.67,37.0
178.73,52.0
178.79,36.0
178.86,43.0
178.92,36.0
178.98,40.0
179.05,56.0
179.11,46.0
179.17,33.0
179.23,39.0
179.3,39.0
179.36,52.0
179.42,67.0
179.49,69.0
179.55,65.0
179.61,73.0
179.68,62.0
179.74,63.0
179.8,59.0
179.86,48.0
179.93,30.0
179.99,44.0
180.05,49.0
180.12,52.0
180.18,55.0
180.24,41.0
180.31,37.0
180.37,29.0
180.43,15.0
180.49,32.0
180.56,22.0
180.62,26.0
180.68,57.0
180.75,33.0
180.81,40.0
180.87,22.0
180.94,24.0
181.0,32.0
181.06,5.0
181.12,43.0
181.19,45.0
181.25,46.0
181.31,49.0
181.38,26.0
181.44,28.0
181.5,15.0
181.57,12.0
181.63,31.0
181.69,12.0
181.75,15.0
181.82,8.0
181.88,-2.0
181.94,-2.0
182.01,-15.0
182.07,-12.0
182.13,2.0
182.2,0.0
182.26,6.0
182.32,9.0
182.38,0.0
182.45,-3.0
182.51,23.0
182.57,19.0
182.64,11.0
182.7,32.0
182.76,33.0
182.83,26.0
182.89,8.0
182.95,16.0
183.01,22.0
183.08,23.0
183.14,23.0
183.2,40.0
183.27,47.0
183.33,45.0
183.39,41.0
183.46,41.0
183.52,27.0
183.58,15.0
183.64,34.0
183.71,26.0
183.77,28.0
183.83,35.0
183.9,44.0
183.96,38.0
184.02,14.0
184.09,23.0
184.15,48.0
184.21,39.0
184.27,37.0
184.34,55.0
184.4,50.0
184.46,39.0
184.53,49.0
184.59,61.0
184.65,53.0
184.72,55.0
184.78,67.0
184.84,66.0
184.9,49.0
184.97,56.0
185.03,67.0
185.09,74.0
185.16,66.0
185.22,54.0
185.28,60.0
185.35,56.0
185.41,50.0
185.47,75.0
185.53,82.0
185.6,91.0
185.66,83.0
185.72,87.0
185.79,93.0
185.85,83.0
185.91,85.0
185.98,100.0
186.04,109.0
186.1,115.0
186.16,119.0
186.23,114.0
186.29,113.0
186.35,119.0
186.42,115.0
186.48,123.0
186.54,124.0
186.61,123.0
186.67,114.0
186.73,121.0
186.79,119.0
186.86,119.0
186.92,121.0
186.98,129.0
187.05,133.0
187.11,99.0
187.17,90.0
187.24,94.0
187.3,118.0
187.36,127.0
187.42,143.0
187.49,120.0
187.55,137.0
187.61,114.0
187.68,110.0
187.74,118.0
187.8,115.0
187.87,111.0
187.93,113.0
187.99,128.0
188.05,127.0
188.12,126.0
188.18,116.0
188.24,111.0
188.31,94.0
188.37,105.0
188.43,114.0
188.5,132.0
188.56,132.0
188.62,124.0
188.68,130.0
188.75,130.0
188.81,133.0
188.87,142.0
188.94,148.0
189.0,133.0
189.06,144.0
189.13,129.0
189.19,108.0
189.25,124.0
189.31,130.0
189.38,119.0
189.44,123.0
189.5,103.0
189.57,112.0
189.63,115.0
189.69,114.0
189.76,99.0
189.82,111.0
189.88,113.0
189.94,127.0
190.01,115.0
190.07,101.0
190.13,108.0
190.2,103.0
190.26,119.0
190.32,133.0
190.39,134.0
190.45,125.0
190.51,125.0
190.57,133.0
190.64,124.0
190.7,130.0
190.76,114.0
190.83,122.0
190.89,132.0
190.95,114.0
191.02,116.0
191.08,114.0
191.14,125.0
191.2,118.0
191.27,118.0
191.33,111.0
191.39,107.0
191.46,109.0
191.52,116.0
191.58,115.0
191.65,94.0
191.71,87.0
191.77,102.0
191.83,110.0
191.9,111.0
191.96,99.0
192.02,106.0
192.09,85.0
192.15,95.0
192.21,92.0
192.28,90.0
192.34,87.0
192.4,98.0
192.46,100.0
192.53,81.0
192.59,74.0
192.65,76.0
192.72,68.0
192.78,69.0
192.84,78.0
192.91,67.0
192.97,82.0
193.03,89.0
193.09,89.0
193.16,94.0
193.22,94.0
193.28,85.0
193.35,78.0
193.41,71.0
193.47,78.0
193.54,74.0
193.6,71.0
193.66,86.0
193.72,86.0
193.79,88.0
193.85,91.0
193.91,84.0
193.98,66.0
194.04,95.0
194.1,79.0
194.17,81.0
194.23,91.0
194.29,107.0
194.35,94.0
194.42,111.0
194.48,105.0
194.54,115.0
194.61,109.0
194.67,113.0
194.73,107.0
194.8,111.0
194.86,113.0
194.92,78.0
194.98,89.0
195.05,86.0
195.11,89.0
195.17,115.0
195.24,118.0
195.3,114.0
195.36,103.0
195.43,115.0
195.49,118.0
195.55,108.0
195.61,104.0
195.68,110.0
195.74,123.0
195.8,118.0
195.87,114.0
195.93,128.0
195.99,114.0
196.06,100.0
196.12,101.0
196.18,91.0
196.24,84.0
196.31,77.0
196.37,57.0
196.43,81.0
196.5,103.0
196.56,80.0
196.62,91.0
196.69,87.0
196.75,88.0
196.81,96.0
196.87,85.0
196.94,80.0
197.0,91.0
197.06,80.0
197.13,77.0
197.19,83.0
197.25,76.0
197.32,82.0
197.38,92.0
197.44,86.0
197.5,76.0
197.57,85.0
197.63,57.0
197.69,62.0
197.76,74.0
197.82,91.0
197.88,77.0
197.95,94.0
198.01,85.0
198.07,88.0
198.13,81.0
198.2,86.0
198.26,63.0
198.32,46.0
198.39,60.0
198.45,62.0
198.51,62.0
198.58,38.0
198.64,39.0
198.7,44.0
198.76,39.0
198.83,39.0
198.89,37.0
198.95,29.0
199.02,17.0
199.08,25.0
199.14,16.0
199.21,-2.0
199.27,31.0
199.33,18.0
199.39,15.0
199.46,15.0
199.52,11.0
199.58,-20.0
199.65,-4.0
199.71,-20.0
199.77,-29.0
199.84,-34.0
199.9,-28.0
199.96,-45.0
200.02,-37.0
200.09,-34.0
200.15,-57.0
200.21,-23.0
200.28,-24.0
200.34,-38.0
200.4,-35.0
200.47,-49.0
200.53,-42.0
200.59,-62.0
200.65,-58.0
200.72,-63.0
200.78,-54.0
200.84,-46.0
200.91,-47.0
200.97,-34.0
201.03,-67.0
201.1,-58.0
201.16,-42.0
201.22,-50.0
201.28,-38.0
201.35,-37.0
201.41,-35.0
201.47,-40.0
201.54,-20.0
201.6,-21.0
201.66,-16.0
201.73,-15.0
201.79,-7.0
201.85,-25.0
201.91,-10.0
201.98,-9.0
202.04,5.0
202.1,5.0
202.17,-5.0
202.23,21.0
202.29,22.0
202.36,35.0
202.42,37.0
202.48,38.0
202.54,38.0
202.61,38.0
202.67,41.0
202.73,43.0
202.8,43.0
202.86,22.0
202.92,38.0
202.99,38.0
203.05,30.0
203.11,35.0
203.17,47.0
203.24,35.0
203.3,22.0
203.36,36.0
203.43,35.0
203.49,54.0
203.55,9.0
203.62,34.0
203.68,47.0
203.74,35.0
203.8,30.0
203.87,35.0
203.93,37.0
203.99,43.0
204.06,55.0
204.12,60.0
204.18,32.0
204.25,47.0
204.31,43.0
204.37,47.0
204.43,73.0
204.5,69.0
204.56,60.0
204.62,71.0
204.69,66.0
204.75,53.0
204.81,65.0
204.88,65.0
204.94,62.0
205.0,58.0
205.06,65.0
205.13,55.0
205.19,46.0
205.25,34.0
205.32,50.0
205.38,57.0
205.44,66.0
205.51,53.0
205.57,46.0
205.63,64.0
205.69,56.0
205.76,86.0
205.82,78.0
205.88,70.0
205.95,83.0
206.01,91.0
206.07,79.0
206.14,76.0
206.2,88.0
206.26,84.0
206.32,77.0
206.39,106.0
206.45,102.0
206.51,110.0
206.58,110.0
206.64,91.0
206.7,98.0
206.77,105.0
206.83,104.0
206.89,102.0
206.95,94.0
207.02,84.0
207.08,87.0
207.14,93.0
207.21,79.0
207.27,87.0
207.33,87.0
207.4,84.0
207.46,74.0
207.52,81.0
207.58,81.0
207.65,91.0
207.71,98.0
207.77,90.0
207.84,102.0
207.9,97.0
207.96,102.0
208.03,120.0
208.09,117.0
208.15,110.0
208.21,113.0
208.28,97.0
208.34,92.0
208.4,101.0
208.47,93.0
208.53,89.0
208.59,90.0
208.66,101.0
208.72,101.0
208.78,105.0
208.84,99.0
208.91,102.0
208.97,108.0
209.03,99.0
209.1,90.0
209.16,108.0
209.22,122.0
209.29,124.0
209.35,130.0
209.41,127.0
209.47,94.0
209.54,95.0
209.6,113.0
209.66,88.0
209.73,107.0
209.79,82.0
209.85,102.0
209.92,101.0
209.98,96.0
210.04,126.0
210.1,98.0
210.17,113.0
210.23,89.0
210.29,113.0
210.36,132.0
210.42,121.0
210.48,109.0
210.55,125.0
210.61,124.0
210.67,124.0
210.73,133.0
210.8,141.0
210.86,143.0
210.92,120.0
210.99,129.0
211.05,144.0
211.11,129.0
211.18,134.0
211.24,140.0
211.3,132.0
211.36,122.0
211.43,132.0
211.49,131.0
211.55,132.0
211.62,136.0
211.68,132.0
211.74,131.0
211.81,115.0
211.87,126.0
211.93,142.0
211.99,115.0
212.06,126.0
212.12,129.0
212.18,133.0
212.25,139.0
212.31,123.0
212.37,115.0
212.44,137.0
212.5,161.0
212.56,140.0
212.62,144.0
212.69,161.0
212.75,162.0
212.81,170.0
212.88,155.0
212.94,156.0
213.0,157.0
213.07,176.0
213.13,167.0
213.19,161.0
213.25,178.0
213.32,162.0
213.38,173.0
213.44,173.0
213.51,170.0
213.57,162.0
213.63,135.0
213.7,147.0
213.76,141.0
213.82,141.0
213.88,145.0
213.95,149.0
214.01,172.0
214.07,158.0
214.14,157.0
214.2,154.0
214.26,145.0
214.33,156.0
214.39,142.0
214.45,129.0
214.51,139.0
214.58,128.0
214.64,129.0
214.7,125.0
214.77,122.0
214.83,110.0
214.89,117.0
214.96,119.0
215.02,105.0
215.08,111.0
215.14,105.0
215.21,88.0
215.27,100.0
215.33,105.0
215.4,107.0
215.46,122.0
215.52,110.0
215.59,98.0
215.65,102.0
215.71,104.0
215.77,99.0
215.84,91.0
215.9,104.0
215.96,85.0
216.03,85.0
216.09,85.0
216.15,104.0
216.22,91.0
216.28,83.0
216.34,80.0
216.4,84.0
216.47,90.0
216.53,59.0
216.59,66.0
216.66,56.0
216.72,69.0
216.78,63.0
216.85,58.0
216.91,74.0
216.97,84.0
217.03,65.0
217.1,76.0
217.16,47.0
217.22,62.0
217.29,64.0
217.35,63.0
217.41,50.0
217.48,66.0
217.54,52.0
217.6,68.0
217.66,70.0
217.73,75.0
217.79,80.0
217.85,59.0
217.92,67.0
217.98,65.0
218.04,60.0
218.11,76.0
218.17,66.0
218.23,56.0
218.29,63.0
218.36,92.0
218.42,97.0
218.48,87.0
218.55,92.0
218.61,76.0
218.67,69.0
218.74,71.0
218.8,68.0
218.86,71.0
218.92,88.0
218.99,106.0
219.05,94.0
219.11,71.0
219.18,73.0
219.24,83.0
219.3,85.0
219.37,93.0
219.43,76.0
219.49,73.0
219.55,66.0
219.62,63.0
219.68,89.0
219.74,80.0
219.81,54.0
219.87,54.0
219.93,59.0
220.0,73.0
220.06,68.0
220.12,65.0
220.18,66.0
220.25,77.0
220.31,55.0
220.37,54.0
220.44,75.0
220.5,61.0
220.56,52.0
220.63,79.0
220.69,70.0
220.75,89.0
220.81,108.0
220.88,115.0
220.94,91.0
221.0,86.0
221.07,113.0
221.13,108.0
221.19,85.0
221.26,87.0
221.32,101.0
221.38,85.0
221.44,89.0
221.51,89.0
221.57,105.0
221.63,93.0
221.7,88.0
221.76,90.0
221.82,78.0
221.89,78.0
221.95,57.0
222.01,69.0
222.07,73.0
222.14,59.0
222.2,51.0
222.26,52.0
222.33,59.0
222.39,51.0
222.45,47.0
222.52,70.0
222.58,47.0
222.64,56.0
222.7,38.0
222.77,43.0
222.83,52.0
222.89,46.0
222.96,38.0
223.02,54.0
223.08,62.0
223.15,76.0
223.21,86.0
223.27,72.0
223.33,85.0
223.4,60.0
223.46,69.0
223.52,78.0
223.59,80.0
223.65,73.0
223.71,57.0
223.78,63.0
223.84,61.0
223.9,55.0
223.96,78.0
224.03,93.0
224.09,73.0
224.15,98.0
224.22,80.0
224.28,95.0
224.34,91.0
224.41,82.0
224.47,76.0
224.53,74.0
224.59,98.0
224.66,96.0
224.72,78.0
224.78,75.0
224.85,63.0
224.91,65.0
224.97,65.0
225.04,62.0
225.1,64.0
225.16,50.0
225.22,43.0
225.29,44.0
225.35,52.0
225.41,47.0
225.48,41.0
225.54,41.0
225.6,21.0
225.67,22.0
225.73,9.0
225.79,7.0
225.85,14.0
225.92,21.0
225.98,11.0
226.04,8.0
226.11,25.0
226.17,27.0
226.23,29.0
226.3,25.0
226.36,30.0
226.42,14.0
226.48,37.0
226.55,20.0
226.61,21.0
226.67,28.0
226.74,24.0
226.8,25.0
226.86,10.0
226.93,16.0
226.99,24.0
227.05,13.0
227.11,22.0
227.18,37.0
227.24,33.0
227.3,40.0
227.37,41.0
227.43,25.0
227.49,20.0
227.56,28.0
227.62,35.0
227.68,44.0
227.74,48.0
227.81,22.0
227.87,58.0
227.93,52.0
228.0,61.0
228.06,53.0
228.12,49.0
228.19,33.0
228.25,56.0
228.31,40.0
228.37,49.0
228.44,59.0
228.5,63.0
228.56,66.0
228.63,62.0
228.69,65.0
228.75,54.0
228.82,50.0
228.88,58.0
228.94,85.0
229.0,71.0
229.07,72.0
229.13,69.0
229.19,71.0
229.26,73.0
229.32,79.0
229.38,69.0
229.45,54.0
229.51,53.0
229.57,55.0
229.63,57.0
229.7,75.0
229.76,75.0
229.82,62.0
229.89,83.0
229.95,83.0
230.01,85.0
230.08,63.0
230.14,66.0
230.2,72.0
230.26,68.0
230.33,64.0
230.39,62.0
230.45,48.0
230.52,67.0
230.58,68.0
230.64,56.0
230.71,54.0
230.77,57.0
230.83,44.0
230.89,43.0
230.96,41.0
231.02,49.0
231.08,32.0
231.15,37.0
231.21,44.0
231.27,45.0
231.34,25.0
231.4,32.0
231.46,33.0
231.52,35.0
231.59,19.0
231.65,25.0
231.71,25.0
231.78,30.0
231.84,31.0
231.9,18.0
231.97,23.0
232.03,47.0
232.09,35.0
232.15,18.0
232.22,14.0
232.28,6.0
232.34,21.0
232.41,9.0
232.47,15.0
232.53,53.0
232.6,46.0
232.66,43.0
232.72,65.0
232.78,58.0
232.85,35.0
232.91,54.0
232.97,59.0
233.04,54.0
233.1,57.0
233.16,40.0
233.23,54.0
233.29,36.0
233.35,21.0
233.41,36.0
233.48,39.0
233.54,33.0
233.6,47.0
233.67,43.0
233.73,43.0
233.79,40.0
233.86,30.0
233.92,27.0
233.98,21.0
234.04,15.0
234.11,26.0
234.17,10.0
234.23,11.0
234.3,25.0
234.36,27.0
234.42,-3.0
234.49,8.0
234.55,17.0
234.61,44.0
234.67,61.0
234.74,56.0
234.8,54.0
234.86,46.0
234.93,39.0
234.99,35.0
235.05,40.0
235.12,57.0
235.18,62.0
235.24,60.0
235.3,55.0
235.37,54.0
235.43,71.0
235.49,83.0
235.56,70.0
235.62,66.0
235.68,53.0
235.75,46.0
235.81,60.0
235.87,79.0
235.93,80.0
236.0,88.0
236.06,88.0
236.12,83.0
236.19,64.0
236.25,71.0
236.31,92.0
236.38,81.0
236.44,88.0
236.5,71.0
236.56,72.0
236.63,77.0
236.69,71.0
236.75,82.0
236.82,86.0
236.88,72.0
236.94,83.0
237.01,85.0
237.07,88.0
237.13,112.0
237.19,122.0
237.26,121.0
237.32,119.0
237.38,129.0
237.45,126.0
237.51,107.0
237.57,138.0
237.64,124.0
237.7,102.0
237.76,110.0
237.82,99.0
237.89,119.0
237.95,116.0
238.01,131.0
238.08,155.0
238.14,149.0
238.2,152.0
238.27,145.0
238.33,149.0
238.39,167.0
238.45,134.0
238.52,137.0
238.58,126.0
238.64,149.0
238.71,166.0
238.77,175.0
238.83,176.0
238.9,168.0
238.96,157.0
239.02,159.0
239.08,163.0
239.15,163.0
239.21,162.0
239.27,157.0
239.34,162.0
239.4,164.0
239.46,175.0
239.53,175.0
239.59,174.0
239.65,175.0
239.71,176.0
239.78,175.0
239.84,176.0
239.9,170.0
239.97,159.0
240.03,167.0
240.09,168.0
240.16,177.0
240.22,169.0
240.28,181.0
240.34,168.0
240.41,164.0
240.47,190.0
240.53,171.0
240.6,164.0
240.66,160.0
240.72,164.0
240.79,165.0
240.85,155.0
240.91,167.0
240.97,171.0
241.04,164.0
241.1,165.0
241.16,171.0
241.23,185.0
241.29,167.0
241.35,182.0
241.42,176.0
241.48,154.0
241.54,138.0
241.6,144.0
241.67,153.0
241.73,149.0
241.79,149.0
241.86,154.0
241.92,154.0
241.98,140.0
242.05,115.0
242.11,135.0
242.17,135.0
242.23,135.0
242.3,134.0
242.36,159.0
242.42,140.0
242.49,147.0
242.55,167.0
242.61,144.0
242.68,155.0
242.74,140.0
242.8,136.0
242.86,135.0
242.93,145.0
242.99,136.0
243.05,133.0
243.12,112.0
243.18,117.0
243.24,124.0
243.31,119.0
243.37,127.0
243.43,119.0
243.49,121.0
243.56,134.0
243.62,138.0
243.68,135.0
243.75,133.0
243.81,147.0
243.87,149.0
243.94,156.0
244.0,165.0
244.06,154.0
244.12,153.0
244.19,155.0
244.25,158.0
244.31,149.0
244.38,141.0
244.44,144.0
244.5,153.0
244.57,159.0
244.63,169.0
244.69,165.0
244.75,149.0
244.82,167.0
244.88,166.0
244.94,180.0
245.01,173.0
245.07,170.0
245.13,158.0
245.2,177.0
245.26,189.0
245.32,167.0
245.38,161.0
245.45,168.0
245.51,172.0
245.57,146.0
245.64,136.0
245.7,147.0
245.76,141.0
245.83,152.0
245.89,138.0
245.95,133.0
246.01,150.0
246.08,143.0
246.14,137.0
246.2,134.0
246.27,119.0
246.33,127.0
246.39,141.0
246.46,128.0
246.52,139.0
246.58,159.0
246.64,135.0
246.71,125.0
246.77,132.0
246.83,136.0
246.9,133.0
246.96,128.0
247.02,134.0
247.09,123.0
247.15,116.0
247.21,105.0
247.27,96.0
247.34,101.0
247.4,100.0
247.46,99.0
247.53,93.0
247.59,102.0
247.65,105.0
247.72,79.0
247.78,85.0
247.84,97.0
247.9,103.0
247.97,94.0
248.03,90.0
248.09,83.0
248.16,101.0
248.22,89.0
248.28,56.0
248.35,59.0
248.41,83.0
248.47,79.0
248.53,47.0
248.6,68.0
248.66,49.0
248.72,33.0
248.79,54.0
248.85,56.0
248.91,60.0
248.98,60.0
249.04,59.0
249.1,61.0
249.16,50.0
249.23,32.0
249.29,46.0
249.35,19.0
249.42,24.0
249.48,30.0
249.54,30.0
249.61,46.0
249.67,40.0
249.73,32.0
249.79,28.0
249.86,37.0
249.92,18.0
249.98,25.0
250.05,27.0
250.11,38.0
250.17,28.0
250.24,17.0
250.3,15.0
250.36,5.0
250.42,23.0
250.49,5.0
250.55,14.0
250.61,19.0
250.68,29.0
250.74,13.0
250.8,-1.0
250.87,22.0
250.93,28.0
250.99,9.0
251.05,6.0
251.12,13.0
251.18,6.0
251.24,10.0
251.31,7.0
251.37,5.0
251.43,-8.0
251.5,-16.0
251.56,-12.0
251.62,10.0
251.68,-4.0
251.75,-12.0
251.81,-18.0
251.87,-20.0
251.94,-23.0
252.0,-33.0
252.06,-9.0
252.13,-41.0
252.19,-31.0
252.25,-18.0
252.31,-17.0
252.38,-15.0
252.44,-32.0
252.5,-42.0
252.57,-17.0
252.63,-18.0
252.69,-25.0
252.76,-33.0
252.82,-34.0
252.88,-42.0
252.94,-62.0
253.01,-22.0
253.07,-36.0
253.13,-32.0
253.2,-18.0
253.26,-15.0
253.32,-24.0
253.39,-18.0
253.45,5.0
253.51,-15.0
253.57,18.0
253.64,-12.0
253.7,-10.0
253.76,-6.0
253.83,-17.0
253.89,-4.0
253.95,3.0
254.02,12.0
254.08,3.0
254.14,4.0
254.2,7.0
254.27,4.0
254.33,24.0
254.39,15.0
254.46,-11.0
254.52,-2.0
254.58,21.0
254.65,14.0
254.71,7.0
254.77,19.0
254.83,18.0
254.9,4.0
254.96,12.0
255.02,19.0
255.09,26.0
255.15,21.0
255.21,10.0
255.28,-3.0
255.34,12.0
255.4,8.0
255.46,15.0
255.53,18.0
255.59,6.0
255.65,12.0
255.72,26.0
255.78,26.0
255.84,-3.0
255.91,7.0
255.97,4.0
256.03,11.0
256.09,7.0
256.16,-6.0
256.22,-1.0
256.28,-5.0
256.35,-3.0
256.41,-14.0
256.47,-3.0
256.54,-22.0
256.6,-11.0
256.66,-12.0
256.72,-23.0
256.79,-6.0
256.85,3.0
256.91,3.0
256.98,11.0
257.04,10.0
257.1,16.0
257.17,18.0
257.23,15.0
257.29,30.0
257.35,27.0
257.42,35.0
257.48,19.0
257.54,40.0
257.61,31.0
257.67,44.0
257.73,48.0
257.8,31.0
257.86,46.0
257.92,44.0
257.98,53.0
258.05,59.0
258.11,61.0
258.17,66.0
258.24,50.0
258.3,60.0
258.36,64.0
258.43,48.0
258.49,24.0
258.55,54.0
258.61,47.0
258.68,51.0
258.74,63.0
258.8,58.0
258.87,51.0
258.93,36.0
258.99,40.0
259.06,51.0
259.12,60.0
259.18,52.0
259.24,37.0
259.31,68.0
259.37,60.0
259.43,72.0
259.5,62.0
259.56,66.0
259.62,52.0
259.69,66.0
259.75,49.0
259.81,33.0
259.87,42.0
259.94,48.0
260.0,45.0
260.06,38.0
260.13,57.0
260.19,67.0
260.25,59.0
260.32,67.0
260.38,66.0
260.44,59.0
260.5,59.0
260.57,62.0
260.63,51.0
260.69,62.0
260.76,59.0
260.82,70.0
260.88,65.0
260.95,38.0
261.01,57.0
261.07,57.0
261.13,31.0
261.2,51.0
261.26,63.0
261.32,74.0
261.39,78.0
261.45,83.0
261.51,95.0
261.58,98.0
261.64,103.0
261.7,106.0
261.76,100.0
261.83,99.0
261.89,113.0
261.95,125.0
262.02,135.0
262.08,126.0
262.14,122.0
262.21,128.0
262.27,118.0
262.33,128.0
262.39,113.0
262.46,120.0
262.52,126.0
262.58,127.0
262.65,137.0
262.71,139.0
262.77,124.0
262.84,133.0
262.9,124.0
262.96,127.0
263.02,143.0
263.09,124.0
263.15,138.0
263.21,119.0
263.28,136.0
263.34,137.0
263.4,144.0
263.47,142.0
263.53,158.0
263.59,158.0
263.65,136.0
263.72,151.0
263.78,157.0
263.84,135.0
263.91,140.0
263.97,151.0
264.03,147.0
264.1,145.0
264.16,120.0
264.22,145.0
264.28,137.0
264.35,131.0
264.41,130.0
264.47,128.0
264.54,128.0
264.6,139.0
264.66,151.0
264.73,161.0
264.79,155.0
264.85,143.0
264.91,133.0
264.98,153.0
265.04,150.0
265.1,128.0
265.17,153.0
265.23,165.0
265.29,154.0
265.36,165.0
265.42,178.0
265.48,151.0
265.54,164.0
265.61,161.0
265.67,150.0
265.73,148.0
265.8,147.0
265.86,141.0
265.92,121.0
265.99,142.0
266.05,132.0
266.11,134.0
266.17,133.0
266.24,138.0
266.3,124.0
266.36,126.0
266.43,113.0
266.49,114.0
266.55,106.0
266.62,112.0
266.68,125.0
266.74,130.0
266.8,119.0
266.87,124.0
266.93,142.0
266.99,130.0
267.06,117.0
267.12,134.0
267.18,113.0
267.25,114.0
267.31,110.0
267.37,123.0
267.43,132.0
267.5,107.0
267.56,95.0
267.62,88.0
267.69,80.0
267.75,79.0
267.81,76.0
267.88,64.0
267.94,73.0
268.0,84.0
268.06,73.0
268.13,83.0
268.19,78.0
268.25,89.0
268.32,93.0
268.38,93.0
268.44,108.0
268.51,83.0
268.57,101.0
268.63,117.0
268.69,109.0
268.76,110.0
268.82,110.0
268.88,133.0
268.95,128.0
269.01,124.0
269.07,118.0
269.14,121.0
269.2,129.0
269.26,118.0
269.32,119.0
269.39,139.0
269.45,98.0
269.51,101.0
269.58,103.0
269.64,76.0
269.7,92.0
269.77,113.0
269.83,109.0
269.89,111.0
269.95,97.0
270.02,92.0
270.08,102.0
270.14,91.0
270.21,79.0
270.27,91.0
270.33,77.0
270.4,96.0
270.46,83.0
270.52,84.0
270.58,99.0
270.65,99.0
270.71,112.0
270.77,92.0
270.84,96.0
270.9,115.0
270.96,108.0
271.03,96.0
271.09,82.0
271.15,91.0
271.21,85.0
271.28,81.0
271.34,95.0
271.4,88.0
271.47,113.0
271.53,92.0
271.59,95.0
271.66,97.0
271.72,96.0
271.78,103.0
271.84,102.0
271.91,126.0
271.97,130.0
272.03,114.0
272.1,112.0
272.16,109.0
272.22,113.0
272.29,137.0
272.35,151.0
272.41,132.0
272.47,115.0
272.54,100.0
272.6,116.0
272.66,112.0
272.73,103.0
272.79,111.0
272.85,103.0
272.92,88.0
272.98,88.0
273.04,101.0
273.1,81.0
273.17,91.0
273.23,102.0
273.29,112.0
273.36,106.0
273.42,100.0
273.48,104.0
273.55,115.0
273.61,122.0
273.67,131.0
273.73,139.0
273.8,131.0
273.86,128.0
273.92,128.0
273.99,137.0
274.05,119.0
274.11,121.0
274.18,154.0
274.24,143.0
274.3,112.0
274.36,120.0
274.43,115.0
274.49,101.0
274.55,112.0
274.62,107.0
274.68,115.0
274.74,87.0
274.81,104.0
274.87,102.0
274.93,84.0
274.99,84.0
275.06,94.0
275.12,100.0
275.18,88.0
275.25,105.0
275.31,99.0
275.37,106.0
275.44,96.0
275.5,88.0
275.56,86.0
275.62,81.0
275.69,76.0
275.75,80.0
275.81,84.0
275.88,75.0
275.94,63.0
276.0,86.0
276.07,87.0
276.13,76.0
276.19,85.0
276.25,74.0
276.32,68.0
276.38,62.0
276.44,84.0
276.51,79.0
276.57,65.0
276.63,59.0
276.7,66.0
276.76,51.0
276.82,59.0
276.88,71.0
276.95,72.0
277.01,66.0
277.07,87.0
277.14,74.0
277.2,54.0
277.26,69.0
277.33,48.0
277.39,48.0
277.45,58.0
277.51,74.0
277.58,54.0
277.64,51.0
277.7,50.0
277.77,56.0
277.83,53.0
277.89,39.0
277.96,54.0
278.02,50.0
278.08,58.0
278.14,59.0
278.21,55.0
278.27,73.0
278.33,65.0
278.4,59.0
278.46,51.0
278.52,58.0
278.59,63.0
278.65,69.0
278.71,77.0
278.77,56.0
278.84,50.0
278.9,66.0
278.96,62.0
279.03,64.0
279.09,71.0
279.15,61.0
279.22,62.0
279.28,62.0
279.34,67.0
279.4,63.0
279.47,62.0
279.53,50.0
279.59,77.0
279.66,80.0
279.72,84.0
279.78,88.0
279.85,87.0
279.91,91.0
279.97,92.0
280.03,109.0
280.1,92.0
280.16,98.0
280.22,113.0
280.29,98.0
280.35,91.0
280.41,90.0
280.48,95.0
280.54,106.0
280.6,106.0
280.66,86.0
280.73,90.0
280.79,89.0
280.85,93.0
280.92,97.0
280.98,87.0
281.04,80.0
281.11,82.0
281.17,85.0
281.23,71.0
281.29,69.0
281.36,80.0
281.42,93.0
281.48,77.0
281.55,86.0
281.61,80.0
281.67,79.0
281.74,90.0
281.8,68.0
281.86,84.0
281.92,61.0
281.99,54.0
282.05,67.0
282.11,79.0
282.18,54.0
282.24,47.0
282.3,51.0
282.37,51.0
282.43,66.0
282.49,73.0
282.55,66.0
282.62,45.0
282.68,32.0
282.74,30.0
282.81,31.0
282.87,21.0
282.93,29.0
283.0,28.0
283.06,13.0
283.12,21.0
283.18,27.0
283.25,22.0
283.31,28.0
283.37,34.0
283.44,37.0
283.5,26.0
283.56,16.0
283.63,32.0
283.69,43.0
283.75,51.0
283.81,46.0
283.88,38.0
283.94,32.0
284.0,30.0
284.07,12.0
284.13,29.0
284.19,21.0
284.26,13.0
284.32,1.0
284.38,11.0
284.44,18.0
284.51,15.0
284.57,22.0
284.63,35.0
284.7,28.0
284.76,24.0
284.82,34.0
284.89,39.0
284.95,37.0
285.01,39.0
285.07,53.0
285.14,60.0
285.2,46.0
285.26,39.0
285.33,58.0
285.39,44.0
285.45,15.0
285.52,34.0
285.58,34.0
285.64,24.0
285.7,24.0
285.77,10.0
285.83,21.0
285.89,27.0
285.96,29.0
286.02,38.0
286.08,51.0
286.15,38.0
286.21,32.0
286.27,46.0
286.33,42.0
286.4,45.0
286.46,55.0
286.52,52.0
286.59,41.0
286.65,48.0
286.71,33.0
286.78,33.0
286.84,39.0
286.9,25.0
286.96,39.0
287.03,49.0
287.09,77.0
287.15,73.0
287.22,60.0
287.28,68.0
287.34,67.0
287.41,85.0
287.47,73.0
287.53,90.0
287.59,76.0
287.66,71.0
287.72,77.0
287.78,77.0
287.85,73.0
287.91,68.0
287.97,93.0
288.04,97.0
288.1,90.0
288.16,86.0
288.22,68.0
288.29,76.0
288.35,86.0
288.41,76.0
288.48,69.0
288.54,88.0
288.6,103.0
288.67,121.0
288.73,102.0
288.79,103.0
288.85,95.0
288.92,91.0
288.98,103.0
289.04,99.0
289.11,99.0
289.17,117.0
289.23,98.0
289.3,111.0
289.36,110.0
289.42,109.0
289.48,110.0
289.55,117.0
289.61,121.0
289.67,114.0
289.74,99.0
289.8,121.0
289.86,115.0
289.93,110.0
289.99,118.0
290.05,99.0
290.11,102.0
290.18,129.0
290.24,104.0
290.3,96.0
290.37,103.0
290.43,112.0
290.49,101.0
290.56,115.0
290.62,125.0
290.68,130.0
290.74,111.0
290.81,142.0
290.87,148.0
290.93,152.0
291.0,149.0
291.06,150.0
291.12,154.0
291.19,169.0
291.25,157.0
291.31,131.0
291.37,156.0
291.44,156.0
291.5,154.0
291.56,184.0
291.63,173.0
291.69,145.0
291.75,129.0
291.82,144.0
291.88,153.0
291.94,124.0
292.0,106.0
292.07,93.0
292.13,111.0
292.19,110.0
292.26,98.0
292.32,126.0
292.38,130.0
292.45,120.0
292.51,124.0
292.57,127.0
292.63,125.0
292.7,119.0
292.76,112.0
292.82,117.0
292.89,116.0
292.95,111.0
293.01,118.0
293.08,120.0
293.14,114.0
293.2,106.0
293.26,122.0
293.33,125.0
293.39,136.0
293.45,135.0
293.52,125.0
293.58,139.0
293.64,143.0
293.71,143.0
293.77,126.0
293.83,123.0
293.89,134.0
293.96,129.0
294.02,121.0
294.08,115.0
294.15,99.0
294.21,118.0
294.27,132.0
294.34,110.0
294.4,109.0
294.46,110.0
294.52,102.0
294.59,109.0
294.65,120.0
294.71,121.0
294.78,132.0
294.84,114.0
294.9,139.0
294.97,135.0
295.03,140.0
295.09,129.0
295.15,128.0
295.22,124.0
295.28,139.0
295.34,158.0
295.41,158.0
295.47,150.0
295.53,149.0
295.6,165.0
295.66,163.0
295.72,150.0
295.78,147.0
295.85,163.0
295.91,159.0
295.97,158.0
296.04,140.0
296.1,145.0
296.16,132.0
296.23,129.0
296.29,126.0
296.35,132.0
296.41,148.0
296.48,130.0
296.54,158.0
296.6,165.0
296.67,144.0
296.73,158.0
296.79,140.0
296.86,129.0
296.92,134.0
296.98,135.0
297.04,137.0
297.11,117.0
297.17,121.0
297.23,129.0
297.3,110.0
297.36,121.0
297.42,118.0
297.49,128.0
297.55,145.0
297.61,117.0
297.67,99.0
297.74,104.0
297.8,111.0
297.86,109.0
297.93,108.0
297.99,102.0
298.05,85.0
298.12,99.0
298.18,109.0
298.24,112.0
298.3,113.0
298.37,110.0
298.43,113.0
298.49,97.0
298.56,109.0
298.62,99.0
298.68,91.0
298.75,99.0
298.81,77.0
298.87,97.0
298.93,97.0
299.0,87.0
299.06,109.0
299.12,103.0
299.19,95.0
299.25,100.0
299.31,109.0
299.38,94.0
299.44,111.0
299.5,119.0
299.56,116.0
299.63,120.0
299.69,121.0
299.75,128.0
299.82,121.0
299.88,115.0
299.94,143.0
300.01,109.0
300.07,135.0
300.13,135.0
300.19,104.0
300.26,105.0
300.32,99.0
300.38,95.0
300.45,74.0
300.51,90.0
300.57,90.0
300.64,89.0
300.7,88.0
300.76,87.0
300.82,76.0
300.89,81.0
300.95,102.0
301.01,79.0
301.08,87.0
301.14,86.0
301.2,70.0
301.27,68.0
301.33,57.0
301.39,41.0
301.45,68.0
301.52,76.0
301.58,72.0
301.64,79.0
301.71,70.0
301.77,81.0
301.83,90.0
301.9,50.0
301.96,58.0
302.02,62.0
302.08,62.0
302.15,80.0
302.21,59.0
302.27,55.0
302.34,57.0
302.4,66.0
302.46,51.0
302.53,57.0
302.59,70.0
302.65,79.0
302.71,71.0
302.78,53.0
302.84,71.0
302.9,88.0
302.97,71.0
303.03,77.0
303.09,54.0
303.16,62.0
303.22,62.0
303.28,77.0
303.34,72.0
303.41,88.0
303.47,55.0
303.53,65.0
303.6,56.0
303.66,65.0
303.72,50.0
303.79,52.0
303.85,63.0
303.91,62.0
303.97,57.0
304.04,66.0
304.1,77.0
304.16,66.0
304.23,76.0
304.29,66.0
304.35,59.0
304.42,44.0
304.48,57.0
304.54,52.0
304.6,42.0
304.67,39.0
304.73,26.0
304.79,36.0
304.86,32.0
304.92,48.0
304.98,37.0
305.05,40.0
305.11,34.0
305.17,55.0
305.23,33.0
305.3,40.0
305.36,47.0
305.42,49.0
305.49,58.0
305.55,45.0
305.61,41.0
305.68,42.0
305.74,46.0
305.8,58.0
305.86,66.0
305.93,51.0
305.99,55.0
306.05,45.0
306.12,55.0
306.18,61.0
306.24,43.0
306.31,57.0
306.37,41.0
306.43,59.0
306.49,58.0
306.56,57.0
306.62,56.0
306.68,60.0
306.75,49.0
306.81,65.0
306.87,35.0
306.94,54.0
307.0,83.0
307.06,59.0
307.12,43.0
307.19,60.0
307.25,66.0
307.31,54.0
307.38,63.0
307.44,74.0
307.5,88.0
307.57,88.0
307.63,72.0
307.69,83.0
307.75,78.0
307.82,73.0
307.88,84.0
307.94,83.0
308.01,74.0
308.07,76.0
308.13,57.0
308.2,51.0
308.26,41.0
308.32,34.0
308.38,58.0
308.45,55.0
308.51,60.0
308.57,64.0
308.64,54.0
308.7,48.0
308.76,54.0
308.83,57.0
308.89,34.0
308.95,47.0
309.01,51.0
309.08,34.0
309.14,40.0
309.2,34.0
309.27,38.0
309.33,22.0
309.39,16.0
309.46,15.0
309.52,38.0
309.58,36.0
309.64,29.0
309.71,34.0
309.77,8.0
309.83,10.0
309.9,22.0
309.96,27.0
310.02,23.0
310.09,15.0
310.15,27.0
310.21,27.0
310.27,32.0
310.34,30.0
310.4,29.0
310.46,23.0
310.53,33.0
310.59,32.0
310.65,32.0
310.72,11.0
310.78,24.0
310.84,10.0
310.9,10.0
310.97,10.0
311.03,23.0
311.09,19.0
311.16,7.0
311.22,16.0
311.28,24.0
311.35,22.0
311.41,47.0
311.47,44.0
311.53,43.0
311.6,47.0
311.66,52.0
311.72,43.0
311.79,30.0
311.85,37.0
311.91,37.0
311.98,40.0
312.04,38.0
312.1,55.0
312.16,42.0
312.23,36.0
312.29,26.0
312.35,55.0
312.42,56.0
312.48,63.0
312.54,61.0
312.61,71.0
312.67,68.0
312.73,78.0
312.79,91.0
312.86,70.0
312.92,88.0
312.98,93.0
313.05,103.0
313.11,90.0
313.17,106.0
313.24,110.0
313.3,120.0
313.36,104.0
313.42,108.0
313.49,98.0
313.55,98.0
313.61,111.0
313.68,103.0
313.74,104.0
313.8,95.0
313.87,116.0
313.93,118.0
313.99,132.0
314.05,140.0
314.12,126.0
314.18,137.0
314.24,130.0
314.31,146.0
314.37,132.0
314.43,135.0
314.5,132.0
314.56,120.0
314.62,124.0
314.68,122.0
314.75,106.0
314.81,105.0
314.87,109.0
314.94,114.0
315.0,106.0
315.06,103.0
315.13,116.0
315.19,113.0
315.25,119.0
315.31,113.0
315.38,117.0
315.44,97.0
315.5,106.0
315.57,119.0
315.63,93.0
315.69,87.0
315.76,102.0
315.82,114.0
315.88,115.0
315.94,105.0
316.01,99.0
316.07,96.0
316.13,96.0
316.2,89.0
316.26,109.0
316.32,115.0
316.39,90.0
316.45,99.0
316.51,109.0
316.57,88.0
316.64,92.0
316.7,83.0
316.76,100.0
316.83,107.0
316.89,73.0
316.95,119.0
317.02,107.0
317.08,101.0
317.14,99.0
317.2,104.0
317.27,84.0
317.33,92.0
317.39,98.0
317.46,104.0
317.52,108.0
317.58,94.0
317.65,81.0
317.71,64.0
317.77,79.0
317.83,104.0
317.9,88.0
317.96,96.0
318.02,88.0
318.09,84.0
318.15,110.0
318.21,98.0
318.28,99.0
318.34,107.0
318.4,110.0
318.46,118.0
318.53,102.0
318.59,99.0
318.65,98.0
318.72,94.0
318.78,107.0
318.84,84.0
318.91,64.0
318.97,86.0
319.03,65.0
319.09,92.0
319.16,82.0
319.22,82.0
319.28,95.0
319.35,70.0
319.41,82.0
319.47,70.0
319.54,82.0
319.6,84.0
319.66,72.0
319.72,79.0
319.79,76.0
319.85,81.0
319.91,79.0
319.98,70.0
320.04,69.0
320.1,55.0
320.17,66.0
320.23,84.0
320.29,93.0
320.35,92.0
320.42,92.0
320.48,93.0
320.54,85.0
320.61,92.0
320.67,103.0
320.73,88.0
320.8,99.0
320.86,106.0
320.92,107.0
320.98,109.0
321.05,126.0
321.11,113.0
321.17,117.0
321.24,114.0
321.3,110.0
321.36,97.0
321.43,102.0
321.49,118.0
321.55,120.0
321.61,124.0
321.68,112.0
321.74,103.0
321.8,113.0
321.87,128.0
321.93,104.0
321.99,125.0
322.06,125.0
322.12,130.0
322.18,126.0
322.24,132.0
322.31,133.0
322.37,148.0
322.43,128.0
322.5,118.0
322.56,128.0
322.62,118.0
322.69,110.0
322.75,112.0
322.81,121.0
322.87,145.0
322.94,139.0
323.0,114.0
323.06,113.0
323.13,122.0
323.19,137.0
323.25,118.0
323.32,136.0
323.38,139.0
323.44,117.0
323.5,101.0
323.57,101.0
323.63,101.0
323.69,118.0
323.76,133.0
323.82,126.0
323.88,106.0
323.95,115.0
324.01,144.0
324.07,132.0
324.13,140.0
324.2,147.0
324.26,129.0
324.32,132.0
324.39,119.0
324.45,114.0
324.51,144.0
324.58,129.0
324.64,136.0
324.7,170.0
324.76,166.0
324.83,165.0
324.89,155.0
324.95,165.0
325.02,158.0
325.08,148.0
325.14,146.0
325.21,146.0
325.27,147.0
325.33,150.0
325.39,134.0
325.46,135.0
325.52,139.0
325.58,134.0
325.65,137.0
325.71,145.0
325.77,172.0
325.84,136.0
325.9,137.0
325.96,149.0
326.02,144.0
326.09,138.0
326.15,136.0
326.21,134.0
326.28,150.0
326.34,170.0
326.4,162.0
326.47,138.0
326.53,114.0
326.59,129.0
326.65,135.0
326.72,120.0
326.78,114.0
326.84,100.0
326.91,107.0
326.97,99.0
327.03,89.0
327.1,86.0
327.16,92.0
327.22,98.0
327.28,107.0
327.35,98.0
327.41,85.0
327.47,78.0
327.54,73.0
327.6,88.0
327.66,98.0
327.73,88.0
327.79,109.0
327.85,88.0
327.91,82.0
327.98,90.0
328.04,108.0
328.1,90.0
328.17,107.0
328.23,113.0
328.29,119.0
328.36,121.0
328.42,112.0
328.48,108.0
328.54,100.0
328.61,106.0
328.67,113.0
328.73,125.0
328.8,133.0
328.86,148.0
328.92,133.0
328.99,142.0
329.05,142.0
329.11,137.0
329.17,142.0
329.24,139.0
329.3,136.0
329.36,143.0
329.43,146.0
329.49,126.0
329.55,124.0
329.62,142.0
329.68,150.0
329.74,146.0
329.8,152.0
329.87,156.0
329.93,153.0
329.99,134.0
330.06,138.0
330.12,149.0
330.18,117.0
330.25,128.0
330.31,132.0
330.37,139.0
330.43,136.0
330.5,121.0
330.56,117.0
330.62,121.0
330.69,131.0
330.75,114.0
330.81,101.0
330.88,119.0
330.94,128.0
331.0,118.0
331.06,124.0
331.13,130.0
331.19,113.0
331.25,130.0
331.32,128.0
331.38,139.0
331.44,121.0
331.51,100.0
331.57,129.0
331.63,113.0
331.69,117.0
331.76,110.0
331.82,83.0
331.88,119.0
331.95,102.0
332.01,92.0
332.07,87.0
332.14,89.0
332.2,96.0
332.26,94.0
332.32,84.0
332.39,92.0
332.45,101.0
332.51,112.0
332.58,101.0
332.64,84.0
332.7,73.0
332.77,88.0
332.83,82.0
332.89,68.0
332.95,84.0
333.02,82.0
333.08,96.0
333.14,82.0
333.21,71.0
333.27,78.0
333.33,79.0
333.4,79.0
333.46,68.0
333.52,71.0
333.58,52.0
333.65,68.0
333.71,74.0
333.77,61.0
333.84,48.0
333.9,36.0
333.96,31.0
334.03,44.0
334.09,57.0
334.15,48.0
334.21,37.0
334.28,35.0
334.34,18.0
334.4,22.0
334.47,18.0
334.53,41.0
334.59,51.0
334.66,52.0
334.72,33.0
334.78,10.0
334.84,18.0
334.91,25.0
334.97,39.0
335.03,45.0
335.1,48.0
335.16,32.0
335.22,41.0
335.29,62.0
335.35,40.0
335.41,37.0
335.47,56.0
335.54,41.0
335.6,53.0
335.66,36.0
335.73,43.0
335.79,42.0
335.85,33.0
335.92,35.0
335.98,29.0
336.04,48.0
336.1,30.0
336.17,34.0
336.23,13.0
336.29,29.0
336.36,37.0
336.42,48.0
336.48,33.0
336.55,31.0
336.61,27.0
336.67,33.0
336.73,22.0
336.8,33.0
336.86,35.0
336.92,21.0
336.99,44.0
337.05,69.0
337.11,55.0
337.18,47.0
337.24,38.0
337.3,49.0
337.36,43.0
337.43,33.0
337.49,36.0
337.55,30.0
337.62,27.0
337.68,18.0
337.74,25.0
337.81,26.0
337.87,53.0
337.93,46.0
337.99,46.0
338.06,45.0
338.12,47.0
338.18,55.0
338.25,70.0
338.31,73.0
338.37,57.0
338.44,60.0
338.5,67.0
338.56,77.0
338.62,93.0
338.69,54.0
338.75,76.0
338.81,82.0
338.88,76.0
338.94,66.0
339.0,69.0
339.07,71.0
339.13,75.0
339.19,85.0
339.25,85.0
339.32,82.0
339.38,83.0
339.44,83.0
339.51,72.0
339.57,66.0
339.63,63.0
339.7,67.0
339.76,87.0
339.82,90.0
339.88,108.0
339.95,103.0
340.01,79.0
340.07,83.0
340.14,79.0
340.2,87.0
340.26,76.0
340.33,92.0
340.39,91.0
340.45,97.0
340.51,79.0
340.58,84.0
340.64,93.0
340.7,84.0
340.77,95.0
340.83,104.0
340.89,106.0
340.96,98.0
341.02,99.0
341.08,103.0
341.14,106.0
341.21,97.0
341.27,121.0
341.33,132.0
341.4,120.0
341.46,118.0
341.52,108.0
341.59,129.0
341.65,117.0
341.71,124.0
341.77,129.0
341.84,105.0
341.9,119.0
341.96,129.0
342.03,140.0
342.09,138.0
342.15,111.0
342.22,126.0
342.28,128.0
342.34,132.0
342.4,120.0
342.47,115.0
342.53,106.0
342.59,102.0
342.66,96.0
342.72,117.0
342.78,113.0
342.85,119.0
342.91,126.0
342.97,110.0
343.03,104.0
343.1,90.0
343.16,105.0
343.22,107.0
343.29,114.0
343.35,115.0
343.41,114.0
343.48,112.0
343.54,116.0
343.6,122.0
343.66,103.0
343.73,113.0
343.79,114.0
343.85,104.0
343.92,139.0
343.98,130.0
344.04,134.0
344.11,125.0
344.17,111.0
344.23,132.0
344.29,117.0
344.36,126.0
344.42,106.0
344.48,121.0
344.55,110.0
344.61,104.0
344.67,119.0
344.74,119.0
344.8,118.0
344.86,130.0
344.92,104.0
344.99,110.0
345.05,99.0
345.11,110.0
345.18,111.0
345.24,100.0
345.3,104.0
345.37,108.0
345.43,117.0
345.49,121.0
345.55,132.0
345.62,144.0
345.68,142.0
345.74,128.0
345.81,128.0
345.87,125.0
345.93,154.0
346.0,153.0
346.06,146.0
346.12,135.0
346.18,139.0
346.25,140.0
346.31,145.0
346.37,183.0
346.44,182.0
346.5,193.0
346.56,187.0
346.63,165.0
346.69,179.0
346.75,167.0
346.81,157.0
346.88,172.0
346.94,177.0
347.0,160.0
347.07,165.0
347.13,182.0
347.19,183.0
347.26,181.0
347.32,178.0
347.38,182.0
347.44,183.0
347.51,197.0
347.57,204.0
347.63,202.0
347.7,220.0
347.76,197.0
347.82,190.0
347.89,204.0
347.95,188.0
348.01,189.0
348.07,192.0
348.14,180.0
348.2,158.0
348.26,172.0
348.33,167.0
348.39,157.0
348.45,166.0
348.52,163.0
348.58,165.0
348.64,170.0
348.7,180.0
348.77,184.0
348.83,178.0
348.89,174.0
348.96,186.0
349.02,170.0
349.08,162.0
349.15,186.0
349.21,190.0
349.27,205.0
349.33,173.0
349.4,166.0
349.46,162.0
349.52,159.0
349.59,167.0
349.65,161.0
349.71,165.0
349.78,154.0
349.84,166.0
349.9,183.0
349.96,146.0
350.03,146.0
350.09,142.0
350.15,132.0
350.22,128.0
350.28,142.0
350.34,141.0
350.41,129.0
350.47,126.0
350.53,135.0
350.59,113.0
350.66,132.0
350.72,128.0
350.78,126.0
350.85,135.0
350.91,120.0
350.97,106.0
351.04,103.0
351.1,90.0
351.16,116.0
351.22,138.0
351.29,127.0
351.35,139.0
351.41,136.0
351.48,121.0
351.54,101.0
351.6,114.0
351.67,113.0
351.73,90.0
351.79,112.0
351.85,118.0
351.92,119.0
351.98,120.0
352.04,125.0
352.11,128.0
352.17,126.0
352.23,110.0
352.3,120.0
352.36,107.0
352.42,98.0
352.48,86.0
352.55,84.0
352.61,86.0
352.67,80.0
352.74,84.0
352.8,99.0
352.86,88.0
352.93,93.0
352.99,95.0
353.05,124.0
353.11,121.0
353.18,113.0
353.24,119.0
353.3,112.0
353.37,84.0
353.43,98.0
353.49,114.0
353.56,106.0
353.62,100.0
353.68,107.0
353.74,101.0
353.81,98.0
353.87,66.0
353.93,69.0
354.0,73.0
354.06,70.0
354.12,77.0
354.19,75.0
354.25,74.0
354.31,77.0
354.37,87.0
354.44,68.0
354.5,66.0
354.56,73.0
354.63,75.0
354.69,76.0
354.75,80.0
354.82,100.0
354.88,92.0
354.94,102.0
355.0,93.0
355.07,73.0
355.13,81.0
355.19,90.0
355.26,117.0
355.32,106.0
355.38,108.0
355.45,88.0
355.51,92.0
355.57,79.0
355.63,80.0
355.7,64.0
355.76,82.0
355.82,87.0
355.89,83.0
355.95,85.0
356.01,76.0
356.08,87.0
356.14,79.0
356.2,77.0
356.26,91.0
356.33,112.0
356.39,93.0
356.45,88.0
356.52,95.0
356.58,103.0
356.64,98.0
356.71,90.0
356.77,99.0
356.83,49.0
356.89,65.0
356.96,52.0
357.02,59.0
357.08,71.0
357.15,68.0
357.21,67.0
357.27,74.0
357.34,66.0
357.4,71.0
357.46,95.0
357.52,83.0
357.59,82.0
357.65,76.0
357.71,72.0
357.78,70.0
357.84,61.0
357.9,82.0
357.97,70.0
358.03,84.0
358.09,78.0
358.15,70.0
358.22,93.0
358.28,68.0
358.34,71.0
358.41,62.0
358.47,62.0
358.53,70.0
358.6,66.0
358.66,53.0
358.72,66.0
358.78,53.0
358.85,44.0
358.91,70.0
358.97,54.0
359.04,37.0
359.1,35.0
359.16,39.0
359.23,55.0
359.29,22.0
359.35,23.0
359.41,24.0
359.48,32.0
359.54,40.0
359.6,29.0
359.67,15.0
359.73,7.0
359.79,21.0
359.86,7.0
359.92,16.0
359.98,10.0
360.04,23.0
360.11,3.0
360.17,4.0
360.23,22.0
360.3,8.0
360.36,1.0
360.42,15.0
360.49,5.0
360.55,10.0
360.61,30.0
360.67,29.0
360.74,7.0
360.8,32.0
360.86,6.0
360.93,30.0
360.99,62.0
361.05,35.0
361.12,36.0
361.18,15.0
361.24,20.0
361.3,11.0
361.37,26.0
361.43,27.0
361.49,36.0
361.56,45.0
361.62,48.0
361.68,50.0
361.75,62.0
361.81,64.0
361.87,52.0
361.93,53.0
362.0,56.0
362.06,40.0
362.12,62.0
362.19,55.0
362.25,48.0
362.31,54.0
362.38,42.0
362.44,43.0
362.5,45.0
362.56,62.0
362.63,62.0
362.69,55.0
362.75,73.0
362.82,68.0
362.88,68.0
362.94,73.0
363.01,74.0
363.07,77.0
363.13,76.0
363.19,60.0
363.26,71.0
363.32,62.0
363.38,77.0
363.45,85.0
363.51,87.0
363.57,62.0
363.64,70.0
363.7,72.0
363.76,57.0
363.82,58.0
363.89,59.0
363.95,82.0
364.01,65.0
364.08,64.0
364.14,64.0
364.2,38.0
364.27,56.0
364.33,66.0
364.39,62.0
364.45,64.0
364.52,51.0
364.58,59.0
364.64,66.0
364.71,69.0
364.77,56.0
364.83,42.0
364.9,71.0
364.96,81.0
365.02,81.0
365.08,74.0
365.15,69.0
365.21,76.0
365.27,72.0
365.34,72.0
365.4,60.0
365.46,63.0
365.53,53.0
365.59,65.0
365.65,50.0
365.71,51.0
365.78,63.0
365.84,42.0
365.9,43.0
365.97,61.0
366.03,55.0
366.09,49.0
366.16,60.0
366.22,56.0
366.28,54.0
366.34,74.0
366.41,76.0
366.47,48.0
366.53,61.0
366.6,71.0
366.66,62.0
366.72,76.0
366.79,81.0
366.85,64.0
366.91,57.0
366.97,64.0
367.04,60.0
367.1,65.0
367.16,66.0
367.23,83.0
367.29,77.0
367.35,68.0
367.42,66.0
367.48,73.0
367.54,71.0
367.6,64.0
367.67,47.0
367.73,23.0
367.79,51.0
367.86,17.0
367.92,3.0
367.98,6.0
368.05,13.0
368.11,25.0
368.17,33.0
368.23,33.0
368.3,18.0
368.36,12.0
368.42,7.0
368.49,26.0
368.55,19.0
368.61,-12.0
368.68,5.0
368.74,17.0
368.8,16.0
368.86,21.0
368.93,-4.0
368.99,6.0
369.05,17.0
369.12,24.0
369.18,32.0
369.24,45.0
369.31,38.0
369.37,44.0
369.43,41.0
369.49,30.0
369.56,48.0
369.62,43.0
369.68,24.0
369.75,43.0
369.81,28.0
369.87,33.0
369.94,34.0
370.0,28.0
370.06,35.0
370.12,32.0
370.19,19.0
370.25,13.0
370.31,16.0
370.38,2.0
370.44,19.0
370.5,18.0
370.57,18.0
370.63,20.0
370.69,25.0
370.75,17.0
370.82,31.0
370.88,32.0
370.94,43.0
371.01,51.0
371.07,48.0
371.13,30.0
371.2,46.0
371.26,57.0
371.32,63.0
371.38,67.0
371.45,78.0
371.51,62.0
371.57,60.0
371.64,59.0
371.7,77.0
371.76,87.0
371.83,83.0
371.89,94.0
371.95,90.0
372.01,83.0
372.08,76.0
372.14,91.0
372.2,97.0
372.27,91.0
372.33,107.0
372.39,95.0
372.46,115.0
372.52,110.0
372.58,118.0
372.64,107.0
372.71,110.0
372.77,141.0
372.83,129.0
372.9,136.0
372.96,120.0
373.02,118.0
373.09,115.0
373.15,123.0
373.21,129.0
373.27,127.0
373.34,130.0
373.4,115.0
373.46,134.0
373.53,123.0
373.59,118.0
373.65,128.0
373.72,131.0
373.78,118.0
373.84,105.0
373.9,116.0
373.97,137.0
374.03,119.0
374.09,113.0
374.16,133.0
374.22,117.0
374.28,118.0
374.35,115.0
374.41,128.0
374.47,122.0
374.53,109.0
374.6,107.0
374.66,108.0
374.72,112.0
374.79,105.0
374.85,110.0
374.91,132.0
374.98,132.0
375.04,152.0
375.1,119.0
375.16,139.0
375.23,156.0
375.29,164.0
375.35,160.0
375.42,135.0
375.48,145.0
375.54,139.0
375.61,145.0
375.67,156.0
375.73,141.0
375.79,127.0
375.86,133.0
375.92,120.0
375.98,138.0
376.05,130.0
376.11,116.0
376.17,138.0
376.24,135.0
376.3,134.0
376.36,116.0
376.42,125.0
376.49,116.0
376.55,107.0
376.61,126.0
376.68,105.0
376.74,98.0
376.8,108.0
376.87,114.0
376.93,116.0
376.99,101.0
377.05,100.0
377.12,98.0
377.18,105.0
377.24,93.0
377.31,105.0
377.37,106.0
377.43,103.0
377.5,113.0
377.56,123.0
377.62,105.0
377.68,90.0
377.75,105.0
377.81,118.0
377.87,118.0
377.94,130.0
378.0,142.0
378.06,135.0
378.13,138.0
378.19,129.0
378.25,138.0
378.31,131.0
378.38,112.0
378.44,111.0
378.5,104.0
378.57,97.0
378.63,90.0
378.69,105.0
378.76,118.0
378.82,119.0
378.88,122.0
378.94,131.0
379.01,138.0
379.07,112.0
379.13,99.0
379.2,99.0
379.26,120.0
379.32,131.0
379.39,123.0
379.45,127.0
379.51,129.0
379.57,120.0
379.64,108.0
379.7,142.0
379.76,163.0
379.83,151.0
379.89,145.0
379.95,144.0
380.02,164.0
380.08,171.0
380.14,161.0
380.2,159.0
380.27,141.0
380.33,126.0
380.39,132.0
380.46,133.0
380.52,155.0
380.58,143.0
380.65,127.0
380.71,146.0
380.77,127.0
380.83,128.0
380.9,120.0
380.96,129.0
381.02,137.0
381.09,132.0
381.15,154.0
381.21,157.0
381.28,172.0
381.34,167.0
381.4,167.0
381.46,176.0
381.53,177.0
381.59,151.0
381.65,156.0
381.72,151.0
381.78,140.0
381.84,153.0
381.91,168.0
381.97,164.0
382.03,145.0
382.09,145.0
382.16,142.0
382.22,154.0
382.28,154.0
382.35,148.0
382.41,135.0
382.47,151.0
382.54,154.0
382.6,121.0
382.66,147.0
382.72,141.0
382.79,130.0
382.85,108.0
382.91,109.0
382.98,123.0
383.04,133.0
383.1,110.0
383.17,116.0
383.23,104.0
383.29,93.0
383.35,104.0
383.42,102.0
383.48,104.0
383.54,124.0
383.61,133.0
383.67,118.0
383.73,104.0
383.8,134.0
383.86,113.0
383.92,109.0
383.98,114.0
384.05,113.0
384.11,118.0
384.17,116.0
384.24,112.0
384.3,114.0
384.36,110.0
384.43,99.0
384.49,96.0
384.55,110.0
384.61,109.0
384.68,85.0
384.74,77.0
384.8,77.0
384.87,85.0
384.93,68.0
384.99,33.0
385.06,50.0
385.12,74.0
385.18,45.0
385.24,47.0
385.31,58.0
385.37,71.0
385.43,58.0
385.5,48.0
385.56,43.0
385.62,37.0
385.69,33.0
385.75,13.0
385.81,29.0
385.87,28.0
385.94,24.0
386.0,25.0
386.06,18.0
386.13,13.0
386.19,17.0
386.25,6.0
386.32,6.0
386.38,17.0
386.44,-7.0
386.5,6.0
386.57,-10.0
386.63,-1.0
386.69,13.0
386.76,1.0
386.82,-16.0
386.88,2.0
386.95,5.0
387.01,-4.0
387.07,-13.0
387.13,-9.0
387.2,-9.0
387.26,-18.0
387.32,-14.0
387.39,-21.0
387.45,-38.0
387.51,-16.0
387.58,-6.0
387.64,-12.0
387.7,-11.0
387.76,-6.0
387.83,-5.0
387.89,-6.0
387.95,-7.0
388.02,3.0
388.08,0.0
388.14,-15.0
388.21,-12.0
388.27,-8.0
388.33,-10.0
388.39,-14.0
388.46,-11.0
388.52,-31.0
388.58,-20.0
388.65,-42.0
388.71,-25.0
388.77,-24.0
388.84,-10.0
388.9,-11.0
388.96,-27.0
389.02,-22.0
389.09,-31.0
389.15,-3.0
389.21,-14.0
389.28,11.0
389.34,-5.0
389.4,-7.0
389.47,-3.0
389.53,-1.0
389.59,14.0
389.65,0.0
389.72,10.0
389.78,0.0
389.84,2.0
389.91,5.0
389.97,-3.0
390.03,-6.0
390.1,-11.0
390.16,-11.0
390.22,-2.0
390.28,9.0
390.35,18.0
390.41,15.0
390.47,12.0
390.54,-11.0
390.6,8.0
390.66,24.0
390.73,7.0
390.79,31.0
390.85,27.0
390.91,19.0
390.98,12.0
391.04,10.0
391.1,43.0
391.17,19.0
391.23,15.0
391.29,25.0
391.36,39.0
391.42,53.0
391.48,41.0
391.54,53.0
391.61,49.0
391.67,61.0
391.73,73.0
391.8,61.0
391.86,64.0
391.92,73.0
391.99,51.0
392.05,58.0
392.11,72.0
392.17,50.0
392.24,53.0
392.3,45.0
392.36,39.0
392.43,43.0
392.49,58.0
392.55,33.0
392.62,38.0
392.68,47.0
392.74,35.0
392.8,29.0
392.87,36.0
392.93,34.0
392.99,28.0
393.06,38.0
393.12,24.0
393.18,29.0
393.25,35.0
393.31,32.0
393.37,41.0
393.43,48.0
393.5,52.0
393.56,46.0
393.62,41.0
393.69,30.0
393.75,48.0
393.81,43.0
393.88,25.0
393.94,36.0
394.0,50.0
394.06,50.0
394.13,66.0
394.19,67.0
394.25,43.0
394.32,49.0
394.38,31.0
394.44,42.0
394.51,49.0
394.57,47.0
394.63,47.0
394.69,61.0
394.76,68.0
394.82,51.0
394.88,51.0
394.95,67.0
395.01,65.0
395.07,67.0
395.14,57.0
395.2,57.0
395.26,53.0
395.32,45.0
395.39,65.0
395.45,78.0
395.51,80.0
395.58,84.0
395.64,73.0
395.7,72.0
395.77,98.0
395.83,92.0
395.89,117.0
395.95,113.0
396.02,110.0
396.08,124.0
396.14,118.0
396.21,144.0
396.27,157.0
396.33,147.0
396.4,150.0
396.46,148.0
396.52,161.0
396.58,158.0
396.65,173.0
396.71,176.0
396.77,182.0
396.84,174.0
396.9,170.0
396.96,157.0
397.03,169.0
397.09,179.0
397.15,172.0
397.21,177.0
397.28,190.0
397.34,171.0
397.4,174.0
397.47,169.0
397.53,196.0
397.59,193.0
397.66,184.0
397.72,199.0
397.78,183.0
397.84,177.0
397.91,181.0
397.97,170.0
398.03,173.0
398.1,183.0
398.16,169.0
398.22,182.0
398.29,190.0
398.35,174.0
398.41,165.0
398.47,175.0
398.54,176.0
398.6,176.0
398.66,169.0
398.73,172.0
398.79,183.0
398.85,161.0
398.92,180.0
398.98,187.0
399.04,171.0
399.1,172.0
399.17,162.0
399.23,160.0
399.29,157.0
399.36,159.0
399.42,163.0
399.48,161.0
399.55,179.0
399.61,181.0
399.67,180.0
399.73,171.0
399.8,161.0
399.86,155.0
399.92,174.0
399.99,178.0
400.05,168.0
400.11,161.0
400.18,164.0
400.24,168.0
400.3,150.0
400.36,157.0
400.43,149.0
400.49,157.0
400.55,166.0
400.62,158.0
400.68,152.0
400.74,155.0
400.81,160.0
400.87,148.0
400.93,148.0
400.99,138.0
401.06,139.0
401.12,147.0
401.18,159.0
401.25,166.0
401.31,145.0
401.37,152.0
401.44,142.0
401.5,141.0
401.56,148.0
401.62,156.0
401.69,143.0
401.75,135.0
401.81,123.0
401.88,133.0
401.94,135.0
402.0,138.0
402.07,154.0
402.13,133.0
402.19,133.0
402.25,122.0
402.32,122.0
402.38,126.0
402.44,141.0
402.51,130.0
402.57,146.0
402.63,127.0
402.7,122.0
402.76,138.0
402.82,143.0
402.88,125.0
402.95,134.0
403.01,129.0
403.07,133.0
403.14,124.0
403.2,127.0
403.26,137.0
403.33,134.0
403.39,122.0
403.45,99.0
403.51,111.0
403.58,117.0
403.64,121.0
403.7,134.0
403.77,122.0
403.83,106.0
403.89,119.0
403.96,131.0
404.02,110.0
404.08,128.0
404.14,128.0
404.21,141.0
404.27,150.0
404.33,113.0
404.4,106.0
404.46,118.0
404.52,132.0
404.59,121.0
404.65,122.0
404.71,125.0
404.77,112.0
404.84,120.0
404.9,115.0
404.96,125.0
405.03,115.0
405.09,109.0
405.15,108.0
405.22,110.0
405.28,85.0
405.34,102.0
405.4,107.0
405.47,111.0
405.53,103.0
405.59,128.0
405.66,106.0
405.72,119.0
405.78,108.0
405.85,89.0
405.91,81.0
405.97,77.0
406.03,88.0
406.1,105.0
406.16,103.0
406.22,119.0
406.29,106.0
406.35,99.0
406.41,99.0
406.48,106.0
406.54,106.0
406.6,108.0
406.66,111.0
406.73,90.0
406.79,97.0
406.85,87.0
406.92,119.0
406.98,111.0
407.04,130.0
407.11,115.0
407.17,121.0
407.23,98.0
407.29,103.0
407.36,103.0
407.42,131.0
407.48,131.0
407.55,121.0
407.61,113.0
407.67,115.0
407.74,122.0
407.8,122.0
407.86,129.0
407.92,125.0
407.99,133.0
408.05,135.0
408.11,133.0
408.18,125.0
408.24,136.0
408.3,130.0
408.37,140.0
408.43,115.0
408.49,119.0
408.55,142.0
408.62,128.0
408.68,111.0
408.74,117.0
408.81,115.0
408.87,102.0
408.93,105.0
409.0,113.0
409.06,100.0
409.12,106.0
409.18,114.0
409.25,114.0
409.31,117.0
409.37,119.0
409.44,105.0
409.5,95.0
409.56,118.0
409.63,109.0
409.69,105.0
409.75,116.0
409.81,98.0
409.88,93.0
409.94,94.0
410.0,88.0
410.07,103.0
410.13,98.0
410.19,92.0
410.26,77.0
410.32,70.0
410.38,74.0
410.44,71.0
410.51,76.0
410.57,91.0
410.63,77.0
410.7,69.0
410.76,82.0
410.82,78.0
410.89,82.0
410.95,87.0
411.01,84.0
411.07,80.0
411.14,86.0
411.2,69.0
411.26,72.0
411.33,47.0
411.39,64.0
411.45,58.0
411.52,75.0
411.58,67.0
411.64,42.0
411.7,66.0
411.77,65.0
411.83,59.0
411.89,68.0
411.96,73.0
412.02,56.0
412.08,59.0
412.15,55.0
412.21,62.0
412.27,64.0
412.33,66.0
412.4,69.0
412.46,67.0
412.52,54.0
412.59,38.0
412.65,39.0
412.71,49.0
412.78,44.0
412.84,51.0
412.9,45.0
412.96,36.0
413.03,29.0
413.09,47.0
413.15,56.0
413.22,56.0
413.28,52.0
413.34,73.0
413.41,71.0
413.47,79.0
413.53,73.0
413.59,55.0
413.66,45.0
413.72,60.0
413.78,61.0
413.85,55.0
413.91,49.0
413.97,46.0
414.04,50.0
414.1,48.0
414.16,56.0
414.22,47.0
414.29,51.0
414.35,47.0
414.41,59.0
414.48,70.0
414.54,48.0
414.6,60.0
414.67,39.0
414.73,41.0
414.79,43.0
414.85,40.0
414.92,51.0
414.98,55.0
415.04,68.0
415.11,48.0
415.17,39.0
415.23,58.0
415.3,48.0
415.36,49.0
415.42,38.0
415.48,60.0
415.55,54.0
415.61,51.0
415.67,33.0
415.74,40.0
415.8,31.0
415.86,51.0
415.93,47.0
415.99,54.0
416.05,61.0
416.11,32.0
416.18,36.0
416.24,50.0
416.3,55.0
416.37,36.0
416.43,37.0
416.49,51.0
416.56,58.0
416.62,56.0
416.68,50.0
416.74,62.0
416.81,50.0
416.87,35.0
416.93,37.0
417.0,50.0
417.06,47.0
417.12,23.0
417.19,39.0
417.25,31.0
417.31,29.0
417.37,45.0
417.44,38.0
417.5,37.0
417.56,45.0
417.63,49.0
417.69,53.0
417.75,47.0
417.82,40.0
417.88,48.0
417.94,48.0
418.0,27.0
418.07,23.0
418.13,24.0
418.19,28.0
418.26,29.0
418.32,28.0
418.38,29.0
418.45,37.0
418.51,28.0
418.57,26.0
418.63,32.0
418.7,29.0
418.76,47.0
418.82,50.0
418.89,32.0
418.95,39.0
419.01,50.0
419.08,55.0
419.14,40.0
419.2,59.0
419.26,33.0
419.33,28.0
419.39,29.0
419.45,43.0
419.52,49.0
419.58,29.0
419.64,32.0
419.71,29.0
419.77,27.0
419.83,31.0
419.89,33.0
419.96,42.0
420.02,33.0
420.08,42.0
420.15,42.0
420.21,16.0
420.27,25.0
420.34,27.0
420.4,24.0
420.46,46.0
420.52,52.0
420.59,28.0
420.65,22.0
420.71,25.0
420.78,12.0
420.84,17.0
420.9,33.0
420.97,25.0
421.03,17.0
421.09,51.0
421.15,20.0
421.22,29.0
421.28,40.0
421.34,47.0
421.41,90.0
421.47,80.0
421.53,83.0
421.6,86.0
421.66,85.0
421.72,56.0
421.78,69.0
421.85,65.0
421.91,78.0
421.97,64.0
422.04,62.0
422.1,47.0
422.16,48.0
422.23,45.0
422.29,52.0
422.35,64.0
422.41,55.0
422.48,60.0
422.54,50.0
422.6,59.0
422.67,61.0
422.73,64.0
422.79,68.0
422.86,78.0
422.92,80.0
422.98,88.0
423.04,97.0
423.11,88.0
423.17,84.0
423.23,82.0
423.3,66.0
423.36,76.0
423.42,85.0
423.49,97.0
423.55,93.0
423.61,83.0
423.67,89.0
423.74,103.0
423.8,98.0
423.86,79.0
423.93,97.0
423.99,116.0
424.05,77.0
424.12,97.0
424.18,106.0
424.24,119.0
424.3,96.0
424.37,106.0
424.43,117.0
424.49,114.0
424.56,128.0
424.62,116.0
424.68,126.0
424.75,123.0
424.81,135.0
424.87,138.0
424.93,129.0
425.0,137.0
425.06,148.0
425.12,164.0
425.19,157.0
425.25,146.0
425.31,146.0
425.38,139.0
425.44,161.0
425.5,179.0
425.56,157.0
425.63,142.0
425.69,157.0
425.75,155.0
425.82,166.0
425.88,183.0
425.94,155.0
426.01,139.0
426.07,134.0
426.13,147.0
426.19,148.0
426.26,132.0
426.32,122.0
426.38,135.0
426.45,131.0
426.51,141.0
426.57,135.0
426.64,111.0
426.7,120.0
426.76,120.0
426.82,118.0
426.89,106.0
426.95,105.0
427.01,117.0
427.08,124.0
427.14,113.0
427.2,111.0
427.27,113.0
427.33,102.0
427.39,109.0
427.45,110.0
427.52,120.0
427.58,100.0
427.64,75.0
427.71,103.0
427.77,99.0
427.83,97.0
427.9,120.0
427.96,98.0
428.02,74.0
428.08,90.0
428.15,99.0
428.21,118.0
428.27,113.0
428.34,109.0
428.4,97.0
428.46,101.0
428.53,117.0
428.59,96.0
428.65,94.0
428.71,95.0
428.78,102.0
428.84,121.0
428.9,120.0
428.97,126.0
429.03,139.0
429.09,139.0
429.16,164.0
429.22,160.0
429.28,160.0
429.34,180.0
429.41,172.0
429.47,180.0
429.53,197.0
429.6,184.0
429.66,168.0
429.72,183.0
429.79,169.0
429.85,182.0
429.91,174.0
429.97,168.0
430.04,160.0
430.1,151.0
430.16,177.0
430.23,171.0
430.29,175.0
430.35,191.0
430.42,184.0
430.48,186.0
430.54,183.0
430.6,179.0
430.67,185.0
430.73,190.0
430.79,179.0
430.86,187.0
430.92,200.0
430.98,188.0
431.05,200.0
431.11,205.0
431.17,209.0
431.23,228.0
431.3,219.0
431.36,205.0
431.42,205.0
431.49,215.0
431.55,201.0
431.61,187.0
431.68,189.0
431.74,179.0
431.8,175.0
431.86,167.0
431.93,168.0
431.99,170.0
432.05,172.0
432.12,169.0
432.18,164.0
432.24,172.0
432.31,189.0
432.37,190.0
432.43,168.0
432.49,170.0
432.56,166.0
432.62,176.0
432.68,176.0
432.75,183.0
432.81,176.0
432.87,172.0
432.94,179.0
433.0,176.0
433.06,188.0
433.12,175.0
433.19,187.0
433.25,201.0
433.31,188.0
433.38,161.0
433.44,169.0
433.5,161.0
433.57,158.0
433.63,171.0
433.69,173.0
433.75,182.0
433.82,179.0
433.88,179.0
433.94,196.0
434.01,176.0
434.07,163.0
434.13,165.0
434.2,180.0
434.26,167.0
434.32,170.0
434.38,173.0
434.45,186.0
434.51,176.0
434.57,175.0
434.64,194.0
434.7,162.0
434.76,152.0
434.83,137.0
434.89,145.0
434.95,141.0
435.01,125.0
435.08,137.0
435.14,143.0
435.2,146.0
435.27,136.0
435.33,137.0
435.39,128.0
435.46,113.0
435.52,131.0
435.58,134.0
435.64,136.0
435.71,127.0
435.77,133.0
435.83,143.0
435.9,130.0
435.96,139.0
436.02,125.0
436.09,130.0
436.15,128.0
436.21,126.0
436.27,107.0
436.34,126.0
436.4,143.0
436.46,132.0
436.53,132.0
436.59,113.0
436.65,128.0
436.72,121.0
436.78,108.0
436.84,118.0
436.9,124.0
436.97,108.0
437.03,117.0
437.09,115.0
437.16,114.0
437.22,104.0
437.28,96.0
437.35,70.0
437.41,90.0
437.47,83.0
437.53,73.0
437.6,75.0
437.66,66.0
437.72,68.0
437.79,74.0
437.85,75.0
437.91,68.0
437.98,73.0
438.04,61.0
438.1,66.0
438.16,77.0
438.23,90.0
438.29,58.0
438.35,55.0
438.42,61.0
438.48,45.0
438.54,41.0
438.61,34.0
438.67,44.0
438.73,53.0
438.79,63.0
438.86,51.0
438.92,62.0
438.98,64.0
439.05,54.0
439.11,56.0
439.17,42.0
439.24,48.0
439.3,37.0
439.36,32.0
439.42,44.0
439.49,14.0
439.55,47.0
439.61,31.0
439.68,49.0
439.74,69.0
439.8,67.0
439.87,74.0
439.93,64.0
439.99,43.0
440.05,49.0
440.12,59.0
440.18,57.0
440.24,69.0
440.31,64.0
440.37,47.0
440.43,40.0
440.5,44.0
440.56,41.0
440.62,41.0
440.68,42.0
440.75,73.0
440.81,68.0
440.87,78.0
440.94,64.0
441.0,53.0
441.06,58.0
441.13,57.0
441.19,53.0
441.25,42.0
441.31,51.0
441.38,48.0
441.44,30.0
441.5,37.0
441.57,31.0
441.63,39.0
441.69,26.0
441.76,44.0
441.82,18.0
441.88,11.0
441.94,32.0
442.01,32.0
442.07,15.0
442.13,26.0
442.2,31.0
442.26,29.0
442.32,37.0
442.39,31.0
442.45,34.0
442.51,43.0
442.57,25.0
442.64,30.0
442.7,29.0
442.76,25.0
442.83,3.0
442.89,2.0
442.95,-13.0
443.02,-9.0
443.08,-7.0
443.14,15.0
443.2,18.0
443.27,4.0
443.33,24.0
443.39,14.0
443.46,3.0
443.52,-17.0
443.58,1.0
443.65,-14.0
443.71,-15.0
443.77,11.0
443.83,0.0
443.9,-8.0
443.96,-25.0
444.02,-3.0
444.09,1.0
444.15,-6.0
444.21,0.0
444.28,15.0
444.34,-4.0
444.4,17.0
444.46,1.0
444.53,6.0
444.59,20.0
444.65,17.0
444.72,7.0
444.78,4.0
444.84,1.0
444.91,22.0
444.97,1.0
445.03,-10.0
445.09,1.0
445.16,10.0
445.22,20.0
445.28,13.0
445.35,19.0
445.41,37.0
445.47,22.0
445.54,5.0
445.6,3.0
445.66,17.0
445.72,19.0
445.79,15.0
445.85,40.0
445.91,41.0
445.98,38.0
446.04,36.0
446.1,47.0
446.17,39.0
446.23,42.0
446.29,56.0
446.35,50.0
446.42,64.0
446.48,68.0
446.54,56.0
446.61,81.0
446.67,94.0
446.73,103.0
446.8,96.0
446.86,96.0
446.92,102.0
446.98,105.0
447.05,131.0
447.11,107.0
447.17,122.0
447.24,138.0
447.3,116.0
447.36,105.0
447.43,111.0
447.49,123.0
447.55,142.0
447.61,150.0
447.68,147.0
447.74,128.0
447.8,141.0
447.87,153.0
447.93,147.0
447.99,134.0
448.06,153.0
448.12,145.0
448.18,167.0
448.24,177.0
448.31,163.0
448.37,161.0
448.43,159.0
448.5,177.0
448.56,162.0
448.62,155.0
448.69,160.0
448.75,171.0
448.81,157.0
448.87,144.0
448.94,153.0
449.0,154.0
449.06,155.0
449.13,162.0
449.19,164.0
449.25,168.0
449.32,164.0
449.38,160.0
449.44,159.0
449.5,147.0
449.57,159.0
449.63,169.0
449.69,171.0
449.76,181.0
449.82,185.0
449.88,187.0
449.95,189.0
450.01,192.0
450.07,190.0
450.13,192.0
450.2,170.0
450.26,174.0
450.32,186.0
450.39,197.0
450.45,205.0
450.51,188.0
450.58,196.0
450.64,197.0
450.7,189.0
450.76,182.0
450.83,176.0
450.89,173.0
450.95,161.0
451.02,173.0
451.08,175.0
451.14,172.0
451.21,174.0
451.27,172.0
451.33,162.0
451.39,157.0
451.46,155.0
451.52,140.0
451.58,157.0
451.65,138.0
451.71,168.0
451.77,168.0
451.84,122.0
451.9,146.0
451.96,153.0
452.02,149.0
452.09,123.0
452.15,134.0
452.21,122.0
452.28,123.0
452.34,134.0
452.4,137.0
452.47,124.0
452.53,132.0
452.59,135.0
452.65,131.0
452.72,133.0
452.78,131.0
452.84,117.0
452.91,116.0
452.97,128.0
453.03,133.0
453.1,136.0
453.16,109.0
453.22,117.0
453.28,136.0
453.35,130.0
453.41,120.0
453.47,129.0
453.54,134.0
453.6,109.0
453.66,127.0
453.73,115.0
453.79,115.0
453.85,120.0
453.91,123.0
453.98,112.0
454.04,120.0
454.1,131.0
454.17,130.0
454.23,108.0
454.29,110.0
454.36,123.0
454.42,123.0
454.48,126.0
454.54,100.0
454.61,100.0
454.67,110.0
454.73,114.0
454.8,110.0
454.86,130.0
454.92,118.0
454.99,128.0
455.05,134.0
455.11,120.0
455.17,119.0
455.24,116.0
455.3,129.0
455.36,120.0
455.43,108.0
455.49,116.0
455.55,135.0
455.62,144.0
455.68,124.0
455.74,108.0
455.8,120.0
455.87,123.0
455.93,133.0
455.99,136.0
456.06,116.0
456.12,128.0
456.18,143.0
456.25,149.0
456.31,136.0
456.37,153.0
456.43,135.0
456.5,145.0
456.56,133.0
456.62,111.0
456.69,112.0
456.75,106.0
456.81,101.0
456.88,103.0
456.94,116.0
457.0,109.0
457.06,99.0
457.13,117.0
457.19,109.0
457.25,93.0
457.32,95.0
457.38,117.0
457.44,107.0
457.51,106.0
457.57,108.0
457.63,109.0
457.69,115.0
457.76,118.0
457.82,92.0
457.88,83.0
457.95,77.0
458.01,67.0
458.07,101.0
458.14,84.0
458.2,67.0
458.26,69.0
458.32,88.0
458.39,84.0
458.45,61.0
458.51,76.0
458.58,68.0
458.64,74.0
458.7,55.0
458.77,67.0
458.83,76.0
458.89,72.0
458.95,79.0
459.02,62.0
459.08,75.0
459.14,80.0
459.21,54.0
459.27,72.0
459.33,75.0
459.4,71.0
459.46,86.0
459.52,72.0
459.58,74.0
459.65,88.0
459.71,93.0
459.77,81.0
459.84,81.0
459.9,85.0
459.96,78.0
460.03,77.0
460.09,86.0
460.15,65.0
460.21,49.0
460.28,76.0
460.34,58.0
460.4,50.0
460.47,72.0
460.53,61.0
460.59,68.0
460.66,69.0
460.72,77.0
460.78,85.0
460.84,65.0
460.91,67.0
460.97,70.0
461.03,68.0
461.1,83.0
461.16,76.0
461.22,70.0
461.29,72.0
461.35,68.0
461.41,69.0
461.47,73.0
461.54,68.0
461.6,67.0
461.66,72.0
461.73,84.0
461.79,81.0
461.85,78.0
461.92,77.0
461.98,75.0
462.04,64.0
462.1,79.0
462.17,89.0
462.23,83.0
462.29,68.0
462.36,76.0
462.42,78.0
462.48,77.0
462.55,77.0
462.61,73.0
462.67,69.0
462.73,78.0
462.8,94.0
462.86,92.0
462.92,89.0
462.99,99.0
463.05,82.0
463.11,92.0
463.18,105.0
463.24,99.0
463.3,110.0
463.36,116.0
463.43,114.0
463.49,114.0
463.55,138.0
463.62,128.0
463.68,112.0
463.74,134.0
463.81,124.0
463.87,119.0
463.93,142.0
463.99,142.0
464.06,137.0
464.12,146.0
464.18,153.0
464.25,140.0
464.31,139.0
464.37,127.0
464.44,149.0
464.5,135.0
464.56,129.0
464.62,123.0
464.69,124.0
464.75,116.0
464.81,107.0
464.88,108.0
464.94,98.0
465.0,103.0
465.07,122.0
465.13,102.0
465.19,93.0
465.25,121.0
465.32,105.0
465.38,118.0
465.44,123.0
465.51,131.0
465.57,137.0
465.63,113.0
465.7,109.0
465.76,123.0
465.82,129.0
465.88,128.0
465.95,139.0
466.01,158.0
466.07,160.0
466.14,147.0
466.2,155.0
466.26,156.0
466.33,149.0
466.39,145.0
466.45,151.0
466.51,151.0
466.58,128.0
466.64,131.0
466.7,151.0
466.77,143.0
466.83,139.0
466.89,154.0
466.96,153.0
467.02,147.0
467.08,135.0
467.14,140.0
467.21,150.0
467.27,142.0
467.33,123.0
467.4,120.0
467.46,132.0
467.52,120.0
467.59,124.0
467.65,129.0
467.71,139.0
467.77,131.0
467.84,152.0
467.9,129.0
467.96,121.0
468.03,117.0
468.09,120.0
468.15,121.0
468.22,121.0
468.28,112.0
468.34,127.0
468.4,96.0
468.47,123.0
468.53,106.0
468.59,106.0
468.66,98.0
468.72,97.0
468.78,120.0
468.85,109.0
468.91,112.0
468.97,104.0
469.03,107.0
469.1,98.0
469.16,98.0
469.22,111.0
469.29,125.0
469.35,107.0
469.41,91.0
469.48,83.0
469.54,61.0
469.6,73.0
469.66,90.0
469.73,87.0
469.79,92.0
469.85,75.0
469.92,100.0
469.98,114.0
470.04,81.0
470.11,77.0
470.17,76.0
470.23,100.0
470.29,98.0
470.36,94.0
470.42,86.0
470.48,83.0
470.55,71.0
470.61,78.0
470.67,72.0
470.74,68.0
470.8,85.0
470.86,66.0
470.92,78.0
470.99,60.0
471.05,76.0
471.11,73.0
471.18,64.0
471.24,75.0
471.3,59.0
471.37,63.0
471.43,62.0
471.49,70.0
471.55,81.0
471.62,82.0
471.68,60.0
471.74,75.0
471.81,64.0
471.87,72.0
471.93,61.0
472.0,80.0
472.06,72.0
472.12,74.0
472.18,91.0
472.25,82.0
472.31,93.0
472.37,89.0
472.44,73.0
472.5,89.0
472.56,82.0
472.63,78.0
472.69,99.0
472.75,81.0
472.81,78.0
472.88,68.0
472.94,83.0
473.0,89.0
473.07,78.0
473.13,88.0
473.19,85.0
473.26,83.0
473.32,87.0
473.38,106.0
473.44,76.0
473.51,76.0
473.57,76.0
473.63,76.0
473.7,74.0
473.76,68.0
473.82,84.0
473.89,71.0
473.95,61.0
474.01,70.0
474.07,53.0
474.14,50.0
474.2,71.0
474.26,66.0
474.33,53.0
474.39,56.0
474.45,45.0
474.52,35.0
474.58,67.0
474.64,72.0
474.7,76.0
474.77,64.0
474.83,70.0
474.89,69.0
474.96,76.0
475.02,59.0
475.08,71.0
475.15,74.0
475.21,75.0
475.27,76.0
475.33,87.0
475.4,77.0
475.46,64.0
475.52,65.0
475.59,86.0
475.65,87.0
475.71,106.0
475.78,82.0
475.84,83.0
475.9,97.0
475.96,97.0
476.03,109.0
476.09,115.0
476.15,99.0
476.22,102.0
476.28,92.0
476.34,72.0
476.41,100.0
476.47,94.0
476.53,107.0
476.59,95.0
476.66,103.0
476.72,101.0
476.78,111.0
476.85,97.0
476.91,98.0
476.97,90.0
477.04,91.0
477.1,87.0
477.16,105.0
477.22,96.0
477.29,94.0
477.35,96.0
477.41,98.0
477.48,93.0
477.54,72.0
477.6,61.0
477.67,96.0
477.73,98.0
477.79,76.0
477.85,62.0
477.92,73.0
477.98,93.0
478.04,84.0
478.11,84.0
478.17,90.0
478.23,79.0
478.3,98.0
478.36,96.0
478.42,89.0
478.48,112.0
478.55,91.0
478.61,85.0
478.67,81.0
478.74,75.0
478.8,88.0
478.86,105.0
478.93,101.0
478.99,77.0
479.05,94.0
479.11,108.0
479.18,82.0
479.24,106.0
479.3,114.0
479.37,103.0
479.43,95.0
479.49,95.0
479.56,97.0
479.62,98.0
479.68,91.0
479.74,99.0
479.81,127.0
479.87,118.0
479.93,127.0
480.0,95.0
480.06,107.0
480.12,127.0
480.19,95.0
480.25,105.0
480.31,119.0
480.37,133.0
480.44,117.0
480.5,119.0
480.56,137.0
480.63,120.0
480.69,129.0
480.75,141.0
480.82,156.0
480.88,167.0
480.94,169.0
481.0,171.0
481.07,155.0
481.13,164.0
481.19,178.0
481.26,171.0
481.32,182.0
481.38,184.0
481.45,174.0
481.51,185.0
481.57,191.0
481.63,176.0
481.7,168.0
481.76,173.0
481.82,194.0
481.89,182.0
481.95,197.0
482.01,182.0
482.08,170.0
482.14,189.0
482.2,206.0
482.26,210.0
482.33,209.0
482.39,199.0
482.45,186.0
482.52,204.0
482.58,212.0
482.64,218.0
482.71,230.0
482.77,237.0
482.83,208.0
482.89,207.0
482.96,212.0
483.02,208.0
483.08,220.0
483.15,224.0
483.21,206.0
483.27,222.0
483.34,212.0
483.4,194.0
483.46,184.0
483.52,188.0
483.59,176.0
483.65,161.0
483.71,172.0
483.78,154.0
483.84,164.0
483.9,185.0
483.97,175.0
484.03,151.0
484.09,170.0
484.15,174.0
484.22,157.0
484.28,171.0
484.34,171.0
484.41,166.0
484.47,170.0
484.53,177.0
484.6,171.0
484.66,155.0
484.72,159.0
484.78,157.0
484.85,176.0
484.91,165.0
484.97,179.0
485.04,171.0
485.1,167.0
485.16,173.0
485.23,177.0
485.29,179.0
485.35,171.0
485.41,166.0
485.48,173.0
485.54,170.0
485.6,187.0
485.67,161.0
485.73,149.0
485.79,154.0
485.86,146.0
485.92,161.0
485.98,157.0
486.04,146.0
486.11,144.0
486.17,131.0
486.23,131.0
486.3,132.0
486.36,134.0
486.42,123.0
486.49,131.0
486.55,136.0
486.61,148.0
486.67,129.0
486.74,126.0
486.8,118.0
486.86,140.0
486.93,132.0
486.99,111.0
487.05,108.0
487.12,101.0
487.18,120.0
487.24,102.0
487.3,101.0
487.37,96.0
487.43,102.0
487.49,114.0
487.56,128.0
487.62,127.0
487.68,120.0
487.75,115.0
487.81,102.0
487.87,102.0
487.93,99.0
488.0,87.0
488.06,103.0
488.12,113.0
488.19,110.0
488.25,122.0
488.31,113.0
488.38,95.0
488.44,105.0
488.5,121.0
488.56,113.0
488.63,125.0
488.69,114.0
488.75,93.0
488.82,123.0
488.88,121.0
488.94,134.0
489.01,116.0
489.07,119.0
489.13,119.0
489.19,98.0
489.26,107.0
489.32,105.0
489.38,105.0
489.45,105.0
489.51,103.0
489.57,117.0
489.64,103.0
489.7,100.0
489.76,85.0
489.82,70.0
489.89,78.0
489.95,90.0
490.01,86.0
490.08,77.0
490.14,75.0
490.2,100.0
490.27,84.0
490.33,72.0
490.39,91.0
490.45,97.0
490.52,93.0
490.58,84.0
490.64,81.0
490.71,84.0
490.77,105.0
490.83,104.0
490.9,94.0
490.96,79.0
491.02,87.0
491.08,75.0
491.15,84.0
491.21,80.0
491.27,76.0
491.34,57.0
491.4,55.0
491.46,67.0
491.53,78.0
491.59,78.0
491.65,68.0
491.71,77.0
491.78,75.0
491.84,60.0
491.9,45.0
491.97,48.0
492.03,64.0
492.09,59.0
492.16,59.0
492.22,53.0
492.28,61.0
492.34,42.0
492.41,44.0
492.47,51.0
492.53,43.0
492.6,48.0
492.66,28.0
492.72,20.0
492.79,21.0
492.85,34.0
492.91,25.0
492.97,6.0
493.04,19.0
493.1,-12.0
493.16,-23.0
493.23,-5.0
493.29,0.0
493.35,-3.0
493.42,-21.0
493.48,3.0
493.54,-3.0
493.6,1.0
493.67,12.0
493.73,5.0
493.79,4.0
493.86,-19.0
493.92,-20.0
493.98,1.0
494.05,-1.0
494.11,7.0
494.17,24.0
494.23,23.0
494.3,15.0
494.36,35.0
494.42,25.0
494.49,19.0
494.55,18.0
494.61,25.0
494.68,25.0
494.74,24.0
494.8,28.0
494.86,32.0
494.93,29.0
494.99,30.0
495.05,19.0
495.12,25.0
495.18,28.0
495.24,11.0
495.31,25.0
495.37,19.0
495.43,44.0
495.49,53.0
495.56,60.0
495.62,59.0
495.68,48.0
495.75,48.0
495.81,59.0
495.87,70.0
495.94,81.0
496.0,62.0
496.06,49.0
496.12,65.0
496.19,53.0
496.25,72.0
496.31,47.0
496.38,75.0
496.44,80.0
496.5,85.0
496.57,86.0
496.63,92.0
496.69,108.0
496.75,88.0
496.82,102.0
496.88,115.0
496.94,113.0
497.01,130.0
497.07,114.0
497.13,116.0
497.2,115.0
497.26,121.0
497.32,119.0
497.38,122.0
497.45,133.0
497.51,132.0
497.57,125.0
497.64,99.0
497.7,127.0
497.76,124.0
497.83,143.0
497.89,143.0
497.95,151.0
498.01,164.0
498.08,152.0
498.14,160.0
498.2,141.0
498.27,139.0
498.33,127.0
498.39,119.0
498.46,122.0
498.52,114.0
498.58,132.0
498.64,133.0
498.71,141.0
498.77,114.0
498.83,133.0
498.9,125.0
498.96,128.0
499.02,140.0
499.09,158.0
499.15,156.0
499.21,151.0
499.27,167.0
499.34,157.0
499.4,155.0
499.46,154.0
499.53,163.0
499.59,159.0
499.65,152.0
499.72,150.0
499.78,166.0
499.84,169.0
499.9,162.0
499.97,176.0
500.03,174.0
500.09,177.0
500.16,161.0
500.22,171.0
500.28,165.0
500.35,160.0
500.41,150.0
500.47,152.0
500.53,162.0
500.6,171.0
500.66,174.0
500.72,174.0
500.79,189.0
500.85,163.0
500.91,166.0
500.98,164.0
501.04,171.0
501.1,174.0
501.16,163.0
501.23,176.0
501.29,170.0
501.35,160.0
501.42,184.0
501.48,169.0
501.54,169.0
501.61,166.0
501.67,166.0
501.73,174.0
501.79,153.0
501.86,146.0
501.92,154.0
501.98,158.0
502.05,160.0
502.11,137.0
502.17,138.0
502.24,141.0
502.3,129.0
502.36,151.0
502.42,149.0
502.49,147.0
502.55,149.0
502.61,162.0
502.68,152.0
502.74,162.0
502.8,146.0
502.87,161.0
502.93,138.0
502.99,146.0
503.05,138.0
503.12,144.0
503.18,144.0
503.24,131.0
503.31,143.0
503.37,127.0
503.43,143.0
503.5,119.0
503.56,121.0
503.62,128.0
503.68,114.0
503.75,124.0
503.81,118.0
503.87,114.0
503.94,117.0
504.0,107.0
504.06,113.0
504.13,117.0
504.19,103.0
504.25,132.0
504.31,139.0
504.38,127.0
504.44,116.0
504.5,130.0
504.57,136.0
504.63,132.0
504.69,130.0
504.76,121.0
504.82,120.0
504.88,110.0
504.94,103.0
505.01,119.0
505.07,129.0
505.13,128.0
505.2,118.0
505.26,113.0
505.32,107.0
505.39,106.0
505.45,103.0
505.51,99.0
505.57,106.0
505.64,106.0
505.7,118.0
505.76,107.0
505.83,94.0
505.89,99.0
505.95,107.0
506.02,109.0
506.08,91.0
506.14,121.0
506.2,119.0
506.27,115.0
506.33,129.0
506.39,128.0
506.46,130.0
506.52,123.0
506.58,113.0
506.65,132.0
506.71,121.0
506.77,121.0
506.83,126.0
506.9,121.0
506.96,142.0
507.02,129.0
507.09,123.0
507.15,130.0
507.21,125.0
507.28,143.0
507.34,140.0
507.4,122.0
507.46,135.0
507.53,130.0
507.59,111.0
507.65,125.0
507.72,120.0
507.78,125.0
507.84,120.0
507.91,117.0
507.97,151.0
508.03,141.0
508.09,125.0
508.16,132.0
508.22,140.0
508.28,138.0
508.35,137.0
508.41,147.0
508.47,123.0
508.54,131.0
508.6,125.0
508.66,130.0
508.72,116.0
508.79,107.0
508.85,121.0
508.91,105.0
508.98,117.0
509.04,132.0
509.1,119.0
509.17,107.0
509.23,118.0
509.29,99.0
509.35,105.0
509.42,111.0
509.48,99.0
509.54,109.0
509.61,111.0
509.67,95.0
509.73,95.0
509.8,97.0
509.86,92.0
509.92,70.0
509.98,67.0
510.05,87.0
510.11,87.0
510.17,67.0
510.24,91.0
510.3,66.0
510.36,67.0
510.43,56.0
510.49,61.0
510.55,77.0
510.61,77.0
510.68,64.0
510.74,59.0
510.8,73.0
510.87,71.0
510.93,77.0
510.99,82.0
511.06,77.0
511.12,55.0
511.18,45.0
511.24,48.0
511.31,60.0
511.37,69.0
511.43,66.0
511.5,81.0
511.56,92.0
511.62,83.0
511.69,73.0
511.75,82.0
511.81,96.0
511.87,88.0
511.94,77.0
512.0,70.0
512.06,79.0
512.13,48.0
512.19,63.0
512.25,77.0
512.32,64.0
512.38,72.0
512.44,71.0
512.5,83.0
512.57,84.0
512.63,76.0
512.69,73.0
512.76,67.0
512.82,88.0
512.88,105.0
512.95,116.0
513.01,102.0
513.07,110.0
513.13,118.0
513.2,108.0
513.26,123.0
513.32,122.0
513.39,120.0
513.45,126.0
513.51,124.0
513.58,111.0
513.64,118.0
513.7,112.0
513.76,114.0
513.83,129.0
513.89,109.0
513.95,108.0
514.02,128.0
514.08,112.0
514.14,121.0
514.21,119.0
514.27,140.0
514.33,146.0
514.39,134.0
514.46,152.0
514.52,124.0
514.58,120.0
514.65,135.0
514.71,136.0
514.77,124.0
514.84,139.0
514.9,133.0
514.96,140.0
515.02,147.0
515.09,143.0
515.15,148.0
515.21,128.0
515.28,137.0
515.34,138.0
515.4,137.0
515.47,147.0
515.53,131.0
515.59,143.0
515.65,138.0
515.72,149.0
515.78,144.0
515.84,134.0
515.91,135.0
515.97,134.0
516.03,136.0
516.1,129.0
516.16,135.0
516.22,120.0
516.28,133.0
516.35,136.0
516.41,128.0
516.47,129.0
516.54,130.0
516.6,117.0
516.66,113.0
516.73,119.0
516.79,114.0
516.85,121.0
516.91,157.0
516.98,144.0
517.04,135.0
517.1,142.0
517.17,150.0
517.23,150.0
517.29,176.0
517.36,166.0
517.42,159.0
517.48,145.0
517.54,147.0
517.61,145.0
517.67,139.0
517.73,157.0
517.8,147.0
517.86,133.0
517.92,114.0
517.99,116.0
518.05,134.0
518.11,130.0
518.17,141.0
518.24,121.0
518.3,124.0
518.36,125.0
518.43,120.0
518.49,128.0
518.55,121.0
518.62,119.0
518.68,143.0
518.74,146.0
518.8,116.0
518.87,121.0
518.93,121.0
518.99,116.0
519.06,111.0
519.12,116.0
519.18,114.0
519.25,119.0
519.31,110.0
519.37,103.0
519.43,124.0
519.5,108.0
519.56,113.0
519.62,94.0
519.69,105.0
519.75,98.0
519.81,81.0
519.88,88.0
519.94,101.0
520.0,81.0
520.06,67.0
520.13,82.0
520.19,86.0
520.25,76.0
520.32,60.0
520.38,48.0
520.44,55.0
520.51,63.0
520.57,61.0
520.63,63.0
520.69,75.0
520.76,60.0
520.82,55.0
520.88,46.0
520.95,42.0
521.01,39.0
521.07,41.0
521.14,44.0
521.2,39.0
521.26,34.0
521.32,52.0
521.39,49.0
521.45,56.0
521.51,48.0
521.58,67.0
521.64,65.0
521.7,59.0
521.77,51.0
521.83,55.0
521.89,69.0
521.95,63.0
522.02,77.0
522.08,74.0
522.14,65.0
522.21,90.0
522.27,83.0
522.33,71.0
522.4,76.0
522.46,70.0
522.52,75.0
522.58,77.0
522.65,60.0
522.71,57.0
522.77,59.0
522.84,72.0
522.9,81.0
522.96,94.0
523.03,91.0
523.09,91.0
523.15,76.0
523.21,76.0
523.28,57.0
523.34,52.0
523.4,41.0
523.47,42.0
523.53,50.0
523.59,47.0
523.66,53.0
523.72,42.0
523.78,52.0
523.84,36.0
523.91,30.0
523.97,34.0
524.03,35.0
524.1,45.0
524.16,61.0
524.22,62.0
524.29,65.0
524.35,45.0
524.41,54.0
524.47,34.0
524.54,49.0
524.6,55.0
524.66,70.0
524.73,66.0
524.79,90.0
524.85,75.0
524.92,71.0
524.98,70.0
525.04,89.0
525.1,93.0
525.17,91.0
525.23,90.0
525.29,80.0
525.36,73.0
525.42,99.0
525.48,72.0
525.55,52.0
525.61,50.0
525.67,74.0
525.73,56.0
525.8,66.0
525.86,78.0
525.92,52.0
525.99,69.0
526.05,59.0
526.11,72.0
526.18,53.0
526.24,41.0
526.3,50.0
526.36,45.0
526.43,52.0
526.49,39.0
526.55,62.0
526.62,50.0
526.68,37.0
526.74,42.0
526.81,36.0
526.87,45.0
526.93,42.0
526.99,39.0
527.06,40.0
527.12,54.0
527.18,44.0
527.25,32.0
527.31,39.0
527.37,37.0
527.44,19.0
527.5,33.0
527.56,48.0
527.62,48.0
527.69,48.0
527.75,44.0
527.81,20.0
527.88,28.0
527.94,11.0
528.0,29.0
528.07,31.0
528.13,28.0
528.19,29.0
528.25,13.0
528.32,22.0
528.38,22.0
528.44,17.0
528.51,36.0
528.57,31.0
528.63,26.0
528.7,29.0
528.76,31.0
528.82,25.0
528.88,49.0
528.95,38.0
529.01,55.0
529.07,63.0
529.14,51.0
529.2,58.0
529.26,56.0
529.33,78.0
529.39,35.0
529.45,37.0
529.51,55.0
529.58,40.0
529.64,55.0
529.7,53.0
529.77,47.0
529.83,69.0
529.89,77.0
529.96,77.0
530.02,83.0
530.08,72.0
530.14,78.0
530.21,77.0
530.27,87.0
530.33,90.0
530.4,95.0
530.46,92.0
530.52,100.0
530.59,93.0
530.65,98.0
530.71,107.0
530.77,103.0
530.84,116.0
530.9,123.0
530.96,130.0
531.03,133.0
531.09,141.0
531.15,139.0
531.22,145.0
531.28,143.0
531.34,144.0
531.4,155.0
531.47,165.0
531.53,168.0
531.59,165.0
531.66,163.0
531.72,158.0
531.78,144.0
531.85,150.0
531.91,160.0
531.97,154.0
532.03,172.0
532.1,154.0
532.16,154.0
532.22,161.0
532.29,153.0
532.35,174.0
532.41,184.0
532.48,184.0
532.54,190.0
532.6,174.0
532.66,204.0
532.73,179.0
532.79,182.0
532.85,192.0
532.92,166.0
532.98,166.0
533.04,160.0
533.11,179.0
533.17,182.0
533.23,169.0
533.29,180.0
533.36,187.0
533.42,202.0
533.48,184.0
533.55,197.0
533.61,201.0
533.67,207.0
533.74,207.0
533.8,221.0
533.86,214.0
533.92,190.0
533.99,213.0
534.05,213.0
534.11,190.0
534.18,201.0
534.24,197.0
534.3,208.0
534.37,201.0
534.43,193.0
534.49,194.0
534.55,194.0
534.62,181.0
534.68,185.0
534.74,189.0
534.81,183.0
534.87,189.0
534.93,176.0
535.0,176.0
535.06,198.0
535.12,186.0
535.18,184.0
535.25,184.0
535.31,176.0
535.37,176.0
535.44,183.0
535.5,182.0
535.56,178.0
535.63,175.0
535.69,176.0
535.75,168.0
535.81,175.0
535.88,187.0
535.94,180.0
536.0,193.0
536.07,197.0
536.13,198.0
536.19,204.0
536.26,229.0
536.32,213.0
536.38,190.0
536.44,193.0
536.51,207.0
536.57,189.0
536.63,204.0
536.7,196.0
536.76,189.0
536.82,177.0
536.89,194.0
536.95,172.0
537.01,175.0
537.07,190.0
537.14,182.0
537.2,201.0
537.26,163.0
537.33,157.0
537.39,163.0
537.45,165.0
537.52,180.0
537.58,166.0
537.64,164.0
537.7,172.0
537.77,167.0
537.83,153.0
537.89,166.0
537.96,163.0
538.02,180.0
538.08,169.0
538.15,158.0
538.21,161.0
538.27,182.0
538.33,174.0
538.4,176.0
538.46,201.0
538.52,209.0
538.59,206.0
538.65,199.0
538.71,205.0
538.78,210.0
538.84,218.0
538.9,194.0
538.96,198.0
539.03,195.0
539.09,174.0
539.15,184.0
539.22,163.0
539.28,163.0
539.34,153.0
539.41,168.0
539.47,160.0
539.53,151.0
539.59,147.0
539.66,143.0
539.72,147.0
539.78,148.0
539.85,150.0
539.91,149.0
539.97,138.0
540.04,147.0
540.1,161.0
540.16,167.0
540.22,152.0
540.29,160.0
540.35,162.0
540.41,160.0
540.48,154.0
540.54,151.0
540.6,154.0
540.67,149.0
540.73,149.0
540.79,151.0
540.85,143.0
540.92,155.0
540.98,141.0
541.04,159.0
541.11,168.0
541.17,137.0
541.23,149.0
541.3,136.0
541.36,160.0
541.42,157.0
541.48,147.0
541.55,154.0
541.61,152.0
541.67,144.0
541.74,138.0
541.8,156.0
541.86,171.0
541.93,163.0
541.99,152.0
542.05,134.0
542.11,147.0
542.18,152.0
542.24,138.0
542.3,140.0
542.37,122.0
542.43,114.0
542.49,118.0
542.56,106.0
542.62,105.0
542.68,109.0
542.74,84.0
542.81,101.0
542.87,102.0
542.93,96.0
543.0,86.0
543.06,78.0
543.12,74.0
543.19,65.0
543.25,55.0
543.31,63.0
543.37,41.0
543.44,48.0
543.5,59.0
543.56,69.0
543.63,66.0
543.69,61.0
543.75,81.0
543.82,59.0
543.88,41.0
543.94,52.0
544.0,42.0
544.07,19.0
544.13,14.0
544.19,-3.0
544.26,-19.0
544.32,-8.0
544.38,7.0
544.45,4.0
544.51,9.0
544.57,-4.0
544.63,27.0
544.7,6.0
544.76,-11.0
544.82,16.0
544.89,21.0
544.95,-1.0
545.01,8.0
545.08,10.0
545.14,-4.0
545.2,3.0
545.26,2.0
545.33,-8.0
545.39,9.0
545.45,1.0
545.52,2.0
545.58,-20.0
545.64,2.0
545.71,13.0
545.77,-3.0
545.83,-5.0
545.89,0.0
545.96,6.0
546.02,-6.0
546.08,4.0
546.15,17.0
546.21,2.0
546.27,20.0
546.34,9.0
546.4,-4.0
546.46,20.0
546.52,18.0
546.59,10.0
546.65,10.0
546.71,18.0
546.78,25.0
546.84,24.0
546.9,28.0
546.97,15.0
547.03,14.0
547.09,39.0
547.15,35.0
547.22,18.0
547.28,52.0
547.34,58.0
547.41,61.0
547.47,67.0
547.53,54.0
547.6,62.0
547.66,85.0
547.72,72.0
547.78,82.0
547.85,87.0
547.91,75.0
547.97,87.0
548.04,91.0
548.1,77.0
548.16,85.0
548.23,92.0
548.29,90.0
548.35,77.0
548.41,75.0
548.48,83.0
548.54,97.0
548.6,129.0
548.67,108.0
548.73,125.0
548.79,109.0
548.86,96.0
548.92,90.0
548.98,99.0
549.04,94.0
549.11,87.0
549.17,68.0
549.23,83.0
549.3,87.0
549.36,72.0
549.42,79.0
549.49,92.0
549.55,98.0
549.61,108.0
549.67,88.0
549.74,75.0
549.8,77.0
549.86,72.0
549.93,63.0
549.99,66.0
550.05,72.0
550.12,98.0
550.18,85.0
550.24,76.0
550.3,72.0
550.37,94.0
550.43,96.0
550.49,85.0
550.56,96.0
550.62,109.0
550.68,91.0
550.75,90.0
550.81,98.0
550.87,114.0
550.93,94.0
551.0,86.0
551.06,110.0
551.12,116.0
551.19,116.0
551.25,93.0
551.31,95.0
551.38,97.0
551.44,92.0
551.5,92.0
551.56,87.0
551.63,87.0
551.69,81.0
551.75,74.0
551.82,83.0
551.88,90.0
551.94,97.0
552.01,89.0
552.07,71.0
552.13,78.0
552.19,84.0
552.26,94.0
552.32,106.0
552.38,87.0
552.45,87.0
552.51,68.0
552.57,65.0
552.64,54.0
552.7,76.0
552.76,69.0
552.82,76.0
552.89,76.0
552.95,104.0
553.01,112.0
553.08,127.0
553.14,119.0
553.2,101.0
553.27,123.0
553.33,122.0
553.39,94.0
553.45,95.0
553.52,97.0
553.58,90.0
553.64,114.0
553.71,97.0
553.77,92.0
553.83,87.0
553.9,81.0
553.96,89.0
554.02,80.0
554.08,83.0
554.15,85.0
554.21,71.0
554.27,76.0
554.34,71.0
554.4,67.0
554.46,63.0
554.53,91.0
554.59,81.0
554.65,90.0
554.71,80.0
554.78,85.0
554.84,81.0
554.9,87.0
554.97,82.0
555.03,98.0
555.09,70.0
555.16,68.0
555.22,96.0
555.28,109.0
555.34,103.0
555.41,120.0
555.47,114.0
555.53,121.0
555.6,133.0
555.66,129.0
555.72,120.0
555.79,107.0
555.85,110.0
555.91,134.0
555.97,124.0
556.04,127.0
556.1,117.0
556.16,107.0
556.23,118.0
556.29,131.0
556.35,116.0
556.42,114.0
556.48,127.0
556.54,133.0
556.6,140.0
556.67,125.0
556.73,127.0
556.79,133.0
556.86,142.0
556.92,160.0
556.98,138.0
557.05,140.0
557.11,144.0
557.17,163.0
557.23,142.0
557.3,137.0
557.36,131.0
557.42,144.0
557.49,134.0
557.55,138.0
557.61,128.0
557.68,111.0
557.74,142.0
557.8,134.0
557.86,146.0
557.93,153.0
557.99,136.0
558.05,123.0
558.12,130.0
558.18,149.0
558.24,150.0
558.31,144.0
558.37,139.0
558.43,149.0
558.49,140.0
558.56,143.0
558.62,145.0
558.68,166.0
558.75,153.0
558.81,148.0
558.87,162.0
558.94,153.0
559.0,155.0
559.06,160.0
559.12,155.0
559.19,138.0
559.25,129.0
559.31,139.0
559.38,139.0
559.44,127.0
559.5,142.0
559.57,162.0
559.63,152.0
559.69,131.0
559.75,133.0
559.82,136.0
559.88,147.0
559.94,135.0
560.01,119.0
560.07,124.0
560.13,124.0
560.2,129.0
560.26,107.0
560.32,107.0
560.38,90.0
560.45,87.0
560.51,108.0
560.57,85.0
560.64,93.0
560.7,72.0
560.76,79.0
560.83,71.0
560.89,79.0
560.95,75.0
561.01,91.0
561.08,72.0
561.14,58.0
561.2,81.0
561.27,69.0
561.33,64.0
561.39,65.0
561.46,57.0
561.52,62.0
561.58,64.0
561.64,76.0
561.71,73.0
561.77,77.0
561.83,80.0
561.9,75.0
561.96,68.0
562.02,60.0
562.09,87.0
562.15,57.0
562.21,72.0
562.27,77.0
562.34,73.0
562.4,85.0
562.46,73.0
562.53,78.0
562.59,91.0
562.65,89.0
562.72,100.0
562.78,86.0
562.84,78.0
562.9,90.0
562.97,97.0
563.03,112.0
563.09,103.0
563.16,89.0
563.22,86.0
563.28,98.0
563.35,102.0
563.41,109.0
563.47,84.0
563.53,101.0
563.6,109.0
563.66,116.0
563.72,120.0
563.79,108.0
563.85,136.0
563.91,124.0
563.98,113.0
564.04,114.0
564.1,116.0
564.16,126.0
564.23,125.0
564.29,133.0
564.35,136.0
564.42,148.0
564.48,151.0
564.54,160.0
564.61,152.0
564.67,141.0
564.73,124.0
564.79,120.0
564.86,143.0
564.92,148.0
564.98,172.0
565.05,182.0
565.11,144.0
565.17,153.0
565.24,155.0
565.3,167.0
565.36,160.0
565.42,182.0
565.49,175.0
565.55,169.0
565.61,174.0
565.68,167.0
565.74,146.0
565.8,157.0
565.87,154.0
565.93,167.0
565.99,168.0
566.05,149.0
566.12,153.0
566.18,152.0
566.24,152.0
566.31,147.0
566.37,167.0
566.43,168.0
566.5,154.0
566.56,147.0
566.62,147.0
566.68,150.0
566.75,165.0
566.81,173.0
566.87,166.0
566.94,156.0
567.0,167.0
567.06,166.0
567.13,165.0
567.19,155.0
567.25,168.0
567.31,188.0
567.38,196.0
567.44,179.0
567.5,166.0
567.57,181.0
567.63,153.0
567.69,180.0
567.76,188.0
567.82,172.0
567.88,170.0
567.94,176.0
568.01,171.0
568.07,164.0
568.13,150.0
568.2,154.0
568.26,150.0
568.32,138.0
568.39,152.0
568.45,149.0
568.51,150.0
568.57,160.0
568.64,152.0
568.7,167.0
568.76,168.0
568.83,140.0
568.89,155.0
568.95,153.0
569.02,147.0
569.08,145.0
569.14,130.0
569.2,155.0
569.27,155.0
569.33,162.0
569.39,175.0
569.46,148.0
569.52,154.0
569.58,139.0
569.65,131.0
569.71,141.0
569.77,116.0
569.83,131.0
569.9,143.0
569.96,108.0
570.02,108.0
570.09,120.0
570.15,110.0
570.21,107.0
570.28,109.0
570.34,94.0
570.4,96.0
570.46,103.0
570.53,103.0
570.59,99.0
570.65,97.0
570.72,114.0
570.78,129.0
570.84,113.0
570.91,100.0
570.97,97.0
571.03,97.0
571.09,91.0
571.16,72.0
571.22,74.0
571.28,81.0
571.35,84.0
571.41,70.0
571.47,70.0
571.54,73.0
571.6,63.0
571.66,61.0
571.72,49.0
571.79,61.0
571.85,72.0
571.91,39.0
571.98,51.0
572.04,61.0
572.1,51.0
572.17,45.0
572.23,46.0
572.29,37.0
572.35,75.0
572.42,45.0
572.48,47.0
572.54,42.0
572.61,47.0
572.67,48.0
572.73,73.0
572.8,58.0
572.86,50.0
572.92,50.0
572.98,45.0
573.05,55.0
573.11,17.0
573.17,45.0
573.24,48.0
573.3,45.0
573.36,33.0
573.43,54.0
573.49,80.0
573.55,56.0
573.61,57.0
573.68,37.0
573.74,53.0
573.8,56.0
573.87,44.0
573.93,50.0
573.99,45.0
574.06,52.0
574.12,36.0
574.18,67.0
574.24,57.0
574.31,72.0
574.37,73.0
574.43,64.0
574.5,61.0
574.56,78.0
574.62,77.0
574.69,76.0
574.75,76.0
574.81,65.0
574.87,47.0
574.94,31.0
575.0,43.0
575.06,47.0
575.13,54.0
575.19,46.0
575.25,49.0
575.32,51.0
575.38,18.0
575.44,32.0
575.5,51.0
575.57,51.0
575.63,40.0
575.69,47.0
575.76,52.0
575.82,31.0
575.88,47.0
575.95,44.0
576.01,59.0
576.07,45.0
576.13,24.0
576.2,17.0
576.26,34.0
576.32,43.0
576.39,39.0
576.45,33.0
576.51,19.0
576.58,4.0
576.64,6.0
576.7,22.0
576.76,24.0
576.83,26.0
576.89,8.0
576.95,8.0
577.02,30.0
577.08,7.0
577.14,14.0
577.21,2.0
577.27,-1.0
577.33,14.0
577.39,15.0
577.46,1.0
577.52,12.0
577.58,10.0
577.65,-13.0
577.71,2.0
577.77,-2.0
577.84,1.0
577.9,14.0
577.96,5.0
578.02,6.0
578.09,-2.0
578.15,-2.0
578.21,-11.0
578.28,-3.0
578.34,-7.0
578.4,17.0
578.47,1.0
578.53,6.0
578.59,1.0
578.65,-6.0
578.72,0.0
578.78,11.0
578.84,4.0
578.91,5.0
578.97,-16.0
579.03,-30.0
579.1,-2.0
579.16,-10.0
579.22,-5.0
579.28,7.0
579.35,7.0
579.41,-6.0
579.47,-17.0
579.54,5.0
579.6,-1.0
579.66,4.0
579.73,-9.0
579.79,-8.0
579.85,8.0
579.91,13.0
579.98,42.0
580.04,30.0
580.1,34.0
580.17,35.0
580.23,42.0
580.29,44.0
580.36,33.0
580.42,33.0
580.48,31.0
580.54,47.0
580.61,56.0
580.67,48.0
580.73,74.0
580.8,64.0
580.86,58.0
580.92,62.0
580.99,59.0
581.05,65.0
581.11,73.0
581.17,72.0
581.24,91.0
581.3,105.0
581.36,96.0
581.43,102.0
581.49,104.0
581.55,97.0
581.62,100.0
581.68,123.0
581.74,110.0
581.8,98.0
581.87,107.0
581.93,96.0
581.99,107.0
582.06,123.0
582.12,113.0
582.18,103.0
582.25,82.0
582.31,98.0
582.37,99.0
582.43,97.0
582.5,99.0
582.56,109.0
582.62,114.0
582.69,125.0
582.75,120.0
582.81,123.0
582.88,133.0
582.94,115.0
583.0,128.0
583.06,134.0
583.13,119.0
583.19,128.0
583.25,132.0
583.32,132.0
583.38,132.0
583.44,155.0
583.51,153.0
583.57,136.0
583.63,140.0
583.69,140.0
583.76,132.0
583.82,146.0
583.88,165.0
583.95,168.0
584.01,153.0
584.07,162.0
584.14,144.0
584.2,141.0
584.26,155.0
584.32,155.0
584.39,165.0
584.45,151.0
584.51,145.0
584.58,136.0
584.64,151.0
584.7,169.0
584.77,171.0
584.83,174.0
584.89,167.0
584.95,136.0
585.02,148.0
585.08,165.0
585.14,151.0
585.21,157.0
585.27,163.0
585.33,169.0
585.4,166.0
585.46,178.0
585.52,171.0
585.58,172.0
585.65,162.0
585.71,172.0
585.77,177.0
585.84,197.0
585.9,185.0
585.96,182.0
586.03,186.0
586.09,173.0
586.15,161.0
586.21,157.0
586.28,184.0
586.34,188.0
586.4,180.0
586.47,202.0
586.53,174.0
586.59,173.0
586.66,167.0
586.72,160.0
586.78,173.0
586.84,162.0
586.91,162.0
586.97,170.0
587.03,174.0
587.1,172.0
587.16,165.0
587.22,146.0
587.29,161.0
587.35,168.0
587.41,144.0
587.47,146.0
587.54,137.0
587.6,144.0
587.66,162.0
587.73,169.0
587.79,171.0
587.85,157.0
587.92,169.0
587.98,157.0
588.04,166.0
588.1,174.0
588.17,159.0
588.23,156.0
588.29,183.0
588.36,177.0
588.42,194.0
588.48,193.0
588.55,181.0
588.61,182.0
588.67,177.0
588.73,190.0
588.8,202.0
588.86,197.0
588.92,192.0
588.99,195.0
589.05,202.0
589.11,196.0
589.18,193.0
589.24,195.0
589.3,183.0
589.36,191.0
589.43,195.0
589.49,185.0
589.55,196.0
589.62,203.0
589.68,210.0
589.74,210.0
589.81,206.0
589.87,191.0
589.93,184.0
589.99,189.0
590.06,211.0
590.12,198.0
590.18,186.0
590.25,189.0
590.31,176.0
590.37,208.0
590.44,184.0
590.5,196.0
590.56,206.0
590.62,195.0
590.69,199.0
590.75,195.0
590.81,205.0
590.88,214.0
590.94,196.0
591.0,196.0
591.07,188.0
591.13,173.0
591.19,158.0
591.25,169.0
591.32,168.0
591.38,168.0
591.44,174.0
591.51,177.0
591.57,189.0
591.63,184.0
591.7,176.0
591.76,183.0
591.82,181.0
591.88,186.0
591.95,207.0
592.01,185.0
592.07,196.0
592.14,190.0
592.2,189.0
592.26,199.0
592.33,176.0
592.39,199.0
592.45,187.0
592.51,187.0
592.58,187.0
592.64,180.0
592.7,177.0
592.77,159.0
592.83,181.0
592.89,152.0
592.96,144.0
593.02,141.0
593.08,137.0
593.14,151.0
593.21,140.0
593.27,142.0
593.33,170.0
593.4,154.0
593.46,146.0
593.52,151.0
593.59,141.0
593.65,133.0
593.71,134.0
593.77,143.0
593.84,147.0
593.9,134.0
593.96,132.0
594.03,135.0
594.09,107.0
594.15,96.0
594.22,102.0
594.28,96.0
594.34,107.0
594.4,91.0
594.47,95.0
594.53,92.0
594.59,89.0
594.66,90.0
594.72,78.0
594.78,91.0
594.85,86.0
594.91,85.0
594.97,90.0
595.03,89.0
595.1,96.0
595.16,79.0
595.22,71.0
595.29,70.0
595.35,71.0
595.41,81.0
595.48,62.0
595.54,74.0
595.6,55.0
595.66,61.0
595.73,56.0
595.79,63.0
595.85,62.0
595.92,55.0
595.98,53.0
596.04,52.0
596.11,56.0
596.17,62.0
596.23,45.0
596.29,60.0
596.36,51.0
596.42,45.0
596.48,41.0
596.55,53.0
596.61,64.0
596.67,53.0
596.74,47.0
596.8,63.0
596.86,59.0
596.92,59.0
596.99,61.0
597.05,63.0
597.11,70.0
597.18,64.0
597.24,114.0
597.3,117.0
597.37,109.0
597.43,105.0
597.49,108.0
597.55,105.0
597.62,137.0
597.68,122.0
597.74,96.0
597.81,114.0
597.87,115.0
597.93,109.0
598.0,92.0
598.06,92.0
598.12,115.0
598.18,124.0
598.25,122.0
598.31,104.0
598.37,110.0
598.44,130.0
598.5,107.0
598.56,127.0
598.63,116.0
598.69,136.0
598.75,141.0
598.81,113.0
598.88,104.0
598.94,118.0
599.0,127.0
599.07,126.0
599.13,140.0
599.19,137.0
599.26,130.0
599.32,141.0
599.38,135.0
599.44,145.0
599.51,140.0
599.57,144.0
599.63,135.0
599.7,126.0
599.76,135.0
599.82,165.0
599.89,153.0
599.95,140.0
600.01,162.0
600.07,157.0
600.14,144.0
600.2,142.0
600.26,130.0
600.33,134.0
600.39,150.0
600.45,137.0
600.52,138.0
600.58,133.0
600.64,122.0
600.7,159.0
600.77,162.0
600.83,149.0
600.89,144.0
600.96,146.0
601.02,134.0
601.08,143.0
601.15,171.0
601.21,165.0
601.27,142.0
601.33,122.0
601.4,133.0
601.46,141.0
601.52,126.0
601.59,124.0
601.65,106.0
601.71,112.0
601.78,104.0
601.84,122.0
601.9,122.0
601.96,101.0
602.03,104.0
602.09,137.0
602.15,143.0
602.22,130.0
602.28,118.0
602.34,100.0
602.41,107.0
602.47,107.0
602.53,126.0
602.59,133.0
602.66,109.0
602.72,107.0
602.78,100.0
602.85,96.0
602.91,101.0
602.97,110.0
603.04,97.0
603.1,94.0
603.16,106.0
603.22,111.0
603.29,117.0
603.35,107.0
603.41,85.0
603.48,80.0
603.54,91.0
603.6,96.0
603.67,89.0
603.73,96.0
603.79,94.0
603.85,105.0
603.92,114.0
603.98,93.0
604.04,106.0
604.11,114.0
604.17,127.0
604.23,117.0
604.3,129.0
604.36,132.0
604.42,135.0
604.48,125.0
604.55,95.0
604.61,103.0
604.67,103.0
604.74,116.0
604.8,111.0
604.86,114.0
604.93,92.0
604.99,65.0
605.05,103.0
605.11,99.0
605.18,96.0
605.24,75.0
605.3,89.0
605.37,96.0
605.43,80.0
605.49,106.0
605.56,96.0
605.62,87.0
605.68,103.0
605.74,99.0
605.81,90.0
605.87,81.0
605.93,66.0
606.0,74.0
606.06,69.0
606.12,71.0
606.19,78.0
606.25,81.0
606.31,88.0
606.37,92.0
606.44,95.0
606.5,107.0
606.56,106.0
606.63,78.0
606.69,81.0
606.75,99.0
606.82,102.0
606.88,94.0
606.94,94.0
607.0,89.0
607.07,102.0
607.13,86.0
607.19,98.0
607.26,89.0
607.32,115.0
607.38,142.0
607.45,136.0
607.51,137.0
607.57,133.0
607.63,122.0
607.7,125.0
607.76,125.0
607.82,144.0
607.89,124.0
607.95,104.0
608.01,121.0
608.08,111.0
608.14,107.0
608.2,99.0
608.26,105.0
608.33,95.0
608.39,108.0
608.45,82.0
608.52,75.0
608.58,89.0
608.64,106.0
608.71,118.0
608.77,104.0
608.83,123.0
608.89,110.0
608.96,122.0
609.02,121.0
609.08,107.0
609.15,115.0
609.21,125.0
609.27,113.0
609.34,141.0
609.4,122.0
609.46,91.0
609.52,100.0
609.59,111.0
609.65,121.0
609.71,112.0
609.78,112.0
609.84,89.0
609.9,85.0
609.97,68.0
610.03,80.0
610.09,75.0
610.15,75.0
610.22,63.0
610.28,69.0
610.34,56.0
610.41,69.0
610.47,70.0
610.53,70.0
610.6,78.0
610.66,82.0
610.72,92.0
610.78,83.0
610.85,64.0
610.91,58.0
610.97,62.0
611.04,48.0
611.1,60.0
611.16,74.0
611.23,77.0
611.29,64.0
611.35,66.0
611.41,55.0
611.48,75.0
611.54,75.0
611.6,76.0
611.67,64.0
611.73,68.0
611.79,68.0
611.86,60.0
611.92,66.0
611.98,53.0
612.04,62.0
612.11,83.0
612.17,79.0
612.23,85.0
612.3,71.0
612.36,52.0
612.42,56.0
612.49,53.0
612.55,54.0
612.61,74.0
612.67,60.0
612.74,51.0
612.8,69.0
612.86,67.0
612.93,66.0
612.99,45.0
613.05,68.0
613.12,57.0
613.18,67.0
613.24,61.0
613.3,63.0
613.37,81.0
613.43,72.0
613.49,56.0
613.56,60.0
613.62,69.0
613.68,63.0
613.75,76.0
613.81,92.0
613.87,79.0
613.93,82.0
614.0,129.0
614.06,112.0
614.12,109.0
614.19,106.0
614.25,93.0
614.31,109.0
614.38,114.0
614.44,106.0
614.5,130.0
614.56,125.0
614.63,110.0
614.69,142.0
614.75,114.0
614.82,113.0
614.88,141.0
614.94,134.0
615.01,147.0
615.07,120.0
615.13,116.0
615.19,144.0
615.26,114.0
615.32,115.0
615.38,124.0
615.45,121.0
615.51,131.0
615.57,138.0
615.64,135.0
615.7,144.0
615.76,124.0
615.82,138.0
615.89,146.0
615.95,150.0
616.01,163.0
616.08,159.0
616.14,167.0
616.2,165.0
616.27,154.0
616.33,146.0
616.39,147.0
616.45,141.0
616.52,147.0
616.58,156.0
616.64,152.0
616.71,134.0
616.77,133.0
616.83,133.0
616.9,157.0
616.96,133.0
617.02,144.0
617.08,150.0
617.15,133.0
617.21,152.0
617.27,136.0
617.34,132.0
617.4,124.0
617.46,138.0
617.53,135.0
617.59,111.0
617.65,132.0
617.71,144.0
617.78,151.0
617.84,147.0
617.9,132.0
617.97,144.0
618.03,155.0
618.09,160.0
618.16,171.0
618.22,171.0
618.28,173.0
618.34,179.0
618.41,188.0
618.47,177.0
618.53,167.0
618.6,174.0
618.66,183.0
618.72,173.0
618.79,182.0
618.85,176.0
618.91,186.0
618.97,168.0
619.04,170.0
619.1,184.0
619.16,169.0
619.23,193.0
619.29,165.0
619.35,174.0
619.42,154.0
619.48,172.0
619.54,181.0
619.6,158.0
619.67,147.0
619.73,148.0
619.79,147.0
619.86,161.0
619.92,160.0
619.98,144.0
620.05,158.0
620.11,161.0
620.17,133.0
620.23,129.0
620.3,144.0
620.36,125.0
620.42,137.0
620.49,133.0
620.55,129.0
620.61,171.0
620.68,148.0
620.74,138.0
620.8,146.0
620.86,148.0
620.93,118.0
620.99,139.0
621.05,129.0
621.12,122.0
621.18,123.0
621.24,96.0
621.31,100.0
621.37,103.0
621.43,116.0
621.49,118.0
621.56,123.0
621.62,120.0
621.68,92.0
621.75,100.0
621.81,92.0
621.87,114.0
621.94,100.0
622.0,122.0
622.06,128.0
622.12,132.0
622.19,129.0
622.25,118.0
622.31,102.0
622.38,91.0
622.44,82.0
622.5,85.0
622.57,80.0
622.63,118.0
622.69,104.0
622.75,92.0
622.82,93.0
622.88,82.0
622.94,96.0
623.01,94.0
623.07,107.0
623.13,102.0
623.2,125.0
623.26,122.0
623.32,118.0
623.38,108.0
623.45,112.0
623.51,93.0
623.57,114.0
623.64,115.0
623.7,103.0
623.76,117.0
623.83,99.0
623.89,96.0
623.95,95.0
624.01,109.0
624.08,101.0
624.14,96.0
624.2,102.0
624.27,92.0
624.33,103.0
624.39,96.0
624.46,85.0
624.52,97.0
624.58,98.0
624.64,104.0
624.71,100.0
624.77,117.0
624.83,103.0
624.9,83.0
624.96,75.0
625.02,84.0
625.09,98.0
625.15,88.0
625.21,104.0
625.27,114.0
625.34,123.0
625.4,116.0
625.46,103.0
625.53,107.0
625.59,103.0
625.65,116.0
625.72,99.0
625.78,92.0
625.84,100.0
625.9,96.0
625.97,116.0
626.03,97.0
626.09,101.0
626.16,92.0
626.22,86.0
626.28,75.0
626.35,64.0
626.41,81.0
626.47,80.0
626.53,70.0
626.6,64.0
626.66,57.0
626.72,38.0
626.79,48.0
626.85,71.0
626.91,61.0
626.98,52.0
627.04,53.0
627.1,34.0
627.16,52.0
627.23,70.0
627.29,56.0
627.35,63.0
627.42,62.0
627.48,63.0
627.54,37.0
627.61,37.0
627.67,27.0
627.73,22.0
627.79,34.0
627.86,34.0
627.92,39.0
627.98,7.0
628.05,18.0
628.11,39.0
628.17,23.0
628.24,39.0
628.3,49.0
628.36,41.0
628.42,40.0
628.49,40.0
628.55,29.0
628.61,35.0
628.68,34.0
628.74,20.0
628.8,10.0
628.87,-9.0
628.93,-21.0
628.99,-7.0
629.05,-29.0
629.12,-20.0
629.18,-2.0
629.24,-11.0
629.31,-4.0
629.37,-4.0
629.43,20.0
629.5,14.0
629.56,-5.0
629.62,7.0
629.68,6.0
629.75,3.0
629.81,3.0
629.87,-37.0
629.94,2.0
630.0,11.0
630.06,9.0
630.13,4.0
630.19,2.0
630.25,22.0
630.31,12.0
630.38,25.0
630.44,22.0
630.5,51.0
630.57,42.0
630.63,45.0
630.69,48.0
630.76,52.0
630.82,52.0
630.88,31.0
630.94,35.0
631.01,34.0
631.07,51.0
631.13,64.0
631.2,58.0
631.26,46.0
631.32,25.0
631.39,41.0
631.45,42.0
631.51,57.0
631.57,38.0
631.64,41.0
631.7,47.0
631.76,52.0
631.83,61.0
631.89,78.0
631.95,53.0
632.02,60.0
632.08,77.0
632.14,67.0
632.2,67.0
632.27,69.0
632.33,63.0
632.39,50.0
632.46,51.0
632.52,51.0
632.58,74.0
632.65,68.0
632.71,80.0
632.77,58.0
632.83,85.0
632.9,82.0
632.96,77.0
633.02,71.0
633.09,71.0
633.15,73.0
633.21,83.0
633.28,61.0
633.34,78.0
633.4,72.0
633.46,88.0
633.53,84.0
633.59,79.0
633.65,93.0
633.72,77.0
633.78,83.0
633.84,96.0
633.91,100.0
633.97,92.0
634.03,106.0
634.09,89.0
634.16,48.0
634.22,82.0
634.28,91.0
634.35,107.0
634.41,119.0
634.47,114.0
634.54,107.0
634.6,103.0
634.66,124.0
634.72,122.0
634.79,125.0
634.85,119.0
634.91,130.0
634.98,121.0
635.04,129.0
635.1,140.0
635.17,129.0
635.23,127.0
635.29,127.0
635.35,143.0
635.42,141.0
635.48,172.0
635.54,169.0
635.61,154.0
635.67,162.0
635.73,155.0
635.8,151.0
635.86,147.0
635.92,166.0
635.98,156.0
636.05,161.0
636.11,164.0
636.17,181.0
636.24,175.0
636.3,165.0
636.36,167.0
636.43,190.0
636.49,184.0
636.55,175.0
636.61,171.0
636.68,162.0
636.74,160.0
636.8,154.0
636.87,163.0
636.93,155.0
636.99,193.0
637.06,190.0
637.12,174.0
637.18,191.0
637.24,153.0
637.31,174.0
637.37,185.0
637.43,184.0
637.5,184.0
637.56,165.0
637.62,158.0
637.69,132.0
637.75,162.0
637.81,165.0
637.87,150.0
637.94,154.0
638.0,157.0
638.06,171.0
638.13,173.0
638.19,170.0
638.25,169.0
638.32,155.0
638.38,160.0
638.44,149.0
638.5,168.0
638.57,161.0
638.63,146.0
638.69,141.0
638.76,137.0
638.82,139.0
638.88,172.0
638.95,183.0
639.01,164.0
639.07,160.0
639.13,130.0
639.2,129.0
639.26,142.0
639.32,148.0
639.39,147.0
639.45,164.0
639.51,157.0
639.58,187.0
639.64,178.0
639.7,193.0
639.76,192.0
639.83,170.0
639.89,158.0
639.95,163.0
640.02,162.0
640.08,166.0
640.14,172.0
640.21,162.0
640.27,169.0
640.33,166.0
640.39,183.0
640.46,198.0
640.52,187.0
640.58,195.0
640.65,185.0
640.71,191.0
640.77,199.0
640.84,208.0
640.9,184.0
640.96,182.0
641.02,200.0
641.09,183.0
641.15,209.0
641.21,198.0
641.28,199.0
641.34,208.0
641.4,212.0
641.47,218.0
641.53,204.0
641.59,210.0
641.65,212.0
641.72,226.0
641.78,231.0
641.84,239.0
641.91,226.0
641.97,228.0
642.03,225.0
642.1,235.0
642.16,227.0
642.22,206.0
642.28,208.0
642.35,197.0
642.41,207.0
642.47,210.0
642.54,211.0
642.6,195.0
642.66,184.0
642.73,206.0
642.79,203.0
642.85,209.0
642.91,193.0
642.98,173.0
643.04,195.0
643.1,201.0
643.17,183.0
643.23,207.0
643.29,182.0
643.36,182.0
643.42,190.0
643.48,176.0
643.54,192.0
643.61,174.0
643.67,187.0
643.73,182.0
643.8,174.0
643.86,173.0
643.92,195.0
643.99,188.0
644.05,179.0
644.11,184.0
644.17,182.0
644.24,158.0
644.3,179.0
644.36,187.0
644.43,169.0
644.49,181.0
644.55,190.0
644.62,175.0
644.68,182.0
644.74,192.0
644.8,177.0
644.87,192.0
644.93,182.0
644.99,186.0
645.06,183.0
645.12,182.0
645.18,166.0
645.25,162.0
645.31,181.0
645.37,171.0
645.43,151.0
645.5,140.0
645.56,161.0
645.62,154.0
645.69,169.0
645.75,165.0
645.81,156.0
645.88,179.0
645.94,164.0
646.0,160.0
646.06,152.0
646.13,122.0
646.19,148.0
646.25,142.0
646.32,147.0
646.38,146.0
646.44,151.0
646.51,155.0
646.57,153.0
646.63,135.0
646.69,136.0
646.76,124.0
646.82,134.0
646.88,137.0
646.95,138.0
647.01,139.0
647.07,128.0
647.14,148.0
647.2,160.0
647.26,152.0
647.32,142.0
647.39,161.0
647.45,158.0
647.51,146.0
647.58,150.0
647.64,159.0
647.7,158.0
647.77,157.0
647.83,179.0
647.89,185.0
647.95,174.0
648.02,160.0
648.08,165.0
648.14,191.0
648.21,189.0
648.27,182.0
648.33,196.0
648.4,184.0
648.46,188.0
648.52,188.0
648.58,185.0
648.65,206.0
648.71,212.0
648.77,202.0
648.84,199.0
648.9,191.0
648.96,198.0
649.03,188.0
649.09,198.0
649.15,178.0
649.21,191.0
649.28,201.0
649.34,183.0
649.4,168.0
649.47,180.0
649.53,164.0
649.59,169.0
649.66,184.0
649.72,180.0
649.78,168.0
649.84,168.0
649.91,181.0
649.97,168.0
650.03,148.0
650.1,148.0
650.16,148.0
650.22,163.0
650.29,165.0
650.35,156.0
650.41,151.0
650.47,140.0
650.54,159.0
650.6,155.0
650.66,130.0
650.73,145.0
650.79,114.0
650.85,146.0
650.92,174.0
650.98,155.0
651.04,187.0
651.1,173.0
651.17,190.0
651.23,166.0
651.29,156.0
651.36,140.0
651.42,131.0
651.48,134.0
651.55,141.0
651.61,134.0
651.67,140.0
651.73,144.0
651.8,158.0
651.86,140.0
651.92,165.0
651.99,155.0
652.05,151.0
652.11,148.0
652.18,162.0
652.24,158.0
652.3,168.0
652.36,155.0
652.43,154.0
652.49,144.0
652.55,137.0
652.62,137.0
652.68,156.0
652.74,135.0
652.81,122.0
652.87,148.0
652.93,159.0
652.99,147.0
653.06,148.0
653.12,166.0
653.18,170.0
653.25,165.0
653.31,154.0
653.37,144.0
653.44,150.0
653.5,138.0
653.56,150.0
653.62,154.0
653.69,155.0
653.75,159.0
653.81,146.0
653.88,145.0
653.94,154.0
654.0,161.0
654.07,151.0
654.13,133.0
654.19,133.0
654.25,147.0
654.32,141.0
654.38,154.0
654.44,147.0
654.51,134.0
654.57,144.0
654.63,137.0
654.7,140.0
654.76,140.0
654.82,142.0
654.88,146.0
654.95,122.0
655.01,124.0
655.07,108.0
655.14,80.0
655.2,103.0
655.26,101.0
655.33,100.0
655.39,95.0
655.45,83.0
655.51,102.0
655.58,81.0
655.64,92.0
655.7,103.0
655.77,102.0
655.83,108.0
655.89,100.0
655.96,78.0
656.02,87.0
656.08,102.0
656.14,92.0
656.21,85.0
656.27,107.0
656.33,105.0
656.4,87.0
656.46,90.0
656.52,105.0
656.59,114.0
656.65,119.0
656.71,118.0
656.77,108.0
656.84,101.0
656.9,107.0
656.96,115.0
657.03,117.0
657.09,97.0
657.15,102.0
657.22,125.0
657.28,97.0
657.34,105.0
657.4,111.0
657.47,100.0
657.53,85.0
657.59,84.0
657.66,96.0
657.72,97.0
657.78,88.0
657.85,89.0
657.91,78.0
657.97,81.0
658.03,112.0
658.1,89.0
658.16,110.0
658.22,76.0
658.29,71.0
658.35,85.0
658.41,75.0
658.48,71.0
658.54,78.0
658.6,81.0
658.66,90.0
658.73,94.0
658.79,87.0
658.85,88.0
658.92,99.0
658.98,91.0
659.04,86.0
659.11,96.0
659.17,92.0
659.23,91.0
659.29,91.0
659.36,107.0
659.42,96.0
659.48,91.0
659.55,104.0
659.61,113.0
659.67,125.0
659.74,132.0
659.8,108.0
659.86,119.0
659.92,96.0
659.99,78.0
660.05,75.0
660.11,91.0
660.18,80.0
660.24,74.0
660.3,96.0
660.37,81.0
660.43,84.0
660.49,79.0
660.55,87.0
660.62,66.0
660.68,70.0
660.74,96.0
660.81,93.0
660.87,100.0
660.93,77.0
661.0,85.0
661.06,70.0
661.12,74.0
661.18,84.0
661.25,73.0
661.31,67.0
661.37,52.0
661.44,60.0
661.5,41.0
661.56,62.0
661.63,71.0
661.69,48.0
661.75,36.0
661.81,51.0
661.88,45.0
661.94,37.0
662.0,34.0
662.07,37.0
662.13,38.0
662.19,38.0
662.26,45.0
662.32,33.0
662.38,47.0
662.44,47.0
662.51,50.0
662.57,44.0
662.63,55.0
662.7,62.0
662.76,48.0
662.82,48.0
662.89,56.0
662.95,72.0
663.01,86.0
663.07,47.0
663.14,56.0
663.2,63.0
663.26,61.0
663.33,54.0
663.39,63.0
663.45,54.0
663.52,33.0
663.58,38.0
663.64,41.0
663.7,58.0
663.77,65.0
663.83,54.0
663.89,69.0
663.96,66.0
664.02,71.0
664.08,59.0
664.15,76.0
664.21,76.0
664.27,75.0
664.33,88.0
664.4,107.0
664.46,80.0
664.52,86.0
664.59,97.0
664.65,106.0
664.71,94.0
664.78,72.0
664.84,77.0
664.9,90.0
664.96,92.0
665.03,101.0
665.09,107.0
665.15,80.0
665.22,83.0
665.28,85.0
665.34,85.0
665.41,102.0
665.47,84.0
665.53,102.0
665.59,105.0
665.66,96.0
665.72,100.0
665.78,102.0
665.85,95.0
665.91,91.0
665.97,104.0
666.04,82.0
666.1,76.0
666.16,107.0
666.22,88.0
666.29,81.0
666.35,80.0
666.41,89.0
666.48,103.0
666.54,94.0
666.6,90.0
666.67,80.0
666.73,91.0
666.79,110.0
666.85,108.0
666.92,122.0
666.98,129.0
667.04,119.0
667.11,112.0
667.17,134.0
667.23,152.0
667.3,143.0
667.36,158.0
667.42,163.0
667.48,155.0
667.55,156.0
667.61,156.0
667.67,143.0
667.74,151.0
667.8,151.0
667.86,167.0
667.93,158.0
667.99,188.0
668.05,174.0
668.11,154.0
668.18,160.0
668.24,148.0
668.3,167.0
668.37,157.0
668.43,149.0
668.49,168.0
668.56,154.0
668.62,174.0
668.68,162.0
668.74,177.0
668.81,187.0
668.87,160.0
668.93,169.0
669.0,155.0
669.06,170.0
669.12,186.0
669.19,177.0
669.25,169.0
669.31,174.0
669.37,169.0
669.44,183.0
669.5,173.0
669.56,159.0
669.63,176.0
669.69,176.0
669.75,175.0
669.82,190.0
669.88,181.0
669.94,181.0
670.0,179.0
670.07,207.0
670.13,203.0
670.19,188.0
670.26,199.0
670.32,198.0
670.38,189.0
670.45,199.0
670.51,193.0
670.57,208.0
670.63,207.0
670.7,200.0
670.76,204.0
670.82,211.0
670.89,198.0
670.95,184.0
671.01,201.0
671.08,178.0
671.14,169.0
671.2,189.0
671.26,176.0
671.33,184.0
671.39,189.0
671.45,205.0
671.52,187.0
671.58,193.0
671.64,188.0
671.71,171.0
671.77,160.0
671.83,165.0
671.89,170.0
671.96,183.0
672.02,181.0
672.08,188.0
672.15,201.0
672.21,170.0
672.27,181.0
672.34,175.0
672.4,171.0
672.46,159.0
672.52,149.0
672.59,149.0
672.65,152.0
672.71,174.0
672.78,166.0
672.84,161.0
672.9,163.0
672.97,170.0
673.03,172.0
673.09,152.0
673.15,166.0
673.22,161.0
673.28,155.0
673.34,158.0
673.41,154.0
673.47,180.0
673.53,174.0
673.6,173.0
673.66,160.0
673.72,170.0
673.78,173.0
673.85,171.0
673.91,175.0
673.97,181.0
674.04,187.0
674.1,190.0
674.16,185.0
674.23,185.0
674.29,188.0
674.35,189.0
674.41,189.0
674.48,178.0
674.54,193.0
674.6,209.0
674.67,180.0
674.73,187.0
674.79,201.0
674.86,199.0
674.92,191.0
674.98,196.0
675.04,184.0
675.11,187.0
675.17,195.0
675.23,187.0
675.3,194.0
675.36,174.0
675.42,177.0
675.49,184.0
675.55,191.0
675.61,185.0
675.67,184.0
675.74,159.0
675.8,173.0
675.86,166.0
675.93,164.0
675.99,203.0
676.05,162.0
676.12,155.0
676.18,157.0
676.24,148.0
676.3,174.0
676.37,174.0
676.43,147.0
676.49,140.0
676.56,154.0
676.62,154.0
676.68,155.0
676.75,126.0
676.81,140.0
676.87,134.0
676.93,114.0
677.0,109.0
677.06,110.0
677.12,100.0
677.19,107.0
677.25,100.0
677.31,92.0
677.38,85.0
677.44,91.0
677.5,90.0
677.56,91.0
677.63,75.0
677.69,63.0
677.75,69.0
677.82,59.0
677.88,54.0
677.94,71.0
678.01,48.0
678.07,51.0
678.13,56.0
678.19,64.0
678.26,71.0
678.32,70.0
678.38,56.0
678.45,39.0
678.51,38.0
678.57,41.0
678.64,51.0
678.7,54.0
678.76,48.0
678.82,43.0
678.89,45.0
678.95,41.0
679.01,53.0
679.08,41.0
679.14,23.0
679.2,32.0
679.27,23.0
679.33,-6.0
679.39,1.0
679.45,8.0
679.52,11.0
679.58,16.0
679.64,15.0
679.71,5.0
679.77,-8.0
679.83,0.0
679.9,-13.0
679.96,-23.0
680.02,-6.0
680.08,-29.0
680.15,-29.0
680.21,-32.0
680.27,-50.0
680.34,-38.0
680.4,-18.0
680.46,-33.0
680.53,-3.0
680.59,-9.0
680.65,6.0
680.71,5.0
680.78,1.0
680.84,10.0
680.9,-5.0
680.97,-4.0
681.03,18.0
681.09,2.0
681.16,-3.0
681.22,16.0
681.28,16.0
681.34,6.0
681.41,1.0
681.47,3.0
681.53,17.0
681.6,-3.0
681.66,-18.0
681.72,-18.0
681.79,-17.0
681.85,-14.0
681.91,13.0
681.97,7.0
682.04,3.0
682.1,14.0
682.16,7.0
682.23,8.0
682.29,13.0
682.35,16.0
682.42,9.0
682.48,23.0
682.54,19.0
682.6,20.0
682.67,27.0
682.73,14.0
682.79,12.0
682.86,17.0
682.92,3.0
682.98,37.0
683.05,27.0
683.11,16.0
683.17,11.0
683.23,-18.0
683.3,-16.0
683.36,7.0
683.42,-16.0
683.49,-1.0
683.55,6.0
683.61,-4.0
683.68,-10.0
683.74,5.0
683.8,19.0
683.86,-16.0
683.93,-3.0
683.99,-12.0
684.05,-7.0
684.12,5.0
684.18,-2.0
684.24,38.0
684.31,19.0
684.37,26.0
684.43,10.0
684.49,23.0
684.56,18.0
684.62,22.0
684.68,17.0
684.75,20.0
684.81,35.0
684.87,34.0
684.94,46.0
685.0,45.0
685.06,51.0
685.12,60.0
685.19,60.0
685.25,72.0
685.31,48.0
685.38,56.0
685.44,60.0
685.5,45.0
685.57,42.0
685.63,35.0
685.69,45.0
685.75,55.0
685.82,56.0
685.88,41.0
685.94,74.0
686.01,78.0
686.07,89.0
686.13,86.0
686.2,97.0
686.26,85.0
686.32,103.0
686.38,100.0
686.45,107.0
686.51,84.0
686.57,95.0
686.64,96.0
686.7,74.0
686.76,104.0
686.83,111.0
686.89,118.0
686.95,113.0
687.01,118.0
687.08,112.0
687.14,107.0
687.2,110.0
687.27,109.0
687.33,106.0
687.39,116.0
687.46,125.0
687.52,108.0
687.58,98.0
687.64,104.0
687.71,86.0
687.77,96.0
687.83,113.0
687.9,91.0
687.96,112.0
688.02,100.0
688.09,83.0
688.15,104.0
688.21,108.0
688.27,119.0
688.34,125.0
688.4,110.0
688.46,111.0
688.53,135.0
688.59,130.0
688.65,125.0
688.72,154.0
688.78,132.0
688.84,129.0
688.9,141.0
688.97,129.0
689.03,116.0
689.09,140.0
689.16,139.0
689.22,142.0
689.28,136.0
689.35,152.0
689.41,138.0
689.47,147.0
689.53,114.0
689.6,125.0
689.66,144.0
689.72,130.0
689.79,140.0
689.85,144.0
689.91,139.0
689.98,151.0
690.04,160.0
690.1,157.0
690.16,173.0
690.23,177.0
690.29,155.0
690.35,158.0
690.42,168.0
690.48,182.0
690.54,179.0
690.61,171.0
690.67,171.0
690.73,173.0
690.79,185.0
690.86,175.0
690.92,162.0
690.98,177.0
691.05,182.0
691.11,190.0
691.17,187.0
691.24,194.0
691.3,185.0
691.36,179.0
691.42,171.0
691.49,187.0
691.55,176.0
691.61,183.0
691.68,171.0
691.74,183.0
691.8,188.0
691.87,194.0
691.93,188.0
691.99,198.0
692.05,202.0
692.12,190.0
692.18,201.0
692.24,206.0
692.31,185.0
692.37,184.0
692.43,164.0
692.5,154.0
692.56,155.0
692.62,142.0
692.68,152.0
692.75,163.0
692.81,151.0
692.87,158.0
692.94,155.0
693.0,146.0
693.06,168.0
693.13,182.0
693.19,157.0
693.25,161.0
693.31,176.0
693.38,176.0
693.44,168.0
693.5,162.0
693.57,164.0
693.63,170.0
693.69,187.0
693.76,184.0
693.82,178.0
693.88,171.0
693.94,162.0
694.01,160.0
694.07,158.0
694.13,176.0
694.2,169.0
694.26,165.0
694.32,155.0
694.39,154.0
694.45,164.0
694.51,157.0
694.57,163.0
694.64,174.0
694.7,170.0
694.76,165.0
694.83,152.0
694.89,165.0
694.95,155.0
695.02,187.0
695.08,186.0
695.14,182.0
695.2,165.0
695.27,171.0
695.33,178.0
695.39,182.0
695.46,195.0
695.52,177.0
695.58,176.0
695.65,154.0
695.71,157.0
695.77,156.0
695.83,168.0
695.9,177.0
695.96,167.0
696.02,149.0
696.09,157.0
696.15,170.0
696.21,170.0
696.28,176.0
696.34,163.0
696.4,162.0
696.46,162.0
696.53,154.0
696.59,182.0
696.65,168.0
696.72,165.0
696.78,159.0
696.84,155.0
696.91,173.0
696.97,165.0
697.03,159.0
697.09,159.0
697.16,166.0
697.22,168.0
697.28,183.0
697.35,174.0
697.41,170.0
697.47,156.0
697.54,181.0
697.6,184.0
697.66,165.0
697.72,192.0
697.79,193.0
697.85,189.0
697.91,175.0
697.98,185.0
698.04,184.0
698.1,157.0
698.17,188.0
698.23,181.0
698.29,185.0
698.35,189.0
698.42,199.0
698.48,196.0
698.54,194.0
698.61,206.0
698.67,220.0
698.73,213.0
698.8,214.0
698.86,207.0
698.92,222.0
698.98,210.0
699.05,217.0
699.11,208.0
699.17,197.0
699.24,207.0
699.3,214.0
699.36,202.0
699.43,207.0
699.49,207.0
699.55,207.0
699.61,194.0
699.68,194.0
699.74,193.0
699.8,181.0
699.87,186.0
699.93,166.0
699.99,187.0
700.06,202.0
700.12,184.0
700.18,195.0
700.24,168.0
700.31,166.0
700.37,168.0
700.43,165.0
700.5,162.0
700.56,162.0
700.62,168.0
700.69,170.0
700.75,162.0
700.81,177.0
700.87,191.0
700.94,164.0
701.0,187.0
701.06,170.0
701.13,171.0
701.19,184.0
701.25,165.0
701.32,170.0
701.38,170.0
701.44,179.0
701.5,160.0
701.57,185.0
701.63,160.0
701.69,176.0
701.76,179.0
701.82,173.0
701.88,177.0
701.95,181.0
702.01,174.0
702.07,198.0
702.13,197.0
702.2,184.0
702.26,206.0
702.32,177.0
702.39,168.0
702.45,164.0
702.51,159.0
702.58,181.0
702.64,174.0
702.7,167.0
702.76,168.0
702.83,170.0
702.89,144.0
702.95,157.0
703.02,160.0
703.08,180.0
703.14,207.0
703.21,185.0
703.27,194.0
703.33,167.0
703.39,175.0
703.46,213.0
703.52,198.0
703.58,192.0
703.65,192.0
703.71,191.0
703.77,172.0
703.84,180.0
703.9,193.0
703.96,193.0
704.02,182.0
704.09,196.0
704.15,179.0
704.21,172.0
704.28,197.0
704.34,177.0
704.4,193.0
704.47,165.0
704.53,170.0
704.59,162.0
704.65,182.0
704.72,182.0
704.78,160.0
704.84,141.0
704.91,132.0
704.97,135.0
705.03,145.0
705.1,155.0
705.16,167.0
705.22,132.0
705.28,129.0
705.35,127.0
705.41,142.0
705.47,140.0
705.54,148.0
705.6,140.0
705.66,129.0
705.73,139.0
705.79,122.0
705.85,107.0
705.91,127.0
705.98,104.0
706.04,115.0
706.1,100.0
706.17,101.0
706.23,129.0
706.29,113.0
706.36,110.0
706.42,110.0
706.48,120.0
706.54,107.0
706.61,102.0
706.67,94.0
706.73,99.0
706.8,83.0
706.86,92.0
706.92,78.0
706.99,82.0
707.05,89.0
707.11,74.0
707.17,74.0
707.24,92.0
707.3,59.0
707.36,70.0
707.43,79.0
707.49,99.0
707.55,96.0
707.62,91.0
707.68,103.0
707.74,99.0
707.8,116.0
707.87,111.0
707.93,113.0
707.99,104.0
708.06,95.0
708.12,91.0
708.18,89.0
708.25,94.0
708.31,93.0
708.37,99.0
708.43,91.0
708.5,71.0
708.56,88.0
708.62,90.0
708.69,91.0
708.75,87.0
708.81,99.0
708.88,95.0
708.94,77.0
709.0,80.0
709.06,78.0
709.13,104.0
709.19,102.0
709.25,91.0
709.32,107.0
709.38,109.0
709.44,103.0
709.51,98.0
709.57,85.0
709.63,92.0
709.69,107.0
709.76,90.0
709.82,99.0
709.88,98.0
709.95,116.0
710.01,91.0
710.07,73.0
710.14,82.0
710.2,92.0
710.26,89.0
710.32,83.0
710.39,72.0
710.45,67.0
710.51,80.0
710.58,78.0
710.64,96.0
710.7,96.0
710.77,88.0
710.83,84.0
710.89,77.0
710.95,67.0
711.02,80.0
711.08,88.0
711.14,85.0
711.21,50.0
711.27,63.0
711.33,67.0
711.4,58.0
711.46,68.0
711.52,48.0
711.58,33.0
711.65,63.0
711.71,58.0
711.77,53.0
711.84,48.0
711.9,65.0
711.96,56.0
712.03,56.0
712.09,32.0
712.15,41.0
712.21,32.0
712.28,24.0
712.34,39.0
712.4,45.0
712.47,50.0
712.53,41.0
712.59,45.0
712.66,54.0
712.72,52.0
712.78,44.0
712.84,44.0
712.91,37.0
712.97,17.0
713.03,34.0
713.1,34.0
713.16,35.0
713.22,39.0
713.29,34.0
713.35,39.0
713.41,32.0
713.47,23.0
713.54,23.0
713.6,27.0
713.66,22.0
713.73,29.0
713.79,15.0
713.85,11.0
713.92,33.0
713.98,42.0
714.04,44.0
714.1,19.0
714.17,28.0
714.23,50.0
714.29,32.0
714.36,24.0
714.42,35.0
714.48,42.0
714.55,41.0
714.61,47.0
714.67,50.0
714.73,45.0
714.8,45.0
714.86,44.0
714.92,38.0
714.99,60.0
715.05,72.0
715.11,63.0
715.18,55.0
715.24,41.0
715.3,34.0
715.36,11.0
715.43,47.0
715.49,59.0
715.55,73.0
715.62,74.0
715.68,71.0
715.74,63.0
715.81,62.0
715.87,69.0
715.93,71.0
715.99,74.0
716.06,71.0
716.12,67.0
716.18,78.0
716.25,69.0
716.31,70.0
716.37,47.0
716.44,65.0
716.5,56.0
716.56,66.0
716.62,67.0
716.69,51.0
716.75,63.0
716.81,73.0
716.88,60.0
716.94,62.0
717.0,94.0
717.07,67.0
717.13,81.0
717.19,91.0
717.25,97.0
717.32,85.0
717.38,85.0
717.44,86.0
717.51,76.0
717.57,103.0
717.63,116.0
717.7,100.0
717.76,110.0
717.82,112.0
717.88,102.0
717.95,122.0
718.01,126.0
718.07,111.0
718.14,118.0
718.2,119.0
718.26,114.0
718.33,146.0
718.39,165.0
718.45,155.0
718.51,153.0
718.58,143.0
718.64,136.0
718.7,120.0
718.77,147.0
718.83,135.0
718.89,141.0
718.96,158.0
719.02,160.0
719.08,178.0
719.14,167.0
719.21,158.0
719.27,155.0
719.33,137.0
719.4,145.0
719.46,139.0
719.52,136.0
719.59,153.0
719.65,154.0
719.71,157.0
719.77,150.0
719.84,172.0
719.9,162.0
719.96,148.0
720.03,155.0
720.09,149.0
720.15,156.0
720.22,166.0
720.28,166.0
720.34,184.0
720.4,181.0
720.47,176.0
720.53,159.0
720.59,171.0
720.66,179.0
720.72,173.0
720.78,171.0
720.85,181.0
720.91,184.0
720.97,176.0
721.03,173.0
721.1,175.0
721.16,177.0
721.22,182.0
721.29,179.0
721.35,185.0
721.41,174.0
721.48,164.0
721.54,165.0
721.6,158.0
721.66,182.0
721.73,174.0
721.79,179.0
721.85,181.0
721.92,167.0
721.98,176.0
722.04,177.0
722.11,184.0
722.17,181.0
722.23,168.0
722.29,179.0
722.36,190.0
722.42,176.0
722.48,176.0
722.55,176.0
722.61,182.0
722.67,180.0
722.74,180.0
722.8,191.0
722.86,195.0
722.92,199.0
722.99,199.0
723.05,210.0
723.11,206.0
723.18,202.0
723.24,218.0
723.3,229.0
723.37,216.0
723.43,207.0
723.49,206.0
723.55,219.0
723.62,213.0
723.68,210.0
723.74,198.0
723.81,192.0
723.87,212.0
723.93,216.0
724.0,198.0
724.06,187.0
724.12,194.0
724.18,206.0
724.25,194.0
724.31,193.0
724.37,185.0
724.44,200.0
724.5,208.0
724.56,201.0
724.63,197.0
724.69,206.0
724.75,187.0
724.81,166.0
724.88,187.0
724.94,201.0
725.0,188.0
725.07,187.0
725.13,200.0
725.19,190.0
725.26,183.0
725.32,178.0
725.38,172.0
725.44,177.0
725.51,181.0
725.57,174.0
725.63,177.0
725.7,196.0
725.76,175.0
725.82,199.0
725.89,206.0
725.95,199.0
726.01,206.0
726.07,190.0
726.14,190.0
726.2,183.0
726.26,185.0
726.33,181.0
726.39,155.0
726.45,173.0
726.52,172.0
726.58,171.0
726.64,173.0
726.7,173.0
726.77,182.0
726.83,159.0
726.89,159.0
726.96,173.0
727.02,169.0
727.08,152.0
727.15,154.0
727.21,168.0
727.27,163.0
727.33,138.0
727.4,132.0
727.46,133.0
727.52,140.0
727.59,155.0
727.65,149.0
727.71,147.0
727.78,152.0
727.84,152.0
727.9,155.0
727.96,147.0
728.03,143.0
728.09,129.0
728.15,132.0
728.22,122.0
728.28,133.0
728.34,132.0
728.41,149.0
728.47,157.0
728.53,142.0
728.59,133.0
728.66,124.0
728.72,116.0
728.78,117.0
728.85,117.0
728.91,117.0
728.97,86.0
729.04,95.0
729.1,94.0
729.16,96.0
729.22,102.0
729.29,82.0
729.35,83.0
729.41,80.0
729.48,57.0
729.54,65.0
729.6,83.0
729.67,85.0
729.73,78.0
729.79,70.0
729.85,72.0
729.92,92.0
729.98,73.0
730.04,89.0
730.11,80.0
730.17,78.0
730.23,69.0
730.3,53.0
730.36,68.0
730.42,52.0
730.48,67.0
730.55,61.0
730.61,56.0
730.67,55.0
730.74,55.0
730.8,42.0
730.86,33.0
730.93,34.0
730.99,31.0
731.05,35.0
731.11,48.0
731.18,29.0
731.24,27.0
731.3,52.0
731.37,43.0
731.43,47.0
731.49,55.0
731.56,48.0
731.62,48.0
731.68,50.0
731.74,41.0
731.81,41.0
731.87,32.0
731.93,23.0
732.0,27.0
732.06,27.0
732.12,30.0
732.19,41.0
732.25,44.0
732.31,47.0
732.37,44.0
732.44,54.0
732.5,54.0
732.56,53.0
732.63,60.0
732.69,38.0
732.75,38.0
732.82,41.0
732.88,30.0
732.94,30.0
733.0,39.0
733.07,46.0
733.13,30.0
733.19,12.0
733.26,16.0
733.32,15.0
733.38,16.0
733.45,20.0
733.51,23.0
733.57,30.0
733.63,30.0
733.7,28.0
733.76,27.0
733.82,38.0
733.89,33.0
733.95,38.0
734.01,43.0
734.08,31.0
734.14,42.0
734.2,48.0
734.26,38.0
734.33,39.0
734.39,48.0
734.45,44.0
734.52,38.0
734.58,47.0
734.64,41.0
734.71,61.0
734.77,37.0
734.83,34.0
734.89,58.0
734.96,47.0
735.02,33.0
735.08,34.0
735.15,56.0
735.21,50.0
735.27,47.0
735.34,58.0
735.4,58.0
735.46,57.0
735.52,53.0
735.59,58.0
735.65,67.0
735.71,63.0
735.78,57.0
735.84,52.0
735.9,47.0
735.97,55.0
736.03,75.0
736.09,71.0
736.15,68.0
736.22,73.0
736.28,95.0
736.34,92.0
736.41,79.0
736.47,81.0
736.53,82.0
736.6,105.0
736.66,115.0
736.72,111.0
736.78,114.0
736.85,111.0
736.91,91.0
736.97,106.0
737.04,126.0
737.1,114.0
737.16,116.0
737.23,119.0
737.29,118.0
737.35,102.0
737.41,114.0
737.48,124.0
737.54,106.0
737.6,111.0
737.67,106.0
737.73,96.0
737.79,79.0
737.86,92.0
737.92,82.0
737.98,95.0
738.04,73.0
738.11,71.0
738.17,77.0
738.23,67.0
738.3,67.0
738.36,73.0
738.42,92.0
738.49,100.0
738.55,89.0
738.61,87.0
738.67,77.0
738.74,72.0
738.8,100.0
738.86,92.0
738.93,103.0
738.99,100.0
739.05,100.0
739.12,92.0
739.18,101.0
739.24,99.0
739.3,94.0
739.37,108.0
739.43,95.0
739.49,107.0
739.56,91.0
739.62,103.0
739.68,104.0
739.75,77.0
739.81,83.0
739.87,97.0
739.93,90.0
740.0,85.0
740.06,82.0
740.12,110.0
740.19,113.0
740.25,116.0
740.31,98.0
740.38,105.0
740.44,121.0
740.5,116.0
740.56,114.0
740.63,130.0
740.69,117.0
740.75,118.0
740.82,115.0
740.88,125.0
740.94,126.0
741.01,132.0
741.07,137.0
741.13,122.0
741.19,147.0
741.26,150.0
741.32,138.0
741.38,134.0
741.45,128.0
741.51,129.0
741.57,129.0
741.64,94.0
741.7,92.0
741.76,114.0
741.82,115.0
741.89,140.0
741.95,147.0
742.01,151.0
742.08,147.0
742.14,134.0
742.2,140.0
742.27,157.0
742.33,148.0
742.39,130.0
742.45,141.0
742.52,135.0
742.58,151.0
742.64,156.0
742.71,142.0
742.77,149.0
742.83,154.0
742.9,165.0
742.96,173.0
743.02,177.0
743.08,169.0
743.15,159.0
743.21,170.0
743.27,192.0
743.34,165.0
743.4,181.0
743.46,165.0
743.53,169.0
743.59,171.0
743.65,165.0
743.71,161.0
743.78,171.0
743.84,161.0
743.9,155.0
743.97,179.0
744.03,162.0
744.09,144.0
744.16,140.0
744.22,146.0
744.28,151.0
744.34,134.0
744.41,127.0
744.47,133.0
744.53,129.0
744.6,133.0
744.66,132.0
744.72,130.0
744.79,127.0
744.85,133.0
744.91,136.0
744.97,146.0
745.04,149.0
745.1,151.0
745.16,162.0
745.23,133.0
745.29,121.0
745.35,138.0
745.42,139.0
745.48,148.0
745.54,154.0
745.6,140.0
745.67,131.0
745.73,146.0
745.79,135.0
745.86,136.0
745.92,129.0
745.98,129.0
746.05,118.0
746.11,117.0
746.17,124.0
746.23,100.0
746.3,95.0
746.36,122.0
746.42,107.0
746.49,92.0
746.55,85.0
746.61,90.0
746.68,105.0
746.74,108.0
746.8,96.0
746.86,99.0
746.93,89.0
746.99,110.0
747.05,129.0
747.12,112.0
747.18,102.0
747.24,89.0
747.31,103.0
747.37,99.0
747.43,114.0
747.49,114.0
747.56,122.0
747.62,125.0
747.68,121.0
747.75,116.0
747.81,122.0
747.87,107.0
747.94,129.0
748.0,107.0
748.06,135.0
748.12,132.0
748.19,111.0
748.25,108.0
748.31,100.0
748.38,133.0
748.44,132.0
748.5,146.0
748.57,140.0
748.63,140.0
748.69,133.0
748.75,149.0
748.82,140.0
748.88,135.0
748.94,144.0
749.01,154.0
749.07,134.0
749.13,173.0
749.2,181.0
749.26,161.0
749.32,175.0
749.38,170.0
749.45,166.0
749.51,177.0
749.57,170.0
749.64,164.0
749.7,167.0
749.76,167.0
749.83,183.0
749.89,166.0
749.95,182.0
750.01,185.0
750.08,179.0
750.14,194.0
750.2,195.0
750.27,177.0
750.33,185.0
750.39,177.0
750.46,191.0
750.52,195.0
750.58,177.0
750.64,200.0
750.71,191.0
750.77,171.0
750.83,183.0
750.9,175.0
750.96,174.0
751.02,162.0
751.09,176.0
751.15,188.0
751.21,195.0
751.27,169.0
751.34,181.0
751.4,166.0
751.46,158.0
751.53,165.0
751.59,188.0
751.65,204.0
751.72,201.0
751.78,189.0
751.84,192.0
751.9,205.0
751.97,204.0
752.03,204.0
752.09,210.0
752.16,195.0
752.22,186.0
752.28,207.0
752.35,209.0
752.41,182.0
752.47,186.0
752.53,168.0
752.6,177.0
752.66,195.0
752.72,199.0
752.79,191.0
752.85,183.0
752.91,168.0
752.98,173.0
753.04,194.0
753.1,192.0
753.16,201.0
753.23,195.0
753.29,196.0
753.35,206.0
753.42,210.0
753.48,202.0
753.54,206.0
753.61,217.0
753.67,204.0
753.73,199.0
753.79,202.0
753.86,185.0
753.92,201.0
753.98,205.0
754.05,183.0
754.11,181.0
754.17,191.0
754.24,185.0
754.3,198.0
754.36,185.0
754.42,182.0
754.49,193.0
754.55,169.0
754.61,179.0
754.68,196.0
754.74,183.0
754.8,163.0
754.87,176.0
754.93,169.0
754.99,178.0
755.05,162.0
755.12,161.0
755.18,152.0
755.24,151.0
755.31,148.0
755.37,166.0
755.43,161.0
755.5,160.0
755.56,157.0
755.62,159.0
755.68,159.0
755.75,152.0
755.81,138.0
755.87,140.0
755.94,155.0
756.0,131.0
756.06,140.0
756.13,143.0
756.19,145.0
756.25,159.0
756.31,162.0
756.38,145.0
756.44,166.0
756.5,163.0
756.57,164.0
756.63,162.0
756.69,141.0
756.76,171.0
756.82,154.0
756.88,164.0
756.94,159.0
757.01,170.0
757.07,159.0
757.13,151.0
757.2,160.0
757.26,145.0
757.32,162.0
757.39,174.0
757.45,166.0
757.51,179.0
757.57,170.0
757.64,165.0
757.7,170.0
757.76,166.0
757.83,173.0
757.89,172.0
757.95,180.0
758.02,185.0
758.08,155.0
758.14,173.0
758.2,170.0
758.27,161.0
758.33,159.0
758.39,160.0
758.46,155.0
758.52,159.0
758.58,168.0
758.65,168.0
758.71,158.0
758.77,133.0
758.83,149.0
758.9,138.0
758.96,136.0
759.02,129.0
759.09,130.0
759.15,170.0
759.21,152.0
759.28,133.0
759.34,122.0
759.4,120.0
759.46,126.0
759.53,142.0
759.59,132.0
759.65,140.0
759.72,143.0
759.78,133.0
759.84,138.0
759.91,131.0
759.97,130.0
760.03,142.0
760.09,144.0
760.16,151.0
760.22,121.0
760.28,126.0
760.35,144.0
760.41,111.0
760.47,127.0
760.54,141.0
760.6,136.0
760.66,135.0
760.72,125.0
760.79,138.0
760.85,130.0
760.91,120.0
760.98,110.0
761.04,121.0
761.1,102.0
761.17,108.0
761.23,104.0
761.29,105.0
761.35,115.0
761.42,84.0
761.48,98.0
761.54,109.0
761.61,102.0
761.67,82.0
761.73,100.0
761.8,88.0
761.86,94.0
761.92,97.0
761.98,94.0
762.05,89.0
762.11,101.0
762.17,66.0
762.24,75.0
762.3,96.0
762.36,85.0
762.43,77.0
762.49,83.0
762.55,84.0
762.61,89.0
762.68,107.0
762.74,80.0
762.8,82.0
762.87,63.0
762.93,56.0
762.99,58.0
763.06,66.0
763.12,74.0
763.18,74.0
763.24,80.0
763.31,58.0
763.37,53.0
763.43,61.0
763.5,66.0
763.56,75.0
763.62,102.0
763.69,80.0
763.75,75.0
763.81,93.0
763.87,94.0
763.94,90.0
764.0,78.0
764.06,99.0
764.13,62.0
764.19,70.0
764.25,80.0
764.32,75.0
764.38,61.0
764.44,36.0
764.5,36.0
764.57,53.0
764.63,41.0
764.69,39.0
764.76,50.0
764.82,41.0
764.88,69.0
764.95,65.0
765.01,68.0
765.07,55.0
765.13,63.0
765.2,69.0
765.26,66.0
765.32,73.0
765.39,62.0
765.45,63.0
765.51,79.0
765.58,67.0
765.64,72.0
765.7,69.0
765.76,67.0
765.83,57.0
765.89,64.0
765.95,60.0
766.02,54.0
766.08,59.0
766.14,49.0
766.21,65.0
766.27,63.0
766.33,70.0
766.39,80.0
766.46,58.0
766.52,61.0
766.58,56.0
766.65,81.0
766.71,60.0
766.77,70.0
766.84,56.0
766.9,60.0
766.96,61.0
767.02,45.0
767.09,52.0
767.15,46.0
767.21,59.0
767.28,42.0
767.34,43.0
767.4,54.0
767.47,62.0
767.53,67.0
767.59,72.0
767.65,77.0
767.72,74.0
767.78,72.0
767.84,82.0
767.91,95.0
767.97,99.0
768.03,91.0
768.1,97.0
768.16,107.0
768.22,100.0
768.28,100.0
768.35,102.0
768.41,101.0
768.47,110.0
768.54,105.0
768.6,107.0
768.66,107.0
768.73,101.0
768.79,122.0
768.85,114.0
768.91,108.0
768.98,109.0
769.04,103.0
769.1,143.0
769.17,112.0
769.23,92.0
769.29,98.0
769.36,99.0
769.42,120.0
769.48,121.0
769.54,105.0
769.61,111.0
769.67,101.0
769.73,127.0
769.8,111.0
769.86,111.0
769.92,126.0
769.99,129.0
770.05,143.0
770.11,129.0
770.17,145.0
770.24,149.0
770.3,121.0
770.36,142.0
770.43,141.0
770.49,132.0
770.55,154.0
770.62,146.0
770.68,156.0
770.74,141.0
770.8,149.0
770.87,143.0
770.93,144.0
770.99,136.0
771.06,130.0
771.12,122.0
771.18,141.0
771.25,139.0
771.31,140.0
771.37,127.0
771.43,133.0
771.5,125.0
771.56,132.0
771.62,138.0
771.69,129.0
771.75,119.0
771.81,121.0
771.88,137.0
771.94,144.0
772.0,127.0
772.06,135.0
772.13,129.0
772.19,139.0
772.25,139.0
772.32,126.0
772.38,142.0
772.44,140.0
772.51,132.0
772.57,131.0
772.63,137.0
772.69,138.0
772.76,137.0
772.82,130.0
772.88,131.0
772.95,126.0
773.01,140.0
773.07,152.0
773.14,163.0
773.2,151.0
773.26,137.0
773.32,156.0
773.39,151.0
773.45,151.0
773.51,143.0
773.58,150.0
773.64,152.0
773.7,164.0
773.77,151.0
773.83,154.0
773.89,144.0
773.95,157.0
774.02,162.0
774.08,158.0
774.14,139.0
774.21,150.0
774.27,154.0
774.33,169.0
774.4,165.0
774.46,170.0
774.52,168.0
774.58,157.0
774.65,171.0
774.71,169.0
774.77,181.0
774.84,191.0
774.9,157.0
774.96,167.0
775.03,172.0
775.09,174.0
775.15,186.0
775.21,162.0
775.28,156.0
775.34,150.0
775.4,171.0
775.47,177.0
775.53,160.0
775.59,171.0
775.66,201.0
775.72,198.0
775.78,191.0
775.84,199.0
775.91,185.0
775.97,190.0
776.03,165.0
776.1,173.0
776.16,187.0
776.22,206.0
776.29,200.0
776.35,178.0
776.41,181.0
776.47,177.0
776.54,199.0
776.6,191.0
776.66,201.0
776.73,183.0
776.79,190.0
776.85,186.0
776.92,173.0
776.98,167.0
777.04,162.0
777.1,177.0
777.17,176.0
777.23,173.0
777.29,175.0
777.36,158.0
777.42,192.0
777.48,200.0
777.55,187.0
777.61,172.0
777.67,187.0
777.73,184.0
777.8,173.0
777.86,160.0
777.92,179.0
777.99,188.0
778.05,198.0
778.11,196.0
778.18,184.0
778.24,194.0
778.3,172.0
778.36,169.0
778.43,176.0
778.49,165.0
778.55,175.0
778.62,167.0
778.68,179.0
778.74,162.0
778.81,165.0
778.87,177.0
778.93,151.0
778.99,166.0
779.06,176.0
779.12,159.0
779.18,171.0
779.25,168.0
779.31,183.0
779.37,162.0
779.44,181.0
779.5,198.0
779.56,158.0
779.62,162.0
779.69,168.0
779.75,169.0
779.81,145.0
779.88,157.0
779.94,143.0
780.0,146.0
780.07,144.0
780.13,143.0
780.19,129.0
780.25,137.0
780.32,134.0
780.38,113.0
780.44,108.0
780.51,106.0
780.57,107.0
780.63,105.0
780.7,114.0
780.76,113.0
780.82,118.0
780.88,121.0
780.95,85.0
781.01,89.0
781.07,111.0
781.14,113.0
781.2,115.0
781.26,111.0
781.33,104.0
781.39,111.0
781.45,104.0
781.51,127.0
781.58,124.0
781.64,123.0
781.7,134.0
781.77,133.0
781.83,111.0
781.89,115.0
781.96,107.0
782.02,115.0
782.08,126.0
782.14,141.0
782.21,127.0
782.27,122.0
782.33,131.0
782.4,120.0
782.46,123.0
782.52,129.0
782.59,124.0
782.65,108.0
782.71,115.0
782.77,121.0
782.84,102.0
782.9,108.0
782.96,100.0
783.03,74.0
783.09,78.0
783.15,72.0
783.22,76.0
783.28,94.0
783.34,111.0
783.4,83.0
783.47,85.0
783.53,110.0
783.59,105.0
783.66,102.0
783.72,107.0
783.78,93.0
783.85,93.0
783.91,90.0
783.97,100.0
784.03,104.0
784.1,83.0
784.16,88.0
784.22,83.0
784.29,106.0
784.35,95.0
784.41,85.0
784.48,86.0
784.54,67.0
784.6,81.0
784.66,103.0
784.73,76.0
784.79,78.0
784.85,91.0
784.92,96.0
784.98,104.0
785.04,110.0
785.11,90.0
785.17,102.0
785.23,99.0
785.29,100.0
785.36,93.0
785.42,106.0
785.48,120.0
785.55,125.0
785.61,124.0
785.67,121.0
785.74,105.0
785.8,111.0
785.86,112.0
785.92,128.0
785.99,128.0
786.05,119.0
786.11,124.0
786.18,119.0
786.24,110.0
786.3,101.0
786.37,122.0
786.43,106.0
786.49,97.0
786.55,107.0
786.62,97.0
786.68,95.0
786.74,108.0
786.81,101.0
786.87,108.0
786.93,118.0
787.0,113.0
787.06,110.0
787.12,105.0
787.18,130.0
787.25,120.0
787.31,122.0
787.37,132.0
787.44,119.0
787.5,99.0
787.56,115.0
787.63,100.0
787.69,93.0
787.75,103.0
787.81,105.0
787.88,99.0
787.94,99.0
788.0,96.0
788.07,102.0
788.13,96.0
788.19,85.0
788.26,97.0
788.32,97.0
788.38,96.0
788.44,98.0
788.51,100.0
788.57,81.0
788.63,98.0
788.7,108.0
788.76,114.0
788.82,105.0
788.89,115.0
788.95,101.0
789.01,89.0
789.07,107.0
789.14,112.0
789.2,111.0
789.26,108.0
789.33,110.0
789.39,112.0
789.45,111.0
789.52,130.0
789.58,128.0
789.64,122.0
789.7,147.0
789.77,145.0
789.83,147.0
789.89,128.0
789.96,111.0
790.02,116.0
790.08,113.0
790.15,113.0
790.21,121.0
790.27,122.0
790.33,129.0
790.4,129.0
790.46,132.0
790.52,114.0
790.59,111.0
790.65,93.0
790.71,130.0
790.78,128.0
790.84,117.0
790.9,121.0
790.96,143.0
791.03,154.0
791.09,151.0
791.15,149.0
791.22,134.0
791.28,152.0
791.34,149.0
791.41,157.0
791.47,142.0
791.53,149.0
791.59,145.0
791.66,131.0
791.72,127.0
791.78,124.0
791.85,136.0
791.91,135.0
791.97,133.0
792.04,128.0
792.1,146.0
792.16,133.0
792.22,129.0
792.29,130.0
792.35,129.0
792.41,131.0
792.48,126.0
792.54,147.0
792.6,143.0
792.67,146.0
792.73,138.0
792.79,134.0
792.85,131.0
792.92,133.0
792.98,128.0
793.04,141.0
793.11,148.0
793.17,152.0
793.23,147.0
793.3,149.0
793.36,171.0
793.42,162.0
793.48,152.0
793.55,152.0
793.61,141.0
793.67,129.0
793.74,141.0
793.8,144.0
793.86,145.0
793.93,144.0
793.99,144.0
794.05,151.0
794.11,136.0
794.18,127.0
794.24,139.0
794.3,160.0
794.37,143.0
794.43,147.0
794.49,148.0
794.56,163.0
794.62,153.0
794.68,136.0
794.74,148.0
794.81,150.0
794.87,166.0
794.93,142.0
795.0,140.0
795.06,147.0
795.12,159.0
795.19,163.0
795.25,132.0
795.31,140.0
795.37,143.0
795.44,132.0
795.5,129.0
795.56,141.0
795.63,140.0
795.69,145.0
795.75,131.0
795.82,148.0
795.88,143.0
795.94,107.0
796.0,96.0
796.07,113.0
796.13,126.0
796.19,92.0
796.26,78.0
796.32,89.0
796.38,91.0
796.45,115.0
796.51,115.0
796.57,90.0
796.63,107.0
796.7,132.0
796.76,107.0
796.82,117.0
796.89,123.0
796.95,127.0
797.01,141.0
797.08,133.0
797.14,103.0
797.2,97.0
797.26,99.0
797.33,82.0
797.39,90.0
797.45,91.0
797.52,93.0
797.58,86.0
797.64,76.0
797.71,99.0
797.77,90.0
797.83,100.0
797.89,80.0
797.96,74.0
798.02,86.0
798.08,92.0
798.15,67.0
798.21,96.0
798.27,91.0
798.34,73.0
798.4,91.0
798.46,96.0
798.52,76.0
798.59,90.0
798.65,67.0
798.71,85.0
798.78,86.0
798.84,94.0
798.9,99.0
798.97,78.0
799.03,77.0
799.09,67.0
799.15,82.0
799.22,66.0
799.28,84.0
799.34,93.0
799.41,110.0
799.47,80.0
799.53,92.0
799.6,115.0
799.66,91.0
799.72,101.0
799.78,91.0
799.85,105.0
799.91,100.0
799.97,94.0
800.04,99.0
800.1,92.0
800.16,114.0
800.23,111.0
800.29,116.0
800.35,102.0
800.41,103.0
800.48,107.0
800.54,95.0
800.6,81.0
800.67,79.0
800.73,82.0
800.79,93.0
800.86,96.0
800.92,100.0
800.98,107.0
801.04,127.0
801.11,108.0
801.17,109.0
801.23,89.0
801.3,100.0
801.36,116.0
801.42,108.0
801.49,124.0
801.55,133.0
801.61,125.0
801.67,111.0
801.74,129.0
801.8,125.0
801.86,127.0
801.93,119.0
801.99,117.0
802.05,122.0
802.12,121.0
802.18,118.0
802.24,110.0
802.3,140.0
802.37,151.0
802.43,141.0
802.49,141.0
802.56,160.0
802.62,152.0
802.68,146.0
802.75,141.0
802.81,162.0
802.87,155.0
802.93,165.0
803.0,167.0
803.06,176.0
803.12,155.0
803.19,152.0
803.25,172.0
803.31,182.0
803.38,195.0
803.44,176.0
803.5,181.0
803.56,196.0
803.63,174.0
803.69,168.0
803.75,173.0
803.82,191.0
803.88,160.0
803.94,195.0
804.01,190.0
804.07,189.0
804.13,180.0
804.19,174.0
804.26,176.0
804.32,185.0
804.38,170.0
804.45,165.0
804.51,185.0
804.57,185.0
804.64,172.0
804.7,178.0
804.76,177.0
804.82,174.0
804.89,184.0
804.95,169.0
805.01,177.0
805.08,171.0
805.14,171.0
805.2,184.0
805.27,179.0
805.33,174.0
805.39,177.0
805.45,187.0
805.52,174.0
805.58,154.0
805.64,168.0
805.71,201.0
805.77,197.0
805.83,182.0
805.9,183.0
805.96,192.0
806.02,193.0
806.08,188.0
806.15,183.0
806.21,166.0
806.27,165.0
806.34,176.0
806.4,163.0
806.46,171.0
806.53,169.0
806.59,181.0
806.65,184.0
806.71,161.0
806.78,184.0
806.84,176.0
806.9,167.0
806.97,175.0
807.03,188.0
807.09,197.0
807.16,191.0
807.22,171.0
807.28,168.0
807.34,170.0
807.41,179.0
807.47,169.0
807.53,186.0
807.6,190.0
807.66,183.0
807.72,174.0
807.79,173.0
807.85,172.0
807.91,188.0
807.97,182.0
808.04,170.0
808.1,174.0
808.16,160.0
808.23,176.0
808.29,153.0
808.35,170.0
808.42,179.0
808.48,168.0
808.54,170.0
808.6,160.0
808.67,165.0
808.73,159.0
808.79,162.0
808.86,169.0
808.92,185.0
808.98,194.0
809.05,180.0
809.11,177.0
809.17,197.0
809.23,192.0
809.3,187.0
809.36,192.0
809.42,174.0
809.49,175.0
809.55,185.0
809.61,169.0
809.68,172.0
809.74,167.0
809.8,154.0
809.86,167.0
809.93,163.0
809.99,169.0
810.05,151.0
810.12,156.0
810.18,141.0
810.24,152.0
810.31,171.0
810.37,148.0
810.43,151.0
810.49,150.0
810.56,170.0
810.62,177.0
810.68,179.0
810.75,152.0
810.81,151.0
810.87,166.0
810.94,172.0
811.0,171.0
811.06,140.0
811.12,143.0
811.19,143.0
811.25,137.0
811.31,135.0
811.38,134.0
811.44,142.0
811.5,122.0
811.57,135.0
811.63,166.0
811.69,140.0
811.75,147.0
811.82,135.0
811.88,153.0
811.94,136.0
812.01,129.0
812.07,137.0
812.13,115.0
812.2,107.0
812.26,108.0
812.32,117.0
812.38,122.0
812.45,114.0
812.51,118.0
812.57,92.0
812.64,99.0
812.7,87.0
812.76,88.0
812.83,98.0
812.89,86.0
812.95,89.0
813.01,69.0
813.08,89.0
813.14,100.0
813.2,100.0
813.27,109.0
813.33,103.0
813.39,105.0
813.46,97.0
813.52,97.0
813.58,75.0
813.64,74.0
813.71,78.0
813.77,75.0
813.83,66.0
813.9,74.0
813.96,66.0
814.02,56.0
814.09,90.0
814.15,95.0
814.21,77.0
814.27,81.0
814.34,76.0
814.4,56.0
814.46,45.0
814.53,46.0
814.59,62.0
814.65,67.0
814.72,65.0
814.78,72.0
814.84,60.0
814.9,63.0
814.97,51.0
815.03,41.0
815.09,53.0
815.16,41.0
815.22,32.0
815.28,40.0
815.35,33.0
815.41,38.0
815.47,64.0
815.53,44.0
815.6,71.0
815.66,68.0
815.72,72.0
815.79,62.0
815.85,59.0
815.91,40.0
815.98,36.0
816.04,38.0
816.1,61.0
816.16,53.0
816.23,39.0
816.29,64.0
816.35,48.0
816.42,72.0
816.48,83.0
816.54,71.0
816.61,74.0
816.67,66.0
816.73,74.0
816.79,56.0
816.86,48.0
816.92,50.0
816.98,63.0
817.05,77.0
817.11,58.0
817.17,44.0
817.24,67.0
817.3,54.0
817.36,58.0
817.42,42.0
817.49,29.0
817.55,41.0
817.61,36.0
817.68,44.0
817.74,50.0
817.8,65.0
817.87,80.0
817.93,78.0
817.99,82.0
818.05,66.0
818.12,70.0
818.18,75.0
818.24,75.0
818.31,78.0
818.37,71.0
818.43,78.0
818.5,86.0
818.56,77.0
818.62,69.0
818.68,73.0
818.75,63.0
818.81,74.0
818.87,62.0
818.94,66.0
819.0,69.0
819.06,81.0
819.13,100.0
819.19,100.0
819.25,80.0
819.31,91.0
819.38,88.0
819.44,86.0
819.5,104.0
819.57,114.0
819.63,107.0
819.69,113.0
819.76,135.0
819.82,131.0
819.88,129.0
819.94,141.0
820.01,132.0
820.07,131.0
820.13,120.0
820.2,125.0
820.26,129.0
820.32,147.0
820.39,123.0
820.45,128.0
820.51,154.0
820.57,149.0
820.64,134.0
820.7,133.0
820.76,119.0
820.83,137.0
820.89,149.0
820.95,138.0
821.02,149.0
821.08,133.0
821.14,153.0
821.2,151.0
821.27,138.0
821.33,141.0
821.39,139.0
821.46,127.0
821.52,138.0
821.58,130.0
821.65,115.0
821.71,135.0
821.77,136.0
821.83,159.0
821.9,146.0
821.96,149.0
822.02,129.0
822.09,139.0
822.15,129.0
822.21,111.0
822.28,129.0
822.34,140.0
822.4,126.0
822.46,118.0
822.53,118.0
822.59,138.0
822.65,113.0
822.72,119.0
822.78,133.0
822.84,137.0
822.91,137.0
822.97,145.0
823.03,127.0
823.09,137.0
823.16,151.0
823.22,149.0
823.28,164.0
823.35,133.0
823.41,140.0
823.47,148.0
823.54,150.0
823.6,135.0
823.66,121.0
823.72,149.0
823.79,130.0
823.85,129.0
823.91,135.0
823.98,131.0
824.04,132.0
824.1,152.0
824.17,160.0
824.23,171.0
824.29,168.0
824.35,157.0
824.42,151.0
824.48,152.0
824.54,152.0
824.61,168.0
824.67,193.0
824.73,177.0
824.8,167.0
824.86,154.0
824.92,152.0
824.98,150.0
825.05,154.0
825.11,143.0
825.17,136.0
825.24,147.0
825.3,153.0
825.36,151.0
825.43,146.0
825.49,155.0
825.55,152.0
825.61,170.0
825.68,152.0
825.74,151.0
825.8,188.0
825.87,170.0
825.93,170.0
825.99,170.0
826.06,168.0
826.12,164.0
826.18,172.0
826.24,213.0
826.31,190.0
826.37,170.0
826.43,195.0
826.5,181.0
826.56,190.0
826.62,190.0
826.69,177.0
826.75,185.0
826.81,174.0
826.87,170.0
826.94,179.0
827.0,162.0
827.06,172.0
827.13,196.0
827.19,185.0
827.25,195.0
827.32,178.0
827.38,186.0
827.44,164.0
827.5,175.0
827.57,184.0
827.63,179.0
827.69,183.0
827.76,186.0
827.82,181.0
827.88,149.0
827.95,155.0
828.01,162.0
828.07,154.0
828.13,166.0
828.2,167.0
828.26,166.0
828.32,191.0
828.39,170.0
828.45,181.0
828.51,186.0
828.58,180.0
828.64,134.0
828.7,174.0
828.76,166.0
828.83,154.0
828.89,161.0
828.95,144.0
829.02,166.0
829.08,173.0
829.14,162.0
829.21,151.0
829.27,167.0
829.33,157.0
829.39,168.0
829.46,184.0
829.52,184.0
829.58,170.0
829.65,169.0
829.71,187.0
829.77,179.0
829.84,174.0
829.9,157.0
829.96,178.0
830.02,179.0
830.09,169.0
830.15,157.0
830.21,156.0
830.28,159.0
830.34,145.0
830.4,140.0
830.47,142.0
830.53,153.0
830.59,133.0
830.65,130.0
830.72,146.0
830.78,151.0
830.84,152.0
830.91,139.0
830.97,140.0
831.03,132.0
831.1,133.0
831.16,127.0
831.22,99.0
831.28,97.0
831.35,108.0
831.41,118.0
831.47,93.0
831.54,91.0
831.6,90.0
831.66,95.0
831.73,109.0
831.79,74.0
831.85,93.0
831.91,89.0
831.98,79.0
832.04,93.0
832.1,79.0
832.17,85.0
832.23,69.0
832.29,80.0
832.36,75.0
832.42,79.0
832.48,85.0
832.54,77.0
832.61,95.0
832.67,86.0
832.73,88.0
832.8,103.0
832.86,108.0
832.92,103.0
832.99,85.0
833.05,89.0
833.11,83.0
833.17,99.0
833.24,101.0
833.3,86.0
833.36,98.0
833.43,88.0
833.49,95.0
833.55,91.0
833.62,59.0
833.68,54.0
833.74,86.0
833.8,85.0
833.87,92.0
833.93,81.0
833.99,91.0
834.06,74.0
834.12,65.0
834.18,70.0
834.25,73.0
834.31,86.0
834.37,86.0
834.43,88.0
834.5,83.0
834.56,74.0
834.62,81.0
834.69,63.0
834.75,68.0
834.81,63.0
834.88,58.0
834.94,68.0
835.0,70.0
835.06,91.0
835.13,80.0
835.19,75.0
835.25,91.0
835.32,81.0
835.38,96.0
835.44,91.0
835.51,79.0
835.57,100.0
835.63,96.0
835.69,99.0
835.76,75.0
835.82,77.0
835.88,67.0
835.95,86.0
836.01,86.0
836.07,89.0
836.14,85.0
836.2,70.0
836.26,77.0
836.32,63.0
836.39,59.0
836.45,55.0
836.51,42.0
836.58,39.0
836.64,45.0
836.7,51.0
836.77,58.0
836.83,57.0
836.89,67.0
836.95,75.0
837.02,94.0
837.08,61.0
837.14,65.0
837.21,69.0
837.27,52.0
837.33,61.0
837.4,66.0
837.46,61.0
837.52,73.0
837.58,73.0
837.65,53.0
837.71,55.0
837.77,52.0
837.84,75.0
837.9,74.0
837.96,66.0
838.03,74.0
838.09,70.0
838.15,91.0
838.21,63.0
838.28,66.0
838.34,83.0
838.4,84.0
838.47,77.0
838.53,65.0
838.59,79.0
838.66,78.0
838.72,89.0
838.78,81.0
838.84,70.0
838.91,75.0
838.97,70.0
839.03,53.0
839.1,54.0
839.16,66.0
839.22,87.0
839.29,100.0
839.35,63.0
839.41,66.0
839.47,66.0
839.54,56.0
839.6,55.0
839.66,58.0
839.73,47.0
839.79,51.0
839.85,52.0
839.92,45.0
839.98,64.0
840.04,75.0
840.1,68.0
840.17,63.0
840.23,74.0
840.29,80.0
840.36,83.0
840.42,90.0
840.48,69.0
840.55,81.0
840.61,83.0
840.67,89.0
840.73,85.0
840.8,115.0
840.86,82.0
840.92,114.0
840.99,99.0
841.05,93.0
841.11,103.0
841.18,102.0
841.24,111.0
841.3,111.0
841.36,111.0
841.43,96.0
841.49,103.0
841.55,104.0
841.62,117.0
841.68,111.0
841.74,121.0
841.81,145.0
841.87,133.0
841.93,144.0
841.99,141.0
842.06,157.0
842.12,133.0
842.18,137.0
842.25,144.0
842.31,147.0
842.37,137.0
842.44,143.0
842.5,155.0
842.56,144.0
842.62,144.0
842.69,157.0
842.75,140.0
842.81,147.0
842.88,173.0
842.94,166.0
843.0,151.0
843.07,161.0
843.13,171.0
843.19,174.0
843.25,177.0
843.32,168.0
843.38,187.0
843.44,187.0
843.51,176.0
843.57,159.0
843.63,169.0
843.7,174.0
843.76,162.0
843.82,172.0
843.88,169.0
843.95,155.0
844.01,171.0
844.07,176.0
844.14,156.0
844.2,149.0
844.26,146.0
844.33,159.0
844.39,166.0
844.45,173.0
844.51,176.0
844.58,162.0
844.64,159.0
844.7,130.0
844.77,157.0
844.83,158.0
844.89,148.0
844.96,147.0
845.02,152.0
845.08,144.0
845.14,141.0
845.21,138.0
845.27,146.0
845.33,137.0
845.4,137.0
845.46,151.0
845.52,152.0
845.59,139.0
845.65,148.0
845.71,133.0
845.77,133.0
845.84,145.0
845.9,136.0
845.96,129.0
846.03,133.0
846.09,143.0
846.15,122.0
846.22,115.0
846.28,129.0
846.34,129.0
846.4,119.0
846.47,117.0
846.53,131.0
846.59,137.0
846.66,147.0
846.72,127.0
846.78,106.0
846.85,126.0
846.91,122.0
846.97,115.0
847.03,99.0
847.1,115.0
847.16,111.0
847.22,107.0
847.29,90.0
847.35,98.0
847.41,121.0
847.48,116.0
847.54,102.0
847.6,114.0
847.66,114.0
847.73,126.0
847.79,102.0
847.85,100.0
847.92,92.0
847.98,105.0
848.04,116.0
848.11,92.0
848.17,99.0
848.23,122.0
848.29,109.0
848.36,97.0
848.42,96.0
848.48,116.0
848.55,112.0
848.61,107.0
848.67,107.0
848.74,89.0
848.8,91.0
848.86,101.0
848.92,90.0
848.99,99.0
849.05,87.0
849.11,110.0
849.18,125.0
849.24,118.0
849.3,127.0
849.37,127.0
849.43,121.0
849.49,125.0
849.55,112.0
849.62,120.0
849.68,117.0
849.74,122.0
849.81,135.0
849.87,146.0
849.93,135.0
850.0,112.0
850.06,100.0
850.12,119.0
850.18,121.0
850.25,105.0
850.31,80.0
850.37,90.0
850.44,100.0
850.5,104.0
850.56,101.0
850.63,94.0
850.69,116.0
850.75,110.0
850.81,98.0
850.88,89.0
850.94,113.0
851.0,114.0
851.07,103.0
851.13,119.0
851.19,136.0
851.26,125.0
851.32,108.0
851.38,114.0
851.44,133.0
851.51,129.0
851.57,122.0
851.63,114.0
851.7,125.0
851.76,141.0
851.82,133.0
851.89,145.0
851.95,143.0
852.01,127.0
852.07,146.0
852.14,159.0
852.2,159.0
852.26,158.0
852.33,136.0
852.39,153.0
852.45,164.0
852.52,149.0
852.58,155.0
852.64,138.0
852.7,140.0
852.77,131.0
852.83,158.0
852.89,137.0
852.96,136.0
853.02,144.0
853.08,140.0
853.15,161.0
853.21,185.0
853.27,168.0
853.33,169.0
853.4,146.0
853.46,154.0
853.52,165.0
853.59,171.0
853.65,179.0
853.71,178.0
853.78,167.0
853.84,174.0
853.9,173.0
853.96,172.0
854.03,165.0
854.09,164.0
854.15,173.0
854.22,174.0
854.28,171.0
854.34,170.0
854.41,193.0
854.47,190.0
854.53,189.0
854.59,185.0
854.66,171.0
854.72,184.0
854.78,166.0
854.85,176.0
854.91,188.0
854.97,185.0
855.04,191.0
855.1,186.0
855.16,182.0
855.22,180.0
855.29,168.0
855.35,167.0
855.41,181.0
855.48,154.0
855.54,162.0
855.6,166.0
855.67,144.0
855.73,152.0
855.79,132.0
855.85,137.0
855.92,147.0
855.98,162.0
856.04,147.0
856.11,149.0
856.17,144.0
856.23,144.0
856.3,153.0
856.36,143.0
856.42,155.0
856.48,159.0
856.55,170.0
856.61,144.0
856.67,163.0
856.74,162.0
856.8,165.0
856.86,172.0
856.93,173.0
856.99,179.0
857.05,176.0
857.11,201.0
857.18,218.0
857.24,219.0
857.3,217.0
857.37,215.0
857.43,190.0
857.49,190.0
857.56,208.0
857.62,209.0
857.68,201.0
857.74,218.0
857.81,236.0
857.87,216.0
857.93,221.0
858.0,228.0
858.06,239.0
858.12,236.0
858.19,229.0
858.25,239.0
858.31,242.0
858.37,240.0
858.44,247.0
858.5,244.0
858.56,225.0
858.63,243.0
858.69,231.0
858.75,233.0
858.82,243.0
858.88,227.0
858.94,203.0
859.0,211.0
859.07,225.0
859.13,240.0
859.19,222.0
859.26,226.0
859.32,240.0
859.38,218.0
859.45,220.0
859.51,229.0
859.57,206.0
859.63,222.0
859.7,218.0
859.76,217.0
859.82,231.0
859.89,206.0
859.95,197.0
860.01,199.0
860.08,206.0
860.14,190.0
860.2,219.0
860.26,214.0
860.33,206.0
860.39,204.0
860.45,196.0
860.52,198.0
860.58,211.0
860.64,212.0
860.71,188.0
860.77,191.0
860.83,195.0
860.89,222.0
860.96,209.0
861.02,187.0
861.08,193.0
861.15,195.0
861.21,199.0
861.27,202.0
861.34,187.0
861.4,185.0
861.46,182.0
861.52,179.0
861.59,192.0
861.65,193.0
861.71,177.0
861.78,196.0
861.84,180.0
861.9,173.0
861.97,184.0
862.03,170.0
862.09,165.0
862.15,162.0
862.22,148.0
862.28,155.0
862.34,176.0
862.41,166.0
862.47,157.0
862.53,174.0
862.6,176.0
862.66,169.0
862.72,146.0
862.78,154.0
862.85,128.0
862.91,140.0
862.97,151.0
863.04,134.0
863.1,129.0
863.16,117.0
863.23,122.0
863.29,108.0
863.35,95.0
863.41,109.0
863.48,95.0
863.54,111.0
863.6,101.0
863.67,104.0
863.73,110.0
863.79,87.0
863.86,92.0
863.92,85.0
863.98,80.0
864.04,93.0
864.11,96.0
864.17,84.0
864.23,68.0
864.3,74.0
864.36,74.0
864.42,62.0
864.49,49.0
864.55,41.0
864.61,46.0
864.67,66.0
864.74,37.0
864.8,47.0
864.86,48.0
864.93,48.0
864.99,34.0
865.05,27.0
865.12,35.0
865.18,23.0
865.24,31.0
865.3,39.0
865.37,31.0
865.43,19.0
865.49,25.0
865.56,21.0
865.62,18.0
865.68,20.0
865.75,22.0
865.81,20.0
865.87,1.0
865.93,36.0
866.0,40.0
866.06,25.0
866.12,53.0
866.19,56.0
866.25,36.0
866.31,33.0
866.38,33.0
866.44,43.0
866.5,47.0
866.56,30.0
866.63,36.0
866.69,34.0
866.75,63.0
866.82,47.0
866.88,42.0
866.94,29.0
867.01,36.0
867.07,33.0
867.13,1.0
867.19,3.0
867.26,9.0
867.32,26.0
867.38,16.0
867.45,24.0
867.51,36.0
867.57,32.0
867.64,23.0
867.7,46.0
867.76,38.0
867.82,31.0
867.89,38.0
867.95,46.0
868.01,36.0
868.08,38.0
868.14,50.0
868.2,38.0
868.27,38.0
868.33,49.0
868.39,61.0
868.45,61.0
868.52,76.0
868.58,57.0
868.64,53.0
868.71,37.0
868.77,50.0
868.83,40.0
868.9,36.0
868.96,59.0
869.02,39.0
869.08,41.0
869.15,71.0
869.21,58.0
869.27,39.0
869.34,23.0
869.4,27.0
869.46,33.0
869.53,34.0
869.59,49.0
869.65,50.0
869.71,62.0
869.78,46.0
869.84,49.0
869.9,48.0
869.97,59.0
870.03,49.0
870.09,58.0
870.16,67.0
870.22,39.0
870.28,48.0
870.34,49.0
870.41,42.0
870.47,44.0
870.53,48.0
870.6,64.0
870.66,51.0
870.72,63.0
870.79,67.0
870.85,54.0
870.91,45.0
870.97,35.0
871.04,62.0
871.1,67.0
871.16,59.0
871.23,80.0
871.29,83.0
871.35,72.0
871.42,70.0
871.48,78.0
871.54,84.0
871.6,67.0
871.67,65.0
871.73,72.0
871.79,58.0
871.86,59.0
871.92,61.0
871.98,55.0
872.05,71.0
872.11,60.0
872.17,49.0
872.23,38.0
872.3,45.0
872.36,35.0
872.42,45.0
872.49,30.0
872.55,34.0
872.61,45.0
872.68,45.0
872.74,57.0
872.8,63.0
872.86,74.0
872.93,58.0
872.99,70.0
873.05,73.0
873.12,73.0
873.18,77.0
873.24,96.0
873.31,90.0
873.37,101.0
873.43,104.0
873.49,97.0
873.56,106.0
873.62,120.0
873.68,110.0
873.75,133.0
873.81,131.0
873.87,124.0
873.94,111.0
874.0,97.0
874.06,101.0
874.12,109.0
874.19,119.0
874.25,108.0
874.31,116.0
874.38,119.0
874.44,143.0
874.5,140.0
874.57,151.0
874.63,145.0
874.69,157.0
874.75,171.0
874.82,176.0
874.88,179.0
874.94,147.0
875.01,175.0
875.07,191.0
875.13,150.0
875.2,130.0
875.26,137.0
875.32,135.0
875.38,133.0
875.45,130.0
875.51,147.0
875.57,129.0
875.64,133.0
875.7,140.0
875.76,119.0
875.83,137.0
875.89,142.0
875.95,135.0
876.01,137.0
876.08,147.0
876.14,166.0
876.2,148.0
876.27,156.0
876.33,170.0
876.39,177.0
876.46,173.0
876.52,170.0
876.58,174.0
876.64,176.0
876.71,171.0
876.77,158.0
876.83,171.0
876.9,174.0
876.96,166.0
877.02,197.0
877.09,192.0
877.15,191.0
877.21,215.0
877.27,181.0
877.34,179.0
877.4,192.0
877.46,210.0
877.53,203.0
877.59,204.0
877.65,211.0
877.72,179.0
877.78,177.0
877.84,199.0
877.9,215.0
877.97,193.0
878.03,195.0
878.09,187.0
878.16,204.0
878.22,198.0
878.28,184.0
878.35,213.0
878.41,198.0
878.47,212.0
878.53,199.0
878.6,185.0
878.66,207.0
878.72,196.0
878.79,190.0
878.85,195.0
878.91,198.0
878.98,178.0
879.04,172.0
879.1,177.0
879.16,166.0
879.23,136.0
879.29,140.0
879.35,163.0
879.42,151.0
879.48,147.0
879.54,152.0
879.61,151.0
879.67,155.0
879.73,169.0
879.79,164.0
879.86,148.0
879.92,139.0
879.98,138.0
880.05,138.0
880.11,132.0
880.17,152.0
880.24,140.0
880.3,133.0
880.36,138.0
880.42,126.0
880.49,132.0
880.55,93.0
880.61,115.0
880.68,111.0
880.74,100.0
880.8,96.0
880.87,89.0
880.93,99.0
880.99,86.0
881.05,96.0
881.12,60.0
881.18,85.0
881.24,92.0
881.31,89.0
881.37,74.0
881.43,72.0
881.5,100.0
881.56,97.0
881.62,106.0
881.68,82.0
881.75,83.0
881.81,120.0
881.87,116.0
881.94,119.0
882.0,105.0
882.06,114.0
882.13,117.0
882.19,120.0
882.25,108.0
882.31,100.0
882.38,109.0
882.44,114.0
882.5,98.0
882.57,108.0
882.63,108.0
882.69,118.0
882.76,114.0
882.82,119.0
882.88,123.0
882.94,141.0
883.01,119.0
883.07,105.0
883.13,122.0
883.2,116.0
883.26,111.0
883.32,113.0
883.39,104.0
883.45,106.0
883.51,101.0
883.57,128.0
883.64,120.0
883.7,113.0
883.76,116.0
883.83,108.0
883.89,100.0
883.95,131.0
884.02,113.0
884.08,113.0
884.14,122.0
884.2,124.0
884.27,104.0
884.33,106.0
884.39,113.0
884.46,118.0
884.52,115.0
884.58,121.0
884.65,122.0
884.71,121.0
884.77,103.0
884.83,104.0
884.9,120.0
884.96,116.0
885.02,133.0
885.09,116.0
885.15,104.0
885.21,100.0
885.28,100.0
885.34,100.0
885.4,88.0
885.46,99.0
885.53,107.0
885.59,93.0
885.65,86.0
885.72,97.0
885.78,118.0
885.84,126.0
885.91,110.0
885.97,116.0
886.03,110.0
886.09,107.0
886.16,101.0
886.22,116.0
886.28,111.0
886.35,97.0
886.41,96.0
886.47,107.0
886.54,114.0
886.6,115.0
886.66,119.0
886.72,101.0
886.79,102.0
886.85,100.0
886.91,107.0
886.98,80.0
887.04,91.0
887.1,93.0
887.17,104.0
887.23,103.0
887.29,90.0
887.35,117.0
887.42,119.0
887.48,111.0
887.54,88.0
887.61,107.0
887.67,114.0
887.73,116.0
887.8,113.0
887.86,115.0
887.92,101.0
887.98,119.0
888.05,118.0
888.11,106.0
888.17,99.0
888.24,100.0
888.3,102.0
888.36,96.0
888.43,110.0
888.49,103.0
888.55,103.0
888.61,108.0
888.68,101.0
888.74,108.0
888.8,107.0
888.87,102.0
888.93,107.0
888.99,117.0
889.06,114.0
889.12,93.0
889.18,96.0
889.24,87.0
889.31,85.0
889.37,107.0
889.43,100.0
889.5,96.0
889.56,115.0
889.62,110.0
889.69,86.0
889.75,101.0
889.81,97.0
889.87,74.0
889.94,80.0
890.0,81.0
890.06,93.0
890.13,77.0
890.19,71.0
890.25,82.0
890.32,69.0
890.38,68.0
890.44,72.0
890.5,86.0
890.57,93.0
890.63,81.0
890.69,72.0
890.76,87.0
890.82,88.0
890.88,91.0
890.95,92.0
891.01,81.0
891.07,87.0
891.13,73.0
891.2,100.0
891.26,119.0
891.32,104.0
891.39,87.0
891.45,76.0
891.51,104.0
891.58,97.0
891.64,103.0
891.7,113.0
891.76,118.0
891.83,98.0
891.89,113.0
891.95,114.0
892.02,107.0
892.08,107.0
892.14,118.0
892.21,126.0
892.27,122.0
892.33,125.0
892.39,147.0
892.46,144.0
892.52,142.0
892.58,147.0
892.65,151.0
892.71,149.0
892.77,146.0
892.84,157.0
892.9,144.0
892.96,136.0
893.02,160.0
893.09,157.0
893.15,131.0
893.21,159.0
893.28,163.0
893.34,160.0
893.4,152.0
893.47,145.0
893.53,182.0
893.59,170.0
893.65,173.0
893.72,173.0
893.78,197.0
893.84,170.0
893.91,173.0
893.97,188.0
894.03,176.0
894.1,165.0
894.16,177.0
894.22,177.0
894.28,166.0
894.35,180.0
894.41,177.0
894.47,158.0
894.54,142.0
894.6,143.0
894.66,151.0
894.73,134.0
894.79,147.0
894.85,138.0
894.91,143.0
894.98,162.0
895.04,149.0
895.1,162.0
895.17,162.0
895.23,148.0
895.29,127.0
895.36,129.0
895.42,140.0
895.48,136.0
895.54,129.0
895.61,116.0
895.67,120.0
895.73,116.0
895.8,115.0
895.86,113.0
895.92,124.0
895.99,101.0
896.05,93.0
896.11,113.0
896.17,104.0
896.24,102.0
896.3,86.0
896.36,93.0
896.43,101.0
896.49,94.0
896.55,95.0
896.62,105.0
896.68,121.0
896.74,108.0
896.8,116.0
896.87,107.0
896.93,88.0
896.99,92.0
897.06,118.0
897.12,115.0
897.18,111.0
897.25,123.0
897.31,122.0
897.37,110.0
897.43,118.0
897.5,110.0
897.56,93.0
897.62,94.0
897.69,107.0
897.75,115.0
897.81,107.0
897.88,104.0
897.94,110.0
898.0,121.0
898.06,85.0
898.13,93.0
898.19,104.0
898.25,105.0
898.32,124.0
898.38,112.0
898.44,119.0
898.51,99.0
898.57,106.0
898.63,97.0
898.69,102.0
898.76,101.0
898.82,102.0
898.88,93.0
898.95,102.0
899.01,124.0
899.07,107.0
899.14,87.0
899.2,115.0
899.26,89.0
899.32,88.0
899.39,100.0
899.45,88.0
899.51,114.0
899.58,103.0
899.64,134.0
899.7,112.0
899.77,121.0
899.83,132.0
899.89,121.0
899.95,116.0
900.02,129.0
900.08,111.0
900.14,117.0
900.21,125.0
900.27,117.0
900.33,89.0
900.4,100.0
900.46,127.0
900.52,111.0
900.58,119.0
900.65,113.0
900.71,70.0
900.77,94.0
900.84,85.0
900.9,63.0
900.96,71.0
901.03,86.0
901.09,81.0
901.15,68.0
901.21,90.0
901.28,92.0
901.34,108.0
901.4,106.0
901.47,100.0
901.53,107.0
901.59,136.0
901.66,114.0
901.72,116.0
901.78,126.0
901.84,115.0
901.91,121.0
901.97,111.0
902.03,108.0
902.1,113.0
902.16,115.0
902.22,105.0
902.29,94.0
902.35,117.0
902.41,106.0
902.47,132.0
902.54,94.0
902.6,97.0
902.66,116.0
902.73,89.0
902.79,108.0
902.85,110.0
902.92,115.0
902.98,138.0
903.04,108.0
903.1,105.0
903.17,106.0
903.23,110.0
903.29,111.0
903.36,80.0
903.42,89.0
903.48,104.0
903.55,99.0
903.61,120.0
903.67,133.0
903.73,116.0
903.8,113.0
903.86,114.0
903.92,144.0
903.99,141.0
904.05,131.0
904.11,147.0
904.18,149.0
904.24,134.0
904.3,135.0
904.36,158.0
904.43,132.0
904.49,127.0
904.55,138.0
904.62,127.0
904.68,134.0
904.74,144.0
904.81,128.0
904.87,116.0
904.93,129.0
904.99,128.0
905.06,141.0
905.12,148.0
905.18,143.0
905.25,146.0
905.31,130.0
905.37,124.0
905.44,114.0
905.5,126.0
905.56,127.0
905.62,129.0
905.69,150.0
905.75,145.0
905.81,150.0
905.88,158.0
905.94,138.0
906.0,148.0
906.07,138.0
906.13,155.0
906.19,153.0
906.25,138.0
906.32,135.0
906.38,125.0
906.44,134.0
906.51,136.0
906.57,154.0
906.63,129.0
906.7,126.0
906.76,134.0
906.82,128.0
906.88,115.0
906.95,116.0
907.01,117.0
907.07,115.0
907.14,124.0
907.2,131.0
907.26,135.0
907.33,133.0
907.39,122.0
907.45,124.0
907.51,118.0
907.58,118.0
907.64,130.0
907.7,130.0
907.77,129.0
907.83,124.0
907.89,140.0
907.96,158.0
908.02,143.0
908.08,160.0
908.14,162.0
908.21,140.0
908.27,144.0
908.33,148.0
908.4,163.0
908.46,167.0
908.52,168.0
908.59,169.0
908.65,163.0
908.71,160.0
908.77,170.0
908.84,169.0
908.9,180.0
908.96,158.0
909.03,140.0
909.09,174.0
909.15,198.0
909.22,201.0
909.28,198.0
909.34,214.0
909.4,196.0
909.47,210.0
909.53,220.0
909.59,208.0
909.66,196.0
909.72,210.0
909.78,210.0
909.85,222.0
909.91,224.0
909.97,232.0
910.03,244.0
910.1,229.0
910.16,237.0
910.22,233.0
910.29,235.0
910.35,233.0
910.41,237.0
910.48,248.0
910.54,247.0
910.6,238.0
910.66,245.0
910.73,237.0
910.79,234.0
910.85,239.0
910.92,243.0
910.98,233.0
911.04,231.0
911.11,236.0
911.17,239.0
911.23,228.0
911.29,229.0
911.36,229.0
911.42,220.0
911.48,218.0
911.55,205.0
911.61,221.0
911.67,201.0
911.74,191.0
911.8,201.0
911.86,207.0
911.92,208.0
911.99,184.0
912.05,195.0
912.11,224.0
912.18,195.0
912.24,201.0
912.3,214.0
912.37,204.0
912.43,212.0
912.49,188.0
912.55,189.0
912.62,174.0
912.68,203.0
912.74,186.0
912.81,176.0
912.87,173.0
912.93,188.0
913.0,211.0
913.06,207.0
913.12,184.0
913.18,189.0
913.25,173.0
913.31,168.0
913.37,182.0
913.44,175.0
913.5,147.0
913.56,160.0
913.63,166.0
913.69,171.0
913.75,177.0
913.81,148.0
913.88,166.0
913.94,170.0
914.0,166.0
914.07,143.0
914.13,166.0
914.19,179.0
914.26,173.0
914.32,175.0
914.38,165.0
914.44,171.0
914.51,165.0
914.57,161.0
914.63,171.0
914.7,165.0
914.76,166.0
914.82,168.0
914.89,155.0
914.95,149.0
915.01,144.0
915.07,139.0
915.14,160.0
915.2,166.0
915.26,139.0
915.33,137.0
915.39,124.0
915.45,166.0
915.52,158.0
915.58,162.0
915.64,136.0
915.7,126.0
915.77,146.0
915.83,128.0
915.89,141.0
915.96,143.0
916.02,146.0
916.08,146.0
916.15,115.0
916.21,131.0
916.27,133.0
916.33,122.0
916.4,111.0
916.46,112.0
916.52,116.0
916.59,127.0
916.65,127.0
916.71,118.0
916.78,119.0
916.84,112.0
916.9,119.0
916.96,123.0
917.03,111.0
917.09,103.0
917.15,107.0
917.22,119.0
917.28,122.0
917.34,107.0
917.41,118.0
917.47,112.0
917.53,107.0
917.59,120.0
917.66,128.0
917.72,118.0
917.78,131.0
917.85,123.0
917.91,129.0
917.97,131.0
918.04,124.0
918.1,127.0
918.16,133.0
918.22,121.0
918.29,126.0
918.35,108.0
918.41,100.0
918.48,111.0
918.54,103.0
918.6,143.0
918.67,144.0
918.73,146.0
918.79,140.0
918.85,118.0
918.92,127.0
918.98,113.0
919.04,120.0
919.11,122.0
919.17,129.0
919.23,119.0
919.3,118.0
919.36,114.0
919.42,131.0
919.48,133.0
919.55,118.0
919.61,144.0
919.67,150.0
919.74,156.0
919.8,144.0
919.86,143.0
919.93,132.0
919.99,127.0
920.05,119.0
920.11,119.0
920.18,118.0
920.24,97.0
920.3,111.0
920.37,90.0
920.43,98.0
920.49,96.0
920.56,96.0
920.62,111.0
920.68,92.0
920.74,93.0
920.81,78.0
920.87,82.0
920.93,99.0
921.0,92.0
921.06,85.0
921.12,92.0
921.19,96.0
921.25,121.0
921.31,132.0
921.37,116.0
921.44,118.0
921.5,106.0
921.56,93.0
921.63,92.0
921.69,85.0
921.75,82.0
921.82,85.0
921.88,85.0
921.94,73.0
922.0,67.0
922.07,72.0
922.13,84.0
922.19,76.0
922.26,84.0
922.32,74.0
922.38,66.0
922.45,49.0
922.51,27.0
922.57,38.0
922.63,52.0
922.7,55.0
922.76,39.0
922.82,59.0
922.89,47.0
922.95,48.0
923.01,34.0
923.08,55.0
923.14,66.0
923.2,31.0
923.26,49.0
923.33,50.0
923.39,69.0
923.45,59.0
923.52,76.0
923.58,63.0
923.64,63.0
923.71,69.0
923.77,65.0
923.83,67.0
923.89,75.0
923.96,67.0
924.02,65.0
924.08,78.0
924.15,76.0
924.21,71.0
924.27,67.0
924.34,74.0
924.4,84.0
924.46,82.0
924.52,85.0
924.59,95.0
924.65,78.0
924.71,101.0
924.78,88.0
924.84,92.0
924.9,107.0
924.97,123.0
925.03,109.0
925.09,110.0
925.15,115.0
925.22,114.0
925.28,129.0
925.34,134.0
925.41,122.0
925.47,122.0
925.53,126.0
925.6,125.0
925.66,147.0
925.72,153.0
925.78,145.0
925.85,148.0
925.91,177.0
925.97,161.0
926.04,151.0
926.1,154.0
926.16,158.0
926.23,163.0
926.29,162.0
926.35,170.0
926.41,171.0
926.48,177.0
926.54,171.0
926.6,164.0
926.67,169.0
926.73,173.0
926.79,172.0
926.86,160.0
926.92,168.0
926.98,166.0
927.04,165.0
927.11,167.0
927.17,165.0
927.23,176.0
927.3,167.0
927.36,167.0
927.42,163.0
927.49,163.0
927.55,157.0
927.61,149.0
927.67,121.0
927.74,153.0
927.8,131.0
927.86,137.0
927.93,155.0
927.99,173.0
928.05,161.0
928.12,177.0
928.18,157.0
928.24,162.0
928.3,173.0
928.37,149.0
928.43,159.0
928.49,179.0
928.56,181.0
928.62,187.0
928.68,175.0
928.75,166.0
928.81,161.0
928.87,165.0
928.93,167.0
929.0,172.0
929.06,154.0
929.12,162.0
929.19,159.0
929.25,170.0
929.31,190.0
929.38,179.0
929.44,171.0
929.5,179.0
929.56,181.0
929.63,177.0
929.69,144.0
929.75,149.0
929.82,144.0
929.88,152.0
929.94,158.0
930.01,147.0
930.07,169.0
930.13,165.0
930.19,173.0
930.26,158.0
930.32,166.0
930.38,177.0
930.45,155.0
930.51,129.0
930.57,133.0
930.64,140.0
930.7,128.0
930.76,124.0
930.82,130.0
930.89,140.0
930.95,122.0
931.01,123.0
931.08,108.0
931.14,142.0
931.2,122.0
931.27,103.0
931.33,112.0
931.39,111.0
931.45,100.0
931.52,100.0
931.58,107.0
931.64,119.0
931.71,118.0
931.77,107.0
931.83,102.0
931.9,93.0
931.96,78.0
932.02,89.0
932.08,67.0
932.15,97.0
932.21,76.0
932.27,80.0
932.34,81.0
932.4,77.0
932.46,85.0
932.53,92.0
932.59,88.0
932.65,63.0
932.71,67.0
932.78,71.0
932.84,59.0
932.9,78.0
932.97,70.0
933.03,81.0
933.09,95.0
933.16,89.0
933.22,85.0
933.28,67.0
933.34,75.0
933.41,87.0
933.47,82.0
933.53,88.0
933.6,87.0
933.66,94.0
933.72,94.0
933.79,70.0
933.85,63.0
933.91,79.0
933.97,71.0
934.04,74.0
934.1,70.0
934.16,78.0
934.23,67.0
934.29,59.0
934.35,72.0
934.42,78.0
934.48,78.0
934.54,69.0
934.6,64.0
934.67,82.0
934.73,74.0
934.79,78.0
934.86,91.0
934.92,86.0
934.98,92.0
935.05,85.0
935.11,102.0
935.17,104.0
935.23,119.0
935.3,107.0
935.36,85.0
935.42,100.0
935.49,104.0
935.55,97.0
935.61,89.0
935.68,88.0
935.74,94.0
935.8,80.0
935.86,84.0
935.93,94.0
935.99,105.0
936.05,94.0
936.12,85.0
936.18,86.0
936.24,78.0
936.31,76.0
936.37,74.0
936.43,79.0
936.49,67.0
936.56,74.0
936.62,85.0
936.68,73.0
936.75,90.0
936.81,108.0
936.87,86.0
936.94,97.0
937.0,101.0
937.06,102.0
937.12,92.0
937.19,102.0
937.25,108.0
937.31,111.0
937.38,137.0
937.44,134.0
937.5,124.0
937.57,120.0
937.63,126.0
937.69,121.0
937.75,122.0
937.82,103.0
937.88,121.0
937.94,114.0
938.01,109.0
938.07,97.0
938.13,97.0
938.2,96.0
938.26,91.0
938.32,92.0
938.38,92.0
938.45,97.0
938.51,110.0
938.57,116.0
938.64,122.0
938.7,114.0
938.76,105.0
938.83,106.0
938.89,108.0
938.95,96.0
939.01,84.0
939.08,85.0
939.14,102.0
939.2,89.0
939.27,102.0
939.33,107.0
939.39,107.0
939.46,97.0
939.52,103.0
939.58,95.0
939.64,110.0
939.71,88.0
939.77,83.0
939.83,81.0
939.9,81.0
939.96,93.0
940.02,70.0
940.09,69.0
940.15,58.0
940.21,46.0
940.27,68.0
940.34,71.0
940.4,64.0
940.46,74.0
940.53,74.0
940.59,89.0
940.65,69.0
940.72,69.0
940.78,77.0
940.84,78.0
940.9,66.0
940.97,52.0
941.03,63.0
941.09,72.0
941.16,85.0
941.22,81.0
941.28,92.0
941.35,82.0
941.41,98.0
941.47,96.0
941.53,95.0
941.6,103.0
941.66,107.0
941.72,100.0
941.79,112.0
941.85,130.0
941.91,128.0
941.98,113.0
942.04,116.0
942.1,116.0
942.16,117.0
942.23,139.0
942.29,137.0
942.35,136.0
942.42,116.0
942.48,125.0
942.54,154.0
942.61,150.0
942.67,135.0
942.73,132.0
942.79,131.0
942.86,131.0
942.92,141.0
942.98,136.0
943.05,148.0
943.11,131.0
943.17,159.0
943.24,152.0
943.3,178.0
943.36,173.0
943.42,164.0
943.49,186.0
943.55,170.0
943.61,190.0
943.68,174.0
943.74,190.0
943.8,182.0
943.87,176.0
943.93,187.0
943.99,165.0
944.05,166.0
944.12,162.0
944.18,161.0
944.24,157.0
944.31,165.0
944.37,165.0
944.43,159.0
944.5,157.0
944.56,168.0
944.62,163.0
944.68,165.0
944.75,173.0
944.81,175.0
944.87,163.0
944.94,163.0
945.0,181.0
945.06,187.0
945.13,184.0
945.19,178.0
945.25,168.0
945.31,171.0
945.38,166.0
945.44,172.0
945.5,174.0
945.57,163.0
945.63,156.0
945.69,148.0
945.76,148.0
945.82,163.0
945.88,168.0
945.94,140.0
946.01,133.0
946.07,165.0
946.13,142.0
946.2,144.0
946.26,137.0
946.32,137.0
946.39,155.0
946.45,146.0
946.51,132.0
946.57,124.0
946.64,150.0
946.7,141.0
946.76,139.0
946.83,131.0
946.89,137.0
946.95,127.0
947.02,107.0
947.08,125.0
947.14,136.0
947.2,122.0
947.27,125.0
947.33,110.0
947.39,109.0
947.46,126.0
947.52,127.0
947.58,139.0
947.65,124.0
947.71,119.0
947.77,81.0
947.83,88.0
947.9,102.0
947.96,97.0
948.02,84.0
948.09,107.0
948.15,97.0
948.21,92.0
948.28,99.0
948.34,116.0
948.4,122.0
948.46,122.0
948.53,104.0
948.59,106.0
948.65,75.0
948.72,81.0
948.78,85.0
948.84,92.0
948.91,99.0
948.97,82.0
949.03,78.0
949.09,81.0
949.16,84.0
949.22,93.0
949.28,111.0
949.35,99.0
949.41,90.0
949.47,67.0
949.54,82.0
949.6,91.0
949.66,67.0
949.72,94.0
949.79,84.0
949.85,99.0
949.91,99.0
949.98,91.0
950.04,89.0
950.1,89.0
950.17,94.0
950.23,91.0
950.29,108.0
950.35,105.0
950.42,111.0
950.48,126.0
950.54,118.0
950.61,133.0
950.67,147.0
950.73,155.0
950.8,148.0
950.86,127.0
950.92,147.0
950.98,129.0
951.05,150.0
951.11,177.0
951.17,121.0
951.24,134.0
951.3,132.0
951.36,137.0
951.43,147.0
951.49,143.0
951.55,143.0
951.61,159.0
951.68,162.0
951.74,164.0
951.8,154.0
951.87,142.0
951.93,108.0
951.99,133.0
952.06,117.0
952.12,91.0
952.18,94.0
952.24,104.0
952.31,140.0
952.37,132.0
952.43,140.0
952.5,129.0
952.56,120.0
952.62,109.0
952.69,141.0
952.75,140.0
952.81,137.0
952.87,152.0
952.94,144.0
953.0,147.0
953.06,154.0
953.13,136.0
953.19,132.0
953.25,133.0
953.32,129.0
953.38,123.0
953.44,133.0
953.5,118.0
953.57,117.0
953.63,125.0
953.69,117.0
953.76,124.0
953.82,109.0
953.88,118.0
953.95,115.0
954.01,127.0
954.07,116.0
954.13,122.0
954.2,134.0
954.26,116.0
954.32,126.0
954.39,119.0
954.45,131.0
954.51,123.0
954.58,123.0
954.64,126.0
954.7,114.0
954.76,107.0
954.83,116.0
954.89,118.0
954.95,129.0
955.02,126.0
955.08,122.0
955.14,126.0
955.21,122.0
955.27,109.0
955.33,112.0
955.39,99.0
955.46,93.0
955.52,86.0
955.58,98.0
955.65,116.0
955.71,110.0
955.77,103.0
955.84,113.0
955.9,110.0
955.96,105.0
956.02,78.0
956.09,88.0
956.15,77.0
956.21,88.0
956.28,91.0
956.34,110.0
956.4,91.0
956.47,92.0
956.53,95.0
956.59,96.0
956.65,104.0
956.72,106.0
956.78,102.0
956.84,90.0
956.91,99.0
956.97,89.0
957.03,79.0
957.1,67.0
957.16,97.0
957.22,67.0
957.28,67.0
957.35,73.0
957.41,78.0
957.47,64.0
957.54,57.0
957.6,67.0
957.66,67.0
957.73,66.0
957.79,74.0
957.85,88.0
957.91,76.0
957.98,72.0
958.04,94.0
958.1,104.0
958.17,103.0
958.23,88.0
958.29,88.0
958.36,106.0
958.42,95.0
958.48,92.0
958.54,110.0
958.61,108.0
958.67,122.0
958.73,124.0
958.8,108.0
958.86,129.0
958.92,127.0
958.99,118.0
959.05,121.0
959.11,114.0
959.17,121.0
959.24,138.0
959.3,154.0
959.36,156.0
959.43,149.0
959.49,163.0
959.55,166.0
959.62,170.0
959.68,167.0
959.74,181.0
959.8,169.0
959.87,176.0
959.93,179.0
959.99,166.0
960.06,170.0
960.12,176.0
960.18,196.0
960.25,192.0
960.31,193.0
960.37,208.0
960.43,206.0
960.5,213.0
960.56,214.0
960.62,198.0
960.69,197.0
960.75,198.0
960.81,223.0
960.88,221.0
960.94,217.0
961.0,217.0
961.06,235.0
961.13,234.0
961.19,225.0
961.25,226.0
961.32,228.0
961.38,229.0
961.44,245.0
961.51,221.0
961.57,227.0
961.63,220.0
961.69,209.0
961.76,199.0
961.82,210.0
961.88,207.0
961.95,207.0
962.01,217.0
962.07,218.0
962.14,226.0
962.2,220.0
962.26,204.0
962.32,212.0
962.39,192.0
962.45,175.0
962.51,194.0
962.58,203.0
962.64,188.0
962.7,201.0
962.77,195.0
962.83,233.0
962.89,208.0
962.95,197.0
963.02,211.0
963.08,224.0
963.14,224.0
963.21,212.0
963.27,209.0
963.33,198.0
963.4,220.0
963.46,215.0
963.52,229.0
963.58,243.0
963.65,223.0
963.71,222.0
963.77,227.0
963.84,221.0
963.9,203.0
963.96,177.0
964.03,179.0
964.09,190.0
964.15,184.0
964.21,169.0
964.28,157.0
964.34,154.0
964.4,157.0
964.47,164.0
964.53,160.0
964.59,169.0
964.66,155.0
964.72,138.0
964.78,154.0
964.84,150.0
964.91,142.0
964.97,164.0
965.03,158.0
965.1,158.0
965.16,166.0
965.22,160.0
965.29,168.0
965.35,166.0
965.41,188.0
965.47,165.0
965.54,161.0
965.6,170.0
965.66,164.0
965.73,173.0
965.79,182.0
965.85,155.0
965.92,160.0
965.98,149.0
966.04,149.0
966.1,163.0
966.17,162.0
966.23,152.0
966.29,158.0
966.36,146.0
966.42,150.0
966.48,166.0
966.55,148.0
966.61,134.0
966.67,141.0
966.73,123.0
966.8,133.0
966.86,116.0
966.92,123.0
966.99,152.0
967.05,135.0
967.11,109.0
967.18,106.0
967.24,114.0
967.3,140.0
967.36,133.0
967.43,122.0
967.49,121.0
967.55,120.0
967.62,142.0
967.68,134.0
967.74,102.0
967.81,96.0
967.87,97.0
967.93,94.0
967.99,107.0
968.06,118.0
968.12,94.0
968.18,90.0
968.25,89.0
968.31,103.0
968.37,120.0
968.44,111.0
968.5,111.0
968.56,116.0
968.62,134.0
968.69,134.0
968.75,126.0
968.81,120.0
968.88,128.0
968.94,119.0
969.0,113.0
969.07,100.0
969.13,103.0
969.19,124.0
969.25,127.0
969.32,127.0
969.38,121.0
969.44,124.0
969.51,136.0
969.57,113.0
969.63,109.0
969.7,136.0
969.76,114.0
969.82,132.0
969.88,115.0
969.95,111.0
970.01,121.0
970.07,118.0
970.14,130.0
970.2,135.0
970.26,122.0
970.33,110.0
970.39,108.0
970.45,111.0
970.51,125.0
970.58,127.0
970.64,131.0
970.7,133.0
970.77,108.0
970.83,130.0
970.89,113.0
970.96,119.0
971.02,114.0
971.08,121.0
971.14,124.0
971.21,137.0
971.27,126.0
971.33,115.0
971.4,138.0
971.46,113.0
971.52,123.0
971.59,114.0
971.65,114.0
971.71,121.0
971.77,120.0
971.84,129.0
971.9,114.0
971.96,111.0
972.03,118.0
972.09,105.0
972.15,100.0
972.22,93.0
972.28,90.0
972.34,74.0
972.4,50.0
972.47,63.0
972.53,70.0
972.59,52.0
972.66,57.0
972.72,46.0
972.78,59.0
972.85,63.0
972.91,54.0
972.97,41.0
973.03,36.0
973.1,25.0
973.16,33.0
973.22,38.0
973.29,19.0
973.35,9.0
973.41,37.0
973.48,49.0
973.54,47.0
973.6,66.0
973.66,38.0
973.73,46.0
973.79,45.0
973.85,41.0
973.92,64.0
973.98,34.0
974.04,16.0
974.11,37.0
974.17,33.0
974.23,26.0
974.29,27.0
974.36,53.0
974.42,75.0
974.48,39.0
974.55,58.0
974.61,66.0
974.67,50.0
974.74,51.0
974.8,68.0
974.86,70.0
974.92,69.0
974.99,49.0
975.05,60.0
975.11,69.0
975.18,80.0
975.24,70.0
975.3,85.0
975.37,79.0
975.43,68.0
975.49,77.0
975.55,81.0
975.62,78.0
975.68,89.0
975.74,86.0
975.81,84.0
975.87,94.0
975.93,85.0
976.0,90.0
976.06,89.0
976.12,90.0
976.18,79.0
976.25,86.0
976.31,116.0
976.37,104.0
976.44,97.0
976.5,123.0
976.56,142.0
976.63,136.0
976.69,151.0
976.75,153.0
976.81,130.0
976.88,145.0
976.94,162.0
977.0,161.0
977.07,173.0
977.13,181.0
977.19,176.0
977.26,155.0
977.32,168.0
977.38,158.0
977.44,152.0
977.51,147.0
977.57,154.0
977.63,155.0
977.7,173.0
977.76,162.0
977.82,164.0
977.89,177.0
977.95,164.0
978.01,162.0
978.07,149.0
978.14,157.0
978.2,148.0
978.26,152.0
978.33,147.0
978.39,151.0
978.45,163.0
978.52,147.0
978.58,161.0
978.64,171.0
978.7,163.0
978.77,155.0
978.83,173.0
978.89,206.0
978.96,182.0
979.02,159.0
979.08,159.0
979.15,170.0
979.21,177.0
979.27,162.0
979.33,150.0
979.4,173.0
979.46,174.0
979.52,195.0
979.59,175.0
979.65,169.0
979.71,183.0
979.78,176.0
979.84,177.0
979.9,193.0
979.96,194.0
980.03,182.0
980.09,168.0
980.15,163.0
980.22,171.0
980.28,177.0
980.34,147.0
980.41,125.0
980.47,136.0
980.53,140.0
980.59,124.0
980.66,142.0
980.72,133.0
980.78,134.0
980.85,147.0
980.91,140.0
980.97,122.0
981.04,144.0
981.1,146.0
981.16,138.0
981.22,132.0
981.29,128.0
981.35,130.0
981.41,138.0
981.48,135.0
981.54,122.0
981.6,122.0
981.67,131.0
981.73,133.0
981.79,149.0
981.85,140.0
981.92,127.0
981.98,106.0
982.04,135.0
982.11,133.0
982.17,115.0
982.23,127.0
982.3,124.0
982.36,131.0
982.42,133.0
982.48,123.0
982.55,116.0
982.61,113.0
982.67,122.0
982.74,117.0
982.8,110.0
982.86,89.0
982.93,96.0
982.99,95.0
983.05,87.0
983.11,77.0
983.18,80.0
983.24,96.0
983.3,67.0
983.37,78.0
983.43,99.0
983.49,96.0
983.56,89.0
983.62,85.0
983.68,86.0
983.74,77.0
983.81,70.0
983.87,86.0
983.93,78.0
984.0,78.0
984.06,71.0
984.12,71.0
984.19,61.0
984.25,68.0
984.31,66.0
984.37,46.0
984.44,73.0
984.5,64.0
984.56,47.0
984.63,65.0
984.69,61.0
984.75,87.0
984.82,86.0
984.88,87.0
984.94,96.0
985.0,105.0
985.07,108.0
985.13,84.0
985.19,104.0
985.26,118.0
985.32,122.0
985.38,115.0
985.45,110.0
985.51,110.0
985.57,106.0
985.63,126.0
985.7,113.0
985.76,110.0
985.82,121.0
985.89,98.0
985.95,81.0
986.01,88.0
986.08,100.0
986.14,108.0
986.2,105.0
986.26,107.0
986.33,121.0
986.39,113.0
986.45,116.0
986.52,123.0
986.58,109.0
986.64,113.0
986.71,137.0
986.77,111.0
986.83,100.0
986.89,105.0
986.96,107.0
987.02,97.0
987.08,82.0
987.15,105.0
987.21,125.0
987.27,117.0
987.34,137.0
987.4,144.0
987.46,115.0
987.52,122.0
987.59,138.0
987.65,144.0
987.71,142.0
987.78,140.0
987.84,136.0
987.9,134.0
987.97,139.0
988.03,142.0
988.09,126.0
988.15,127.0
988.22,150.0
988.28,160.0
988.34,135.0
988.41,132.0
988.47,121.0
988.53,124.0
988.6,99.0
988.66,113.0
988.72,125.0
988.78,151.0
988.85,134.0
988.91,129.0
988.97,135.0
989.04,127.0
989.1,134.0
989.16,141.0
989.23,119.0
989.29,100.0
989.35,102.0
989.41,121.0
989.48,108.0
989.54,100.0
989.6,86.0
989.67,102.0
989.73,128.0
989.79,118.0
989.86,110.0
989.92,125.0
989.98,103.0
990.04,117.0
990.11,111.0
990.17,88.0
990.23,76.0
990.3,74.0
990.36,74.0
990.42,75.0
990.49,90.0
990.55,89.0
990.61,89.0
990.67,95.0
990.74,93.0
990.8,85.0
990.86,89.0
990.93,81.0
990.99,75.0
991.05,107.0
991.12,86.0
991.18,78.0
991.24,99.0
991.3,103.0
991.37,103.0
991.43,113.0
991.49,129.0
991.56,111.0
991.62,132.0
991.68,133.0
991.75,128.0
991.81,125.0
991.87,113.0
991.93,113.0
992.0,134.0
992.06,132.0
992.12,116.0
992.19,132.0
992.25,136.0
992.31,133.0
992.38,122.0
992.44,149.0
992.5,143.0
992.56,135.0
992.63,126.0
992.69,136.0
992.75,139.0
992.82,159.0
992.88,144.0
992.94,143.0
993.01,154.0
993.07,149.0
993.13,172.0
993.19,188.0
993.26,177.0
993.32,161.0
993.38,176.0
993.45,171.0
993.51,173.0
993.57,193.0
993.64,207.0
993.7,201.0
993.76,203.0
993.82,186.0
993.89,208.0
993.95,193.0
994.01,174.0
994.08,189.0
994.14,189.0
994.2,195.0
994.27,209.0
994.33,235.0
994.39,199.0
994.45,211.0
994.52,197.0
994.58,180.0
994.64,191.0
994.71,188.0
994.77,184.0
994.83,190.0
994.9,177.0
994.96,182.0
995.02,166.0
995.08,163.0
995.15,173.0
995.21,181.0
995.27,171.0
995.34,145.0
995.4,141.0
995.46,133.0
995.53,133.0
995.59,135.0
995.65,160.0
995.71,150.0
995.78,168.0
995.84,148.0
995.9,122.0
995.97,152.0
996.03,153.0
996.09,148.0
996.16,149.0
996.22,158.0
996.28,156.0
996.34,171.0
996.41,180.0
996.47,178.0
996.53,173.0
996.6,185.0
996.66,153.0
996.72,169.0
996.79,172.0
996.85,179.0
996.91,164.0
996.97,156.0
997.04,172.0
997.1,163.0
997.16,166.0
997.23,148.0
997.29,150.0
997.35,165.0
997.42,151.0
997.48,134.0
997.54,160.0
997.6,172.0
997.67,150.0
997.73,164.0
997.79,158.0
997.86,153.0
997.92,165.0
997.98,138.0
998.05,155.0
998.11,144.0
998.17,144.0
998.23,171.0
998.3,144.0
998.36,158.0
998.42,161.0
998.49,132.0
998.55,147.0
998.61,153.0
998.68,158.0
998.74,146.0
998.8,116.0
998.86,141.0
998.93,136.0
998.99,142.0
999.05,129.0
999.12,105.0
999.18,118.0
999.24,100.0
999.31,119.0
999.37,122.0
999.43,112.0
999.49,125.0
999.56,112.0
999.62,110.0
999.68,110.0
999.75,96.0
999.81,107.0
999.87,90.0
