timestamp,intensity
0,91.0
0.06,99.0
0.13,92.0
0.19,78.0
0.25,78.0
0.32,91.0
0.38,96.0
0.44,88.0
0.5,102.0
0.57,66.0
0.63,71.0
0.69,81.0
0.76,80.0
0.82,87.0
0.88,77.0
0.94,98.0
1.01,115.0
1.07,119.0
1.13,108.0
1.2,86.0
1.26,95.0
1.32,104.0
1.39,95.0
1.45,107.0
1.51,125.0
1.57,113.0
1.64,107.0
1.7,106.0
1.76,110.0
1.83,89.0
1.89,82.0
1.95,82.0
2.02,48.0
2.08,47.0
2.14,70.0
2.2,77.0
2.27,67.0
2.33,74.0
2.39,70.0
2.46,84.0
2.52,95.0
2.58,103.0
2.65,92.0
2.71,84.0
2.77,115.0
2.84,94.0
2.9,78.0
2.96,92.0
3.02,95.0
3.09,116.0
3.15,116.0
3.21,103.0
3.28,96.0
3.34,100.0
3.4,95.0
3.47,92.0
3.53,110.0
3.59,116.0
3.65,116.0
3.72,111.0
3.78,116.0
3.84,114.0
3.91,112.0
3.97,129.0
4.03,92.0
4.1,110.0
4.16,99.0
4.22,117.0
4.28,105.0
4.35,99.0
4.41,128.0
4.47,104.0
4.54,91.0
4.6,114.0
4.66,142.0
4.73,127.0
4.79,105.0
4.85,117.0
4.91,113.0
4.98,128.0
5.04,114.0
5.1,113.0
5.17,109.0
5.23,101.0
5.29,94.0
5.35,112.0
5.42,109.0
5.48,94.0
5.54,89.0
5.61,97.0
5.67,103.0
5.73,98.0
5.8,96.0
5.86,83.0
5.92,75.0
5.98,108.0
6.05,118.0
6.11,83.0
6.17,98.0
6.24,117.0
6.3,104.0
6.36,97.0
6.43,104.0
6.49,107.0
6.55,93.0
6.61,122.0
6.68,80.0
6.74,53.0
6.8,84.0
6.87,100.0
6.93,100.0
6.99,102.0
7.06,107.0
7.12,100.0
7.18,115.0
7.24,110.0
7.31,114.0
7.37,141.0
7.43,156.0
7.5,146.0
7.56,130.0
7.62,149.0
7.69,137.0
7.75,154.0
7.81,152.0
7.87,149.0
7.94,142.0
8.0,187.0
8.06,192.0
8.13,172.0
8.19,167.0
8.25,157.0
8.32,139.0
8.38,143.0
8.44,147.0
8.5,145.0
8.57,138.0
8.63,125.0
8.69,128.0
8.76,123.0
8.82,102.0
8.88,81.0
8.95,73.0
9.01,73.0
9.07,76.0
9.13,64.0
9.2,87.0
9.26,80.0
9.32,73.0
9.39,69.0
9.45,67.0
9.51,76.0
9.58,83.0
9.64,88.0
9.7,73.0
9.77,78.0
9.83,87.0
9.89,83.0
9.95,73.0
10.02,72.0
10.08,87.0
10.14,99.0
10.21,109.0
10.27,111.0
10.33,113.0
10.4,112.0
10.46,126.0
10.52,120.0
10.58,117.0
10.65,98.0
10.71,104.0
10.77,117.0
10.84,101.0
10.9,100.0
10.96,114.0
11.03,122.0
11.09,95.0
11.15,93.0
11.21,125.0
11.28,117.0
11.34,129.0
11.4,143.0
11.47,150.0
11.53,119.0
11.59,135.0
11.66,149.0
11.72,147.0
11.78,146.0
11.84,147.0
11.91,126.0
11.97,143.0
12.03,138.0
12.1,128.0
12.16,105.0
12.22,113.0
12.29,99.0
12.35,123.0
12.41,128.0
12.47,124.0
12.54,122.0
12.6,115.0
12.66,112.0
12.73,111.0
12.79,141.0
12.85,133.0
12.92,114.0
12.98,126.0
13.04,124.0
13.1,132.0
13.17,127.0
13.23,117.0
13.29,122.0
13.36,86.0
13.42,130.0
13.48,123.0
13.55,126.0
13.61,135.0
13.67,119.0
13.73,115.0
13.8,111.0
13.86,87.0
13.92,95.0
13.99,96.0
14.05,101.0
14.11,99.0
14.18,100.0
14.24,100.0
14.3,99.0
14.36,109.0
14.43,123.0
14.49,116.0
14.55,128.0
14.62,122.0
14.68,114.0
14.74,123.0
14.81,124.0
14.87,132.0
14.93,144.0
14.99,138.0
15.06,138.0
15.12,143.0
15.18,109.0
15.25,109.0
15.31,121.0
15.37,114.0
15.44,124.0
15.5,129.0
15.56,119.0
15.62,113.0
15.69,104.0
15.75,74.0
15.81,69.0
15.88,72.0
15.94,81.0
16.0,90.0
16.07,104.0
16.13,73.0
16.19,68.0
16.25,64.0
16.32,89.0
16.38,68.0
16.44,76.0
16.51,79.0
16.57,50.0
16.63,34.0
16.7,31.0
16.76,42.0
16.82,72.0
16.88,89.0
16.95,59.0
17.01,63.0
17.07,84.0
17.14,56.0
17.2,55.0
17.26,47.0
17.33,61.0
17.39,69.0
17.45,82.0
17.51,68.0
17.58,72.0
17.64,75.0
17.7,59.0
17.77,54.0
17.83,72.0
17.89,53.0
17.96,45.0
18.02,51.0
18.08,47.0
18.14,50.0
18.21,57.0
18.27,55.0
18.33,56.0
18.4,68.0
18.46,76.0
18.52,84.0
18.59,92.0
18.65,92.0
18.71,102.0
18.77,103.0
18.84,97.0
18.9,93.0
18.96,80.0
19.03,85.0
19.09,81.0
19.15,87.0
19.22,119.0
19.28,102.0
19.34,84.0
19.4,95.0
19.47,94.0
19.53,76.0
19.59,54.0
19.66,87.0
19.72,80.0
19.78,69.0
19.84,76.0
19.91,91.0
19.97,93.0
20.03,75.0
20.1,80.0
20.16,83.0
20.22,77.0
20.29,53.0
20.35,59.0
20.41,54.0
20.47,47.0
20.54,40.0
20.6,50.0
20.66,66.0
20.73,40.0
20.79,29.0
20.85,41.0
20.92,25.0
20.98,25.0
21.04,15.0
21.1,29.0
21.17,24.0
21.23,0.0
21.29,9.0
21.36,5.0
21.42,12.0
21.48,-4.0
21.55,8.0
21.61,1.0
21.67,-11.0
21.73,-12.0
21.8,-13.0
21.86,8.0
21.92,3.0
21.99,-8.0
22.05,-8.0
22.11,-34.0
22.18,-8.0
22.24,3.0
22.3,12.0
22.36,9.0
22.43,6.0
22.49,35.0
22.55,33.0
22.62,11.0
22.68,6.0
22.74,25.0
22.81,34.0
22.87,45.0
22.93,31.0
22.99,12.0
23.06,22.0
23.12,-6.0
23.18,14.0
23.25,22.0
23.31,15.0
23.37,8.0
23.44,-13.0
23.5,4.0
23.56,50.0
23.62,30.0
23.69,25.0
23.75,18.0
23.81,37.0
23.88,55.0
23.94,54.0
24.0,56.0
24.07,64.0
24.13,63.0
24.19,89.0
24.25,80.0
24.32,67.0
24.38,57.0
24.44,64.0
24.51,83.0
24.57,82.0
24.63,77.0
24.7,79.0
24.76,87.0
24.82,77.0
24.88,68.0
24.95,63.0
25.01,75.0
25.07,88.0
25.14,99.0
25.2,92.0
25.26,93.0
25.33,92.0
25.39,88.0
25.45,107.0
25.51,92.0
25.58,71.0
25.64,52.0
25.7,47.0
25.77,70.0
25.83,59.0
25.89,60.0
25.96,80.0
26.02,65.0
26.08,52.0
26.14,28.0
26.21,31.0
26.27,44.0
26.33,39.0
26.4,47.0
26.46,30.0
26.52,36.0
26.59,23.0
26.65,74.0
26.71,66.0
26.77,66.0
26.84,77.0
26.9,66.0
26.96,76.0
27.03,71.0
27.09,70.0
27.15,72.0
27.22,93.0
27.28,84.0
27.34,97.0
27.4,92.0
27.47,81.0
27.53,75.0
27.59,53.0
27.66,63.0
27.72,56.0
27.78,56.0
27.85,63.0
27.91,64.0
27.97,49.0
28.03,23.0
28.1,46.0
28.16,51.0
28.22,59.0
28.29,70.0
28.35,66.0
28.41,62.0
28.48,66.0
28.54,57.0
28.6,45.0
28.66,60.0
28.73,59.0
28.79,74.0
28.85,82.0
28.92,87.0
28.98,76.0
29.04,68.0
29.11,79.0
29.17,71.0
29.23,78.0
29.29,63.0
29.36,89.0
29.42,74.0
29.48,67.0
29.55,57.0
29.61,66.0
29.67,45.0
29.74,40.0
29.8,50.0
29.86,50.0
29.92,60.0
29.99,41.0
30.05,44.0
30.11,48.0
30.18,41.0
30.24,48.0
30.3,40.0
30.37,48.0
30.43,41.0
30.49,44.0
30.55,29.0
30.62,58.0
30.68,56.0
30.74,74.0
30.81,63.0
30.87,53.0
30.93,59.0
31.0,55.0
31.06,62.0
31.12,74.0
31.18,78.0
31.25,59.0
31.31,78.0
31.37,59.0
31.44,67.0
31.5,74.0
31.56,66.0
31.63,81.0
31.69,87.0
31.75,67.0
31.81,70.0
31.88,88.0
31.94,87.0
32.0,89.0
32.07,86.0
32.13,87.0
32.19,73.0
32.26,48.0
32.32,55.0
32.38,53.0
32.44,33.0
32.51,9.0
32.57,40.0
32.63,35.0
32.7,40.0
32.76,25.0
32.82,28.0
32.89,47.0
32.95,40.0
33.01,17.0
33.07,36.0
33.14,31.0
33.2,11.0
33.26,51.0
33.33,25.0
33.39,17.0
33.45,30.0
33.52,24.0
33.58,32.0
33.64,25.0
33.7,26.0
33.77,18.0
33.83,21.0
33.89,32.0
33.96,21.0
34.02,11.0
34.08,15.0
34.15,25.0
34.21,4.0
34.27,37.0
34.33,42.0
34.4,30.0
34.46,10.0
34.52,3.0
34.59,3.0
34.65,6.0
34.71,-4.0
34.78,4.0
34.84,-1.0
34.9,6.0
34.96,1.0
35.03,-16.0
35.09,-1.0
35.15,15.0
35.22,-6.0
35.28,-1.0
35.34,3.0
35.41,-16.0
35.47,0.0
35.53,-10.0
35.59,-31.0
35.66,-18.0
35.72,-10.0
35.78,-22.0
35.85,-24.0
35.91,-13.0
35.97,-31.0
36.04,-32.0
36.1,-20.0
36.16,0.0
36.22,-45.0
36.29,-23.0
36.35,-14.0
36.41,-19.0
36.48,5.0
36.54,9.0
36.6,15.0
36.67,24.0
36.73,18.0
36.79,9.0
36.85,9.0
36.92,9.0
36.98,20.0
37.04,23.0
37.11,47.0
37.17,41.0
37.23,36.0
37.3,44.0
37.36,47.0
37.42,56.0
37.48,46.0
37.55,44.0
37.61,64.0
37.67,35.0
37.74,37.0
37.8,38.0
37.86,27.0
37.93,25.0
37.99,52.0
38.05,67.0
38.12,55.0
38.18,50.0
38.24,52.0
38.3,61.0
38.37,65.0
38.43,55.0
38.49,52.0
38.56,54.0
38.62,56.0
38.68,53.0
38.75,59.0
38.81,64.0
38.87,59.0
38.93,52.0
39.0,79.0
39.06,68.0
39.12,38.0
39.19,68.0
39.25,68.0
39.31,71.0
39.38,70.0
39.44,85.0
39.5,93.0
39.56,88.0
39.63,77.0
39.69,77.0
39.75,86.0
39.82,69.0
39.88,69.0
39.94,62.0
40.01,82.0
40.07,81.0
40.13,89.0
40.19,74.0
40.26,74.0
40.32,82.0
40.38,85.0
40.45,104.0
40.51,81.0
40.57,67.0
40.64,67.0
40.7,83.0
40.76,80.0
40.82,60.0
40.89,64.0
40.95,74.0
41.01,96.0
41.08,96.0
41.14,65.0
41.2,67.0
41.27,68.0
41.33,64.0
41.39,75.0
41.45,81.0
41.52,57.0
41.58,59.0
41.64,79.0
41.71,66.0
41.77,71.0
41.83,81.0
41.9,45.0
41.96,42.0
42.02,50.0
42.08,42.0
42.15,74.0
42.21,53.0
42.27,52.0
42.34,61.0
42.4,54.0
42.46,47.0
42.53,33.0
42.59,26.0
42.65,34.0
42.71,32.0
42.78,41.0
42.84,29.0
42.9,31.0
42.97,43.0
43.03,44.0
43.09,63.0
43.16,61.0
43.22,87.0
43.28,87.0
43.34,72.0
43.41,58.0
43.47,74.0
43.53,79.0
43.6,85.0
43.66,105.0
43.72,108.0
43.79,105.0
43.85,92.0
43.91,99.0
43.97,99.0
44.04,98.0
44.1,105.0
44.16,91.0
44.23,88.0
44.29,92.0
44.35,66.0
44.42,80.0
44.48,49.0
44.54,70.0
44.6,84.0
44.67,73.0
44.73,75.0
44.79,55.0
44.86,28.0
44.92,40.0
44.98,51.0
45.05,52.0
45.11,75.0
45.17,56.0
45.23,69.0
45.3,61.0
45.36,54.0
45.42,59.0
45.49,58.0
45.55,66.0
45.61,71.0
45.68,67.0
45.74,61.0
45.8,71.0
45.86,69.0
45.93,61.0
45.99,67.0
46.05,88.0
46.12,92.0
46.18,93.0
46.24,80.0
46.31,91.0
46.37,82.0
46.43,72.0
46.49,74.0
46.56,67.0
46.62,67.0
46.68,69.0
46.75,80.0
46.81,78.0
46.87,76.0
46.94,83.0
47.0,74.0
47.06,80.0
47.12,83.0
47.19,92.0
47.25,84.0
47.31,76.0
47.38,89.0
47.44,59.0
47.5,81.0
47.57,72.0
47.63,72.0
47.69,71.0
47.75,69.0
47.82,79.0
47.88,76.0
47.94,85.0
48.01,64.0
48.07,60.0
48.13,66.0
48.2,65.0
48.26,83.0
48.32,85.0
48.38,73.0
48.45,90.0
48.51,79.0
48.57,99.0
48.64,96.0
48.7,83.0
48.76,105.0
48.83,89.0
48.89,85.0
48.95,94.0
49.01,91.0
49.08,94.0
49.14,78.0
49.2,108.0
49.27,109.0
49.33,129.0
49.39,140.0
49.46,132.0
49.52,108.0
49.58,125.0
49.64,120.0
49.71,91.0
49.77,107.0
49.83,107.0
49.9,96.0
49.96,74.0
50.02,81.0
50.09,86.0
50.15,92.0
50.21,111.0
50.27,130.0
50.34,118.0
50.4,118.0
50.46,138.0
50.53,124.0
50.59,138.0
50.65,125.0
50.72,142.0
50.78,135.0
50.84,111.0
50.9,111.0
50.97,127.0
51.03,122.0
51.09,111.0
51.16,120.0
51.22,111.0
51.28,115.0
51.35,117.0
51.41,120.0
51.47,114.0
51.53,136.0
51.6,129.0
51.66,97.0
51.72,125.0
51.79,112.0
51.85,124.0
51.91,107.0
51.98,102.0
52.04,127.0
52.1,97.0
52.16,104.0
52.23,100.0
52.29,86.0
52.35,79.0
52.42,88.0
52.48,93.0
52.54,88.0
52.61,74.0
52.67,87.0
52.73,88.0
52.79,80.0
52.86,74.0
52.92,92.0
52.98,96.0
53.05,104.0
53.11,108.0
53.17,114.0
53.24,111.0
53.3,107.0
53.36,119.0
53.42,82.0
53.49,58.0
53.55,75.0
53.61,61.0
53.68,42.0
53.74,47.0
53.8,50.0
53.87,26.0
53.93,21.0
53.99,33.0
54.05,23.0
54.12,8.0
54.18,2.0
54.24,2.0
54.31,-3.0
54.37,-2.0
54.43,-9.0
54.5,1.0
54.56,15.0
54.62,-5.0
54.68,5.0
54.75,9.0
54.81,5.0
54.87,-5.0
54.94,-20.0
55.0,7.0
55.06,13.0
55.13,-8.0
55.19,8.0
55.25,13.0
55.31,19.0
55.38,0.0
55.44,0.0
55.5,2.0
55.57,-7.0
55.63,-18.0
55.69,17.0
55.76,-8.0
55.82,19.0
55.88,20.0
55.94,34.0
56.01,41.0
56.07,42.0
56.13,41.0
56.2,23.0
56.26,19.0
56.32,40.0
56.39,27.0
56.45,33.0
56.51,27.0
56.57,52.0
56.64,28.0
56.7,32.0
56.76,46.0
56.83,31.0
56.89,60.0
56.95,43.0
57.02,43.0
57.08,49.0
57.14,68.0
57.2,50.0
57.27,41.0
57.33,58.0
57.39,58.0
57.46,39.0
57.52,53.0
57.58,43.0
57.65,58.0
57.71,52.0
57.77,17.0
57.83,33.0
57.9,31.0
57.96,47.0
58.02,49.0
58.09,41.0
58.15,62.0
58.21,33.0
58.28,28.0
58.34,37.0
58.4,41.0
58.46,27.0
58.53,24.0
58.59,29.0
58.65,42.0
58.72,43.0
58.78,20.0
58.84,13.0
58.91,17.0
58.97,31.0
59.03,14.0
59.09,17.0
59.16,26.0
59.22,17.0
59.28,13.0
59.35,14.0
59.41,4.0
59.47,3.0
59.54,-2.0
59.6,19.0
59.66,15.0
59.72,1.0
59.79,16.0
59.85,0.0
59.91,26.0
59.98,9.0
60.04,19.0
60.1,8.0
60.17,16.0
60.23,1.0
60.29,2.0
60.35,3.0
60.42,6.0
60.48,2.0
60.54,12.0
60.61,24.0
60.67,3.0
60.73,17.0
60.8,13.0
60.86,33.0
60.92,26.0
60.98,36.0
61.05,35.0
61.11,30.0
61.17,17.0
61.24,12.0
61.3,8.0
61.36,21.0
61.43,9.0
61.49,10.0
61.55,31.0
61.61,25.0
61.68,34.0
61.74,36.0
61.8,25.0
61.87,24.0
61.93,37.0
61.99,42.0
62.06,23.0
62.12,2.0
62.18,32.0
62.24,30.0
62.31,38.0
62.37,38.0
62.43,60.0
62.5,61.0
62.56,49.0
62.62,41.0
62.69,44.0
62.75,45.0
62.81,19.0
62.87,39.0
62.94,41.0
63.0,58.0
63.06,60.0
63.13,75.0
63.19,70.0
63.25,63.0
63.32,73.0
63.38,61.0
63.44,64.0
63.5,83.0
63.57,74.0
63.63,97.0
63.69,97.0
63.76,105.0
63.82,127.0
63.88,127.0
63.95,104.0
64.01,114.0
64.07,100.0
64.13,94.0
64.2,97.0
64.26,101.0
64.32,113.0
64.39,100.0
64.45,110.0
64.51,126.0
64.58,117.0
64.64,100.0
64.7,92.0
64.76,90.0
64.83,63.0
64.89,85.0
64.95,89.0
65.02,82.0
65.08,77.0
65.14,76.0
65.21,81.0
65.27,81.0
65.33,100.0
65.39,108.0
65.46,100.0
65.52,102.0
65.58,96.0
65.65,84.0
65.71,98.0
65.77,94.0
65.84,75.0
65.9,79.0
65.96,76.0
66.02,75.0
66.09,64.0
66.15,64.0
66.21,51.0
66.28,31.0
66.34,45.0
66.4,48.0
66.47,36.0
66.53,38.0
66.59,3.0
66.65,25.0
66.72,28.0
66.78,32.0
66.84,41.0
66.91,20.0
66.97,13.0
67.03,-14.0
67.1,-18.0
67.16,-17.0
67.22,-17.0
67.28,-15.0
67.35,-1.0
67.41,-7.0
67.47,6.0
67.54,-1.0
67.6,-1.0
67.66,3.0
67.73,-11.0
67.79,8.0
67.85,27.0
67.91,22.0
67.98,14.0
68.04,12.0
68.1,12.0
68.17,22.0
68.23,5.0
68.29,15.0
68.36,20.0
68.42,13.0
68.48,-1.0
68.54,-1.0
68.61,-22.0
68.67,-6.0
68.73,0.0
68.8,-3.0
68.86,-10.0
68.92,-10.0
68.99,-4.0
69.05,-11.0
69.11,8.0
69.17,-15.0
69.24,1.0
69.3,-9.0
69.36,-5.0
69.43,0.0
69.49,-8.0
69.55,7.0
69.62,12.0
69.68,13.0
69.74,6.0
69.8,-18.0
69.87,-20.0
69.93,-5.0
69.99,-3.0
70.06,-21.0
70.12,-3.0
70.18,7.0
70.25,-5.0
70.31,-25.0
70.37,-17.0
70.43,-32.0
70.5,-23.0
70.56,-48.0
70.62,-55.0
70.69,-17.0
70.75,-26.0
70.81,-44.0
70.88,-44.0
70.94,-30.0
71.0,-37.0
71.06,-45.0
71.13,-26.0
71.19,-34.0
71.25,-24.0
71.32,-27.0
71.38,-30.0
71.44,-1.0
71.51,-8.0
71.57,-25.0
71.63,-26.0
71.69,-27.0
71.76,-11.0
71.82,-11.0
71.88,-21.0
71.95,0.0
72.01,7.0
72.07,-7.0
72.14,-27.0
72.2,-13.0
72.26,-13.0
72.32,-13.0
72.39,-24.0
72.45,-16.0
72.51,-26.0
72.58,-45.0
72.64,-33.0
72.7,-48.0
72.77,-31.0
72.83,-43.0
72.89,-45.0
72.95,-32.0
73.02,-56.0
73.08,-38.0
73.14,-53.0
73.21,-32.0
73.27,-34.0
73.33,-23.0
73.4,-17.0
73.46,-22.0
73.52,8.0
73.58,2.0
73.65,-16.0
73.71,-12.0
73.77,-10.0
73.84,-10.0
73.9,-6.0
73.96,25.0
74.03,9.0
74.09,-13.0
74.15,3.0
74.21,1.0
74.28,-4.0
74.34,10.0
74.4,4.0
74.47,15.0
74.53,24.0
74.59,25.0
74.66,32.0
74.72,28.0
74.78,27.0
74.84,-3.0
74.91,33.0
74.97,27.0
75.03,43.0
75.1,23.0
75.16,35.0
75.22,46.0
75.29,36.0
75.35,38.0
75.41,19.0
75.47,49.0
75.54,14.0
75.6,30.0
75.66,31.0
75.73,34.0
75.79,33.0
75.85,61.0
75.92,61.0
75.98,58.0
76.04,50.0
76.1,74.0
76.17,97.0
76.23,89.0
76.29,82.0
76.36,70.0
76.42,84.0
76.48,82.0
76.55,91.0
76.61,104.0
76.67,98.0
76.73,90.0
76.8,86.0
76.86,79.0
76.92,76.0
76.99,74.0
77.05,72.0
77.11,45.0
77.18,75.0
77.24,50.0
77.3,45.0
77.36,58.0
77.43,71.0
77.49,90.0
77.55,82.0
77.62,75.0
77.68,61.0
77.74,72.0
77.81,82.0
77.87,82.0
77.93,75.0
77.99,94.0
78.06,95.0
78.12,105.0
78.18,110.0
78.25,116.0
78.31,119.0
78.37,111.0
78.44,129.0
78.5,129.0
78.56,123.0
78.62,126.0
78.69,122.0
78.75,136.0
78.81,127.0
78.88,124.0
78.94,142.0
79.0,124.0
79.07,127.0
79.13,105.0
79.19,111.0
79.25,93.0
79.32,100.0
79.38,118.0
79.44,91.0
79.51,104.0
79.57,94.0
79.63,84.0
79.7,85.0
79.76,72.0
79.82,71.0
79.88,66.0
79.95,88.0
80.01,77.0
80.07,93.0
80.14,69.0
80.2,61.0
80.26,78.0
80.33,69.0
80.39,48.0
80.45,77.0
80.51,82.0
80.58,76.0
80.64,82.0
80.7,104.0
80.77,101.0
80.83,101.0
80.89,88.0
80.96,90.0
81.02,104.0
81.08,104.0
81.14,114.0
81.21,116.0
81.27,115.0
81.33,113.0
81.4,118.0
81.46,122.0
81.52,107.0
81.59,91.0
81.65,87.0
81.71,83.0
81.77,93.0
81.84,104.0
81.9,115.0
81.96,119.0
82.03,106.0
82.09,104.0
82.15,110.0
82.22,110.0
82.28,94.0
82.34,103.0
82.4,105.0
82.47,85.0
82.53,104.0
82.59,109.0
82.66,111.0
82.72,124.0
82.78,117.0
82.85,123.0
82.91,124.0
82.97,129.0
83.03,130.0
83.1,148.0
83.16,152.0
83.22,143.0
83.29,158.0
83.35,142.0
83.41,146.0
83.48,126.0
83.54,117.0
83.6,130.0
83.66,119.0
83.73,104.0
83.79,108.0
83.85,116.0
83.92,108.0
83.98,108.0
84.04,98.0
84.11,105.0
84.17,100.0
84.23,111.0
84.29,102.0
84.36,97.0
84.42,102.0
84.48,102.0
84.55,104.0
84.61,102.0
84.67,108.0
84.74,115.0
84.8,133.0
84.86,103.0
84.92,118.0
84.99,127.0
85.05,135.0
85.11,134.0
85.18,130.0
85.24,156.0
85.3,137.0
85.37,159.0
85.43,154.0
85.49,131.0
85.55,168.0
85.62,163.0
85.68,140.0
85.74,168.0
85.81,163.0
85.87,183.0
85.93,159.0
86.0,173.0
86.06,143.0
86.12,135.0
86.18,130.0
86.25,135.0
86.31,120.0
86.37,111.0
86.44,101.0
86.5,85.0
86.56,92.0
86.63,86.0
86.69,106.0
86.75,78.0
86.81,88.0
86.88,91.0
86.94,97.0
87.0,112.0
87.07,117.0
87.13,111.0
87.19,94.0
87.26,93.0
87.32,99.0
87.38,107.0
87.44,91.0
87.51,110.0
87.57,84.0
87.63,91.0
87.7,71.0
87.76,81.0
87.82,81.0
87.89,78.0
87.95,64.0
88.01,55.0
88.07,55.0
88.14,41.0
88.2,50.0
88.26,62.0
88.33,68.0
88.39,53.0
88.45,39.0
88.52,57.0
88.58,51.0
88.64,60.0
88.7,60.0
88.77,55.0
88.83,72.0
88.89,60.0
88.96,47.0
89.02,62.0
89.08,49.0
89.15,51.0
89.21,67.0
89.27,50.0
89.33,53.0
89.4,75.0
89.46,51.0
89.52,62.0
89.59,50.0
89.65,52.0
89.71,55.0
89.78,57.0
89.84,43.0
89.9,42.0
89.96,50.0
90.03,63.0
90.09,73.0
90.15,52.0
90.22,55.0
90.28,68.0
90.34,47.0
90.41,45.0
90.47,48.0
90.53,44.0
90.59,45.0
90.66,61.0
90.72,52.0
90.78,55.0
90.85,55.0
90.91,41.0
90.97,20.0
91.04,30.0
91.1,16.0
91.16,9.0
91.22,25.0
91.29,4.0
91.35,-3.0
91.41,-3.0
91.48,-4.0
91.54,3.0
91.6,-24.0
91.67,-13.0
91.73,-15.0
91.79,-17.0
91.85,3.0
91.92,-10.0
91.98,4.0
92.04,-15.0
92.11,2.0
92.17,-16.0
92.23,-17.0
92.3,5.0
92.36,-16.0
92.42,-9.0
92.48,-14.0
92.55,-15.0
92.61,-13.0
92.67,-9.0
92.74,-15.0
92.8,-28.0
92.86,-46.0
92.93,-43.0
92.99,-38.0
93.05,-51.0
93.11,-54.0
93.18,-54.0
93.24,-74.0
93.3,-66.0
93.37,-79.0
93.43,-71.0
93.49,-71.0
93.56,-63.0
93.62,-61.0
93.68,-61.0
93.74,-53.0
93.81,-60.0
93.87,-49.0
93.93,-76.0
94.0,-69.0
94.06,-66.0
94.12,-62.0
94.19,-81.0
94.25,-101.0
94.31,-85.0
94.37,-82.0
94.44,-80.0
94.5,-100.0
94.56,-95.0
94.63,-98.0
94.69,-109.0
94.75,-103.0
94.82,-98.0
94.88,-96.0
94.94,-68.0
95.0,-82.0
95.07,-85.0
95.13,-83.0
95.19,-87.0
95.26,-93.0
95.32,-100.0
95.38,-85.0
95.45,-92.0
95.51,-98.0
95.57,-97.0
95.63,-70.0
95.7,-87.0
95.76,-90.0
95.82,-85.0
95.89,-94.0
95.95,-96.0
96.01,-92.0
96.08,-99.0
96.14,-77.0
96.2,-79.0
96.26,-86.0
96.33,-66.0
96.39,-96.0
96.45,-97.0
96.52,-84.0
96.58,-70.0
96.64,-86.0
96.71,-77.0
96.77,-71.0
96.83,-72.0
96.89,-74.0
96.96,-69.0
97.02,-82.0
97.08,-79.0
97.15,-67.0
97.21,-56.0
97.27,-53.0
97.34,-35.0
97.4,-22.0
97.46,-32.0
97.52,-15.0
97.59,-6.0
97.65,-12.0
97.71,-6.0
97.78,-3.0
97.84,-4.0
97.9,11.0
97.97,5.0
98.03,8.0
98.09,27.0
98.15,42.0
98.22,30.0
98.28,22.0
98.34,9.0
98.41,1.0
98.47,6.0
98.53,14.0
98.6,2.0
98.66,12.0
98.72,-10.0
98.78,18.0
98.85,-3.0
98.91,-7.0
98.97,-7.0
99.04,-1.0
99.1,5.0
99.16,13.0
99.23,-17.0
99.29,-26.0
99.35,-15.0
99.41,-20.0
99.48,-1.0
99.54,-16.0
99.6,-16.0
99.67,16.0
99.73,24.0
99.79,21.0
99.86,13.0
99.92,9.0
99.98,6.0
100.04,13.0
100.11,38.0
100.17,20.0
100.23,19.0
100.3,15.0
100.36,15.0
100.42,8.0
100.49,19.0
100.55,12.0
100.61,25.0
100.67,25.0
100.74,26.0
100.8,4.0
100.86,33.0
100.93,33.0
100.99,20.0
101.05,20.0
101.12,22.0
101.18,23.0
101.24,16.0
101.3,17.0
101.37,25.0
101.43,21.0
101.49,44.0
101.56,35.0
101.62,38.0
101.68,27.0
101.75,52.0
101.81,44.0
101.87,66.0
101.93,79.0
102.0,75.0
102.06,75.0
102.12,79.0
102.19,104.0
102.25,120.0
102.31,130.0
102.38,142.0
102.44,152.0
102.5,151.0
102.56,146.0
102.63,147.0
102.69,155.0
102.75,166.0
102.82,181.0
102.88,184.0
102.94,184.0
103.01,185.0
103.07,195.0
103.13,207.0
103.19,188.0
103.26,203.0
103.32,178.0
103.38,180.0
103.45,179.0
103.51,173.0
103.57,181.0
103.64,180.0
103.7,172.0
103.76,160.0
103.82,147.0
103.89,160.0
103.95,151.0
104.01,154.0
104.08,158.0
104.14,146.0
104.2,143.0
104.27,155.0
104.33,154.0
104.39,151.0
104.45,157.0
104.52,161.0
104.58,146.0
104.64,156.0
104.71,172.0
104.77,176.0
104.83,187.0
104.9,168.0
104.96,181.0
105.02,163.0
105.08,162.0
105.15,138.0
105.21,111.0
105.27,140.0
105.34,141.0
105.4,134.0
105.46,142.0
105.53,144.0
105.59,130.0
105.65,144.0
105.71,123.0
105.78,119.0
105.84,106.0
105.9,107.0
105.97,98.0
106.03,118.0
106.09,111.0
106.16,94.0
106.22,102.0
106.28,99.0
106.34,119.0
106.41,122.0
106.47,128.0
106.53,122.0
106.6,106.0
106.66,122.0
106.72,126.0
106.79,146.0
106.85,157.0
106.91,171.0
106.97,160.0
107.04,149.0
107.1,138.0
107.16,133.0
107.23,160.0
107.29,133.0
107.35,138.0
107.42,154.0
107.48,157.0
107.54,148.0
107.6,135.0
107.67,122.0
107.73,131.0
107.79,135.0
107.86,122.0
107.92,140.0
107.98,149.0
108.05,142.0
108.11,135.0
108.17,122.0
108.23,126.0
108.3,129.0
108.36,145.0
108.42,149.0
108.49,132.0
108.55,140.0
108.61,124.0
108.68,110.0
108.74,120.0
108.8,113.0
108.86,91.0
108.93,113.0
108.99,118.0
109.05,96.0
109.12,110.0
109.18,116.0
109.24,119.0
109.31,106.0
109.37,122.0
109.43,113.0
109.49,81.0
109.56,85.0
109.62,107.0
109.68,99.0
109.75,84.0
109.81,103.0
109.87,114.0
109.94,99.0
110.0,103.0
110.06,86.0
110.12,71.0
110.19,86.0
110.25,96.0
110.31,95.0
110.38,69.0
110.44,94.0
110.5,69.0
110.57,48.0
110.63,56.0
110.69,58.0
110.75,49.0
110.82,71.0
110.88,54.0
110.94,47.0
111.01,81.0
111.07,63.0
111.13,59.0
111.2,60.0
111.26,78.0
111.32,80.0
111.38,80.0
111.45,96.0
111.51,85.0
111.57,96.0
111.64,95.0
111.7,101.0
111.76,110.0
111.83,106.0
111.89,122.0
111.95,124.0
112.01,129.0
112.08,137.0
112.14,127.0
112.2,133.0
112.27,131.0
112.33,114.0
112.39,113.0
112.46,118.0
112.52,136.0
112.58,111.0
112.64,114.0
112.71,117.0
112.77,124.0
112.83,118.0
112.9,111.0
112.96,130.0
113.02,126.0
113.09,127.0
113.15,133.0
113.21,106.0
113.27,122.0
113.34,143.0
113.4,157.0
113.46,165.0
113.53,145.0
113.59,149.0
113.65,147.0
113.72,151.0
113.78,152.0
113.84,162.0
113.9,162.0
113.97,172.0
114.03,164.0
114.09,159.0
114.16,153.0
114.22,135.0
114.28,115.0
114.35,143.0
114.41,138.0
114.47,128.0
114.53,110.0
114.6,109.0
114.66,133.0
114.72,140.0
114.79,130.0
114.85,131.0
114.91,118.0
114.98,115.0
115.04,122.0
115.1,123.0
115.16,130.0
115.23,144.0
115.29,139.0
115.35,132.0
115.42,147.0
115.48,119.0
115.54,127.0
115.61,135.0
115.67,118.0
115.73,143.0
115.79,150.0
115.86,150.0
115.92,140.0
115.98,130.0
116.05,118.0
116.11,144.0
116.17,166.0
116.24,153.0
116.3,137.0
116.36,129.0
116.42,129.0
116.49,114.0
116.55,121.0
116.61,128.0
116.68,135.0
116.74,144.0
116.8,132.0
116.87,129.0
116.93,142.0
116.99,146.0
117.05,147.0
117.12,140.0
117.18,156.0
117.24,154.0
117.31,144.0
117.37,137.0
117.43,111.0
117.5,116.0
117.56,133.0
117.62,118.0
117.68,125.0
117.75,109.0
117.81,107.0
117.87,107.0
117.94,92.0
118.0,100.0
118.06,88.0
118.13,75.0
118.19,72.0
118.25,88.0
118.31,87.0
118.38,98.0
118.44,90.0
118.5,81.0
118.57,67.0
118.63,48.0
118.69,74.0
118.76,61.0
118.82,70.0
118.88,60.0
118.94,31.0
119.01,58.0
119.07,34.0
119.13,35.0
119.2,34.0
119.26,30.0
119.32,27.0
119.39,26.0
119.45,13.0
119.51,10.0
119.57,-10.0
119.64,-2.0
119.7,7.0
119.76,-2.0
119.83,15.0
119.89,13.0
119.95,-22.0
120.02,-13.0
120.08,-13.0
120.14,-19.0
120.2,-9.0
120.27,-12.0
120.33,-26.0
120.39,-37.0
120.46,-30.0
120.52,-24.0
120.58,-40.0
120.65,-23.0
120.71,-10.0
120.77,6.0
120.83,13.0
120.9,9.0
120.96,15.0
121.02,-7.0
121.09,-10.0
121.15,11.0
121.21,15.0
121.28,25.0
121.34,25.0
121.4,38.0
121.46,26.0
121.53,17.0
121.59,22.0
121.65,16.0
121.72,18.0
121.78,25.0
121.84,29.0
121.91,17.0
121.97,28.0
122.03,15.0
122.09,0.0
122.16,3.0
122.22,8.0
122.28,3.0
122.35,8.0
122.41,20.0
122.47,7.0
122.54,-12.0
122.6,4.0
122.66,18.0
122.72,11.0
122.79,22.0
122.85,22.0
122.91,13.0
122.98,18.0
123.04,0.0
123.1,-20.0
123.17,-20.0
123.23,-13.0
123.29,-10.0
123.35,2.0
123.42,14.0
123.48,-15.0
123.54,6.0
123.61,-8.0
123.67,20.0
123.73,-1.0
123.8,2.0
123.86,11.0
123.92,0.0
123.98,20.0
124.05,3.0
124.11,-4.0
124.17,11.0
124.24,9.0
124.3,9.0
124.36,-5.0
124.43,-17.0
124.49,-7.0
124.55,-1.0
124.61,-11.0
124.68,-30.0
124.74,-27.0
124.8,-13.0
124.87,-37.0
124.93,-27.0
124.99,-28.0
125.06,-8.0
125.12,-22.0
125.18,-37.0
125.24,-35.0
125.31,-45.0
125.37,-35.0
125.43,-32.0
125.5,-40.0
125.56,-46.0
125.62,-49.0
125.69,-46.0
125.75,-39.0
125.81,-42.0
125.87,-57.0
125.94,-44.0
126.0,-39.0
126.06,-38.0
126.13,-42.0
126.19,-21.0
126.25,-30.0
126.32,-33.0
126.38,-44.0
126.44,-14.0
126.5,-8.0
126.57,-39.0
126.63,-25.0
126.69,-44.0
126.76,-39.0
126.82,-27.0
126.88,-23.0
126.95,-14.0
127.01,-11.0
127.07,20.0
127.13,12.0
127.2,0.0
127.26,11.0
127.32,24.0
127.39,10.0
127.45,1.0
127.51,19.0
127.58,13.0
127.64,16.0
127.7,12.0
127.76,6.0
127.83,24.0
127.89,10.0
127.95,-2.0
128.02,4.0
128.08,-1.0
128.14,4.0
128.21,-6.0
128.27,-19.0
128.33,-3.0
128.39,-20.0
128.46,-3.0
128.52,-7.0
128.58,-20.0
128.65,-12.0
128.71,-10.0
128.77,1.0
128.84,1.0
128.9,-2.0
128.96,12.0
129.02,16.0
129.09,-10.0
129.15,5.0
129.21,6.0
129.28,5.0
129.34,9.0
129.4,2.0
129.47,-3.0
129.53,2.0
129.59,5.0
129.65,-7.0
129.72,-21.0
129.78,-30.0
129.84,-6.0
129.91,-4.0
129.97,4.0
130.03,0.0
130.1,2.0
130.16,-2.0
130.22,-6.0
130.28,15.0
130.35,7.0
130.41,-5.0
130.47,5.0
130.54,9.0
130.6,-5.0
130.66,-2.0
130.73,10.0
130.79,-9.0
130.85,-16.0
130.91,8.0
130.98,5.0
131.04,24.0
131.1,29.0
131.17,27.0
131.23,40.0
131.29,37.0
131.36,28.0
131.42,38.0
131.48,46.0
131.54,47.0
131.61,57.0
131.67,34.0
131.73,48.0
131.8,53.0
131.86,58.0
131.92,60.0
131.99,40.0
132.05,40.0
132.11,31.0
132.17,31.0
132.24,36.0
132.3,42.0
132.36,22.0
132.43,41.0
132.49,36.0
132.55,25.0
132.62,35.0
132.68,43.0
132.74,29.0
132.8,18.0
132.87,28.0
132.93,19.0
132.99,21.0
133.06,20.0
133.12,25.0
133.18,44.0
133.25,43.0
133.31,30.0
133.37,36.0
133.43,41.0
133.5,35.0
133.56,27.0
133.62,13.0
133.69,31.0
133.75,18.0
133.81,11.0
133.88,43.0
133.94,33.0
134.0,44.0
134.06,48.0
134.13,38.0
134.19,54.0
134.25,42.0
134.32,43.0
134.38,67.0
134.44,64.0
134.51,70.0
134.57,71.0
134.63,65.0
134.69,62.0
134.76,73.0
134.82,83.0
134.88,87.0
134.95,72.0
135.01,67.0
135.07,73.0
135.14,59.0
135.2,75.0
135.26,83.0
135.32,85.0
135.39,117.0
135.45,142.0
135.51,138.0
135.58,123.0
135.64,154.0
135.7,160.0
135.77,164.0
135.83,168.0
135.89,170.0
135.95,176.0
136.02,166.0
136.08,175.0
136.14,195.0
136.21,196.0
136.27,199.0
136.33,187.0
136.4,200.0
136.46,206.0
136.52,204.0
136.58,215.0
136.65,222.0
136.71,231.0
136.77,244.0
136.84,248.0
136.9,269.0
136.96,250.0
137.03,252.0
137.09,262.0
137.15,261.0
137.21,257.0
137.28,245.0
137.34,261.0
137.4,250.0
137.47,220.0
137.53,241.0
137.59,238.0
137.66,222.0
137.72,205.0
137.78,200.0
137.84,190.0
137.91,210.0
137.97,211.0
138.03,201.0
138.1,213.0
138.16,224.0
138.22,222.0
138.29,241.0
138.35,220.0
138.41,216.0
138.47,213.0
138.54,244.0
138.6,228.0
138.66,238.0
138.73,241.0
138.79,240.0
138.85,229.0
138.92,228.0
138.98,221.0
139.04,225.0
139.1,226.0
139.17,228.0
139.23,240.0
139.29,229.0
139.36,238.0
139.42,225.0
139.48,242.0
139.55,206.0
139.61,215.0
139.67,211.0
139.73,209.0
139.8,202.0
139.86,207.0
139.92,220.0
139.99,222.0
140.05,217.0
140.11,192.0
140.18,191.0
140.24,212.0
140.3,201.0
140.36,215.0
140.43,233.0
140.49,237.0
140.55,248.0
140.62,247.0
140.68,237.0
140.74,226.0
140.81,247.0
140.87,238.0
140.93,239.0
140.99,230.0
141.06,231.0
141.12,241.0
141.18,240.0
141.25,214.0
141.31,201.0
141.37,211.0
141.44,216.0
141.5,208.0
141.56,216.0
141.62,222.0
141.69,208.0
141.75,195.0
141.81,199.0
141.88,201.0
141.94,203.0
142.0,192.0
142.07,202.0
142.13,205.0
142.19,178.0
142.25,172.0
142.32,169.0
142.38,162.0
142.44,146.0
142.51,143.0
142.57,144.0
142.63,126.0
142.7,120.0
142.76,117.0
142.82,112.0
142.88,114.0
142.95,124.0
143.01,120.0
143.07,121.0
143.14,127.0
143.2,118.0
143.26,114.0
143.33,113.0
143.39,102.0
143.45,89.0
143.51,98.0
143.58,91.0
143.64,101.0
143.7,121.0
143.77,107.0
143.83,106.0
143.89,104.0
143.96,109.0
144.02,106.0
144.08,121.0
144.14,146.0
144.21,150.0
144.27,134.0
144.33,129.0
144.4,134.0
144.46,138.0
144.52,135.0
144.59,139.0
144.65,121.0
144.71,115.0
144.77,107.0
144.84,96.0
144.9,93.0
144.96,99.0
145.03,108.0
145.09,99.0
145.15,92.0
145.22,87.0
145.28,90.0
145.34,95.0
145.4,99.0
145.47,92.0
145.53,83.0
145.59,92.0
145.66,101.0
145.72,102.0
145.78,90.0
145.85,102.0
145.91,87.0
145.97,88.0
146.03,84.0
146.1,72.0
146.16,54.0
146.22,72.0
146.29,79.0
146.35,74.0
146.41,80.0
146.47,87.0
146.54,67.0
146.6,47.0
146.66,55.0
146.73,57.0
146.79,52.0
146.85,50.0
146.92,23.0
146.98,41.0
147.04,23.0
147.1,4.0
147.17,17.0
147.23,11.0
147.29,-8.0
147.36,23.0
147.42,6.0
147.48,-1.0
147.55,-5.0
147.61,-13.0
147.67,-3.0
147.73,0.0
147.8,-10.0
147.86,22.0
147.92,23.0
147.99,40.0
148.05,54.0
148.11,24.0
148.18,21.0
148.24,23.0
148.3,38.0
148.36,45.0
148.43,28.0
148.49,27.0
148.55,24.0
148.62,17.0
148.68,29.0
148.74,26.0
148.81,8.0
148.87,1.0
148.93,0.0
148.99,-12.0
149.06,-23.0
149.12,-13.0
149.18,1.0
149.25,-17.0
149.31,-10.0
149.37,-2.0
149.44,-14.0
149.5,0.0
149.56,-12.0
149.62,-4.0
149.69,4.0
149.75,5.0
149.81,-13.0
149.88,-25.0
149.94,-16.0
150.0,-20.0
150.07,-35.0
150.13,-44.0
150.19,-31.0
150.25,-41.0
150.32,-59.0
150.38,-62.0
150.44,-48.0
150.51,-47.0
150.57,-48.0
150.63,-56.0
150.7,-57.0
150.76,-50.0
150.82,-44.0
150.88,-67.0
150.95,-49.0
151.01,-53.0
151.07,-66.0
151.14,-43.0
151.2,-55.0
151.26,-60.0
151.33,-52.0
151.39,-57.0
151.45,-78.0
151.51,-55.0
151.58,-52.0
151.64,-85.0
151.7,-69.0
151.77,-91.0
151.83,-93.0
151.89,-88.0
151.96,-90.0
152.02,-70.0
152.08,-71.0
152.14,-98.0
152.21,-88.0
152.27,-86.0
152.33,-97.0
152.4,-92.0
152.46,-88.0
152.52,-101.0
152.59,-84.0
152.65,-85.0
152.71,-80.0
152.77,-61.0
152.84,-76.0
152.9,-64.0
152.96,-70.0
153.03,-70.0
153.09,-76.0
153.15,-40.0
153.22,-49.0
153.28,-58.0
153.34,-59.0
153.4,-56.0
153.47,-45.0
153.53,-43.0
153.59,-49.0
153.66,-43.0
153.72,-66.0
153.78,-46.0
153.85,-39.0
153.91,-43.0
153.97,-27.0
154.03,-9.0
154.1,-11.0
154.16,-7.0
154.22,-12.0
154.29,-15.0
154.35,-21.0
154.41,-30.0
154.48,-38.0
154.54,-38.0
154.6,-32.0
154.66,-27.0
154.73,-33.0
154.79,-2.0
154.85,-24.0
154.92,-14.0
154.98,-9.0
155.04,-32.0
155.11,-23.0
155.17,-25.0
155.23,-16.0
155.29,-19.0
155.36,-31.0
155.42,-27.0
155.48,-10.0
155.55,-21.0
155.61,-3.0
155.67,15.0
155.74,16.0
155.8,-6.0
155.86,3.0
155.92,3.0
155.99,-7.0
156.05,-1.0
156.11,18.0
156.18,-4.0
156.24,17.0
156.3,13.0
156.37,2.0
156.43,20.0
156.49,14.0
156.55,-3.0
156.62,-22.0
156.68,-1.0
156.74,7.0
156.81,-6.0
156.87,13.0
156.93,-5.0
157.0,-34.0
157.06,-17.0
157.12,-23.0
157.18,-18.0
157.25,-23.0
157.31,-20.0
157.37,-33.0
157.44,-25.0
157.5,-18.0
157.56,-6.0
157.63,-7.0
157.69,-20.0
157.75,-2.0
157.81,8.0
157.88,8.0
157.94,14.0
158.0,10.0
158.07,17.0
158.13,21.0
158.19,38.0
158.26,40.0
158.32,13.0
158.38,15.0
158.44,25.0
158.51,23.0
158.57,44.0
158.63,18.0
158.7,26.0
158.76,20.0
158.82,22.0
158.89,10.0
158.95,8.0
159.01,32.0
159.07,13.0
159.14,22.0
159.2,13.0
159.26,21.0
159.33,25.0
159.39,15.0
159.45,15.0
159.52,29.0
159.58,29.0
159.64,17.0
159.7,19.0
159.77,27.0
159.83,17.0
159.89,22.0
159.96,40.0
160.02,19.0
160.08,46.0
160.15,34.0
160.21,53.0
160.27,56.0
160.33,60.0
160.4,81.0
160.46,86.0
160.52,80.0
160.59,87.0
160.65,81.0
160.71,81.0
160.78,96.0
160.84,93.0
160.9,100.0
160.96,96.0
161.03,112.0
161.09,112.0
161.15,95.0
161.22,107.0
161.28,115.0
161.34,114.0
161.41,106.0
161.47,111.0
161.53,122.0
161.59,123.0
161.66,125.0
161.72,134.0
161.78,115.0
161.85,125.0
161.91,120.0
161.97,110.0
162.04,123.0
162.1,125.0
162.16,107.0
162.22,99.0
162.29,112.0
162.35,101.0
162.41,99.0
162.48,119.0
162.54,121.0
162.6,123.0
162.67,148.0
162.73,130.0
162.79,124.0
162.85,143.0
162.92,140.0
162.98,137.0
163.04,164.0
163.11,164.0
163.17,161.0
163.23,168.0
163.3,164.0
163.36,166.0
163.42,159.0
163.48,166.0
163.55,173.0
163.61,176.0
163.67,180.0
163.74,169.0
163.8,184.0
163.86,176.0
163.93,178.0
163.99,167.0
164.05,165.0
164.11,158.0
164.18,148.0
164.24,150.0
164.3,173.0
164.37,160.0
164.43,173.0
164.49,179.0
164.56,187.0
164.62,179.0
164.68,190.0
164.74,195.0
164.81,195.0
164.87,190.0
164.93,189.0
165.0,191.0
165.06,194.0
165.12,189.0
165.19,181.0
165.25,187.0
165.31,169.0
165.37,184.0
165.44,193.0
165.5,181.0
165.56,183.0
165.63,169.0
165.69,164.0
165.75,180.0
165.82,176.0
165.88,183.0
165.94,200.0
166.0,187.0
166.07,175.0
166.13,198.0
166.19,201.0
166.26,218.0
166.32,187.0
166.38,179.0
166.45,182.0
166.51,176.0
166.57,190.0
166.63,186.0
166.7,191.0
166.76,186.0
166.82,195.0
166.89,191.0
166.95,198.0
167.01,199.0
167.08,207.0
167.14,195.0
167.2,189.0
167.26,192.0
167.33,191.0
167.39,194.0
167.45,200.0
167.52,218.0
167.58,211.0
167.64,237.0
167.71,239.0
167.77,232.0
167.83,217.0
167.89,234.0
167.96,221.0
168.02,238.0
168.08,253.0
168.15,264.0
168.21,239.0
168.27,257.0
168.34,259.0
168.4,253.0
168.46,265.0
168.52,253.0
168.59,256.0
168.65,271.0
168.71,269.0
168.78,247.0
168.84,239.0
168.9,236.0
168.97,226.0
169.03,211.0
169.09,217.0
169.15,236.0
169.22,217.0
169.28,207.0
169.34,208.0
169.41,214.0
169.47,220.0
169.53,221.0
169.6,238.0
169.66,232.0
169.72,237.0
169.78,243.0
169.85,230.0
169.91,253.0
169.97,222.0
170.04,230.0
170.1,225.0
170.16,220.0
170.23,240.0
170.29,240.0
170.35,247.0
170.41,242.0
170.48,232.0
170.54,226.0
170.6,214.0
170.67,202.0
170.73,191.0
170.79,197.0
170.86,172.0
170.92,183.0
170.98,184.0
171.04,195.0
171.11,198.0
171.17,202.0
171.23,185.0
171.3,195.0
171.36,195.0
171.42,187.0
171.49,185.0
171.55,198.0
171.61,174.0
171.67,165.0
171.74,166.0
171.8,166.0
171.86,170.0
171.93,181.0
171.99,176.0
172.05,185.0
172.12,207.0
172.18,202.0
172.24,191.0
172.3,185.0
172.37,169.0
172.43,187.0
172.49,189.0
172.56,192.0
172.62,200.0
172.68,202.0
172.75,206.0
172.81,218.0
172.87,222.0
172.93,228.0
173.0,261.0
173.06,264.0
173.12,254.0
173.19,246.0
173.25,260.0
173.31,247.0
173.38,212.0
173.44,224.0
173.5,224.0
173.56,233.0
173.63,224.0
173.69,205.0
173.75,199.0
173.82,204.0
173.88,221.0
173.94,201.0
174.01,204.0
174.07,198.0
174.13,180.0
174.19,189.0
174.26,194.0
174.32,177.0
174.38,190.0
174.45,195.0
174.51,193.0
174.57,183.0
174.64,167.0
174.7,167.0
174.76,176.0
174.82,166.0
174.89,148.0
174.95,150.0
175.01,165.0
175.08,146.0
175.14,158.0
175.2,173.0
175.27,174.0
175.33,174.0
175.39,162.0
175.45,164.0
175.52,162.0
175.58,164.0
175.64,147.0
175.71,129.0
175.77,123.0
175.83,126.0
175.9,131.0
175.96,114.0
176.02,111.0
176.08,122.0
176.15,132.0
176.21,151.0
176.27,132.0
176.34,131.0
176.4,119.0
176.46,117.0
176.53,134.0
176.59,156.0
176.65,170.0
176.71,156.0
176.78,155.0
176.84,152.0
176.9,169.0
176.97,164.0
177.03,152.0
177.09,159.0
177.16,150.0
177.22,125.0
177.28,119.0
177.34,139.0
177.41,128.0
177.47,128.0
177.53,141.0
177.6,119.0
177.66,108.0
177.72,104.0
177.79,103.0
177.85,111.0
177.91,109.0
177.97,124.0
178.04,105.0
178.1,93.0
178.16,101.0
178.23,88.0
178.29,92.0
178.35,89.0
178.42,87.0
178.48,78.0
178.54,70.0
178.6,80.0
178.67,103.0
178.73,97.0
178.79,77.0
178.86,81.0
178.92,65.0
178.98,66.0
179.05,70.0
179.11,76.0
179.17,65.0
179.23,78.0
179.3,78.0
179.36,77.0
179.42,52.0
179.49,47.0
179.55,56.0
179.61,56.0
179.68,52.0
179.74,50.0
179.8,30.0
179.86,11.0
179.93,24.0
179.99,36.0
180.05,26.0
180.12,34.0
180.18,41.0
180.24,44.0
180.31,40.0
180.37,51.0
180.43,78.0
180.49,51.0
180.56,51.0
180.62,70.0
180.68,70.0
180.75,75.0
180.81,65.0
180.87,68.0
180.94,81.0
181.0,73.0
181.06,72.0
181.12,78.0
181.19,70.0
181.25,65.0
181.31,47.0
181.38,38.0
181.44,25.0
181.5,18.0
181.57,10.0
181.63,29.0
181.69,19.0
181.75,2.0
181.82,-13.0
181.88,4.0
181.94,6.0
182.01,-13.0
182.07,-7.0
182.13,3.0
182.2,5.0
182.26,6.0
182.32,4.0
182.38,-12.0
182.45,-17.0
182.51,-16.0
182.57,3.0
182.64,1.0
182.7,11.0
182.76,39.0
182.83,17.0
182.89,32.0
182.95,2.0
183.01,-7.0
183.08,6.0
183.14,-6.0
183.2,9.0
183.27,10.0
183.33,7.0
183.39,-5.0
183.46,-15.0
183.52,-25.0
183.58,-20.0
183.64,-20.0
183.71,-39.0
183.77,-44.0
183.83,-36.0
183.9,-33.0
183.96,-33.0
184.02,-29.0
184.09,-28.0
184.15,-37.0
184.21,-29.0
184.27,-23.0
184.34,-5.0
184.4,-14.0
184.46,4.0
184.53,0.0
184.59,-11.0
184.65,-15.0
184.72,-37.0
184.78,-12.0
184.84,-35.0
184.9,-35.0
184.97,-24.0
185.03,-27.0
185.09,-43.0
185.16,-47.0
185.22,-31.0
185.28,-40.0
185.35,-40.0
185.41,-11.0
185.47,-35.0
185.53,-16.0
185.6,-40.0
185.66,-28.0
185.72,-18.0
185.79,-22.0
185.85,-43.0
185.91,-23.0
185.98,-11.0
186.04,13.0
186.1,10.0
186.16,17.0
186.23,32.0
186.29,35.0
186.35,42.0
186.42,42.0
186.48,61.0
186.54,77.0
186.61,82.0
186.67,59.0
186.73,59.0
186.79,58.0
186.86,56.0
186.92,62.0
186.98,71.0
187.05,60.0
187.11,81.0
187.17,84.0
187.24,73.0
187.3,61.0
187.36,57.0
187.42,73.0
187.49,93.0
187.55,71.0
187.61,62.0
187.68,66.0
187.74,86.0
187.8,80.0
187.87,72.0
187.93,75.0
187.99,101.0
188.05,108.0
188.12,96.0
188.18,74.0
188.24,91.0
188.31,85.0
188.37,88.0
188.43,95.0
188.5,93.0
188.56,80.0
188.62,73.0
188.68,70.0
188.75,42.0
188.81,75.0
188.87,76.0
188.94,61.0
189.0,60.0
189.06,43.0
189.13,61.0
189.19,25.0
189.25,29.0
189.31,28.0
189.38,15.0
189.44,30.0
189.5,39.0
189.57,30.0
189.63,17.0
189.69,47.0
189.76,65.0
189.82,62.0
189.88,27.0
189.94,41.0
190.01,49.0
190.07,66.0
190.13,52.0
190.2,34.0
190.26,53.0
190.32,67.0
190.39,48.0
190.45,46.0
190.51,42.0
190.57,49.0
190.64,48.0
190.7,36.0
190.76,71.0
190.83,57.0
190.89,61.0
190.95,77.0
191.02,80.0
191.08,77.0
191.14,74.0
191.2,81.0
191.27,110.0
191.33,80.0
191.39,73.0
191.46,76.0
191.52,63.0
191.58,86.0
191.65,79.0
191.71,85.0
191.77,86.0
191.83,74.0
191.9,61.0
191.96,74.0
192.02,57.0
192.09,71.0
192.15,83.0
192.21,75.0
192.28,79.0
192.34,69.0
192.4,50.0
192.46,45.0
192.53,75.0
192.59,83.0
192.65,73.0
192.72,73.0
192.78,69.0
192.84,78.0
192.91,66.0
192.97,73.0
193.03,64.0
193.09,86.0
193.16,64.0
193.22,43.0
193.28,77.0
193.35,63.0
193.41,42.0
193.47,31.0
193.54,42.0
193.6,56.0
193.66,49.0
193.72,48.0
193.79,60.0
193.85,50.0
193.91,28.0
193.98,40.0
194.04,47.0
194.1,38.0
194.17,42.0
194.23,17.0
194.29,22.0
194.35,33.0
194.42,11.0
194.48,21.0
194.54,19.0
194.61,22.0
194.67,43.0
194.73,38.0
194.8,60.0
194.86,74.0
194.92,97.0
194.98,92.0
195.05,87.0
195.11,86.0
195.17,86.0
195.24,86.0
195.3,79.0
195.36,83.0
195.43,86.0
195.49,67.0
195.55,93.0
195.61,101.0
195.68,90.0
195.74,113.0
195.8,92.0
195.87,108.0
195.93,104.0
195.99,85.0
196.06,90.0
196.12,82.0
196.18,88.0
196.24,96.0
196.31,105.0
196.37,94.0
196.43,108.0
196.5,120.0
196.56,115.0
196.62,113.0
196.69,114.0
196.75,118.0
196.81,126.0
196.87,108.0
196.94,105.0
197.0,109.0
197.06,120.0
197.13,107.0
197.19,100.0
197.25,102.0
197.32,119.0
197.38,109.0
197.44,104.0
197.5,112.0
197.57,120.0
197.63,111.0
197.69,110.0
197.76,122.0
197.82,116.0
197.88,127.0
197.95,133.0
198.01,119.0
198.07,124.0
198.13,133.0
198.2,107.0
198.26,105.0
198.32,104.0
198.39,121.0
198.45,113.0
198.51,99.0
198.58,97.0
198.64,106.0
198.7,102.0
198.76,105.0
198.83,114.0
198.89,102.0
198.95,125.0
199.02,137.0
199.08,162.0
199.14,149.0
199.21,161.0
199.27,149.0
199.33,164.0
199.39,172.0
199.46,155.0
199.52,177.0
199.58,177.0
199.65,184.0
199.71,193.0
199.77,184.0
199.84,184.0
199.9,179.0
199.96,179.0
200.02,195.0
200.09,205.0
200.15,199.0
200.21,209.0
200.28,209.0
200.34,209.0
200.4,203.0
200.47,185.0
200.53,204.0
200.59,184.0
200.65,183.0
200.72,185.0
200.78,209.0
200.84,196.0
200.91,191.0
200.97,204.0
201.03,189.0
201.1,188.0
201.16,170.0
201.22,180.0
201.28,179.0
201.35,180.0
201.41,163.0
201.47,167.0
201.54,186.0
201.6,176.0
201.66,160.0
201.73,178.0
201.79,181.0
201.85,187.0
201.91,182.0
201.98,191.0
202.04,190.0
202.1,197.0
202.17,207.0
202.23,200.0
202.29,211.0
202.36,216.0
202.42,215.0
202.48,203.0
202.54,197.0
202.61,197.0
202.67,214.0
202.73,210.0
202.8,203.0
202.86,200.0
202.92,191.0
202.99,192.0
203.05,198.0
203.11,191.0
203.17,194.0
203.24,192.0
203.3,195.0
203.36,194.0
203.43,202.0
203.49,202.0
203.55,211.0
203.62,223.0
203.68,191.0
203.74,181.0
203.8,184.0
203.87,161.0
203.93,167.0
203.99,183.0
204.06,171.0
204.12,171.0
204.18,180.0
204.25,160.0
204.31,177.0
204.37,163.0
204.43,177.0
204.5,159.0
204.56,171.0
204.62,164.0
204.69,159.0
204.75,172.0
204.81,163.0
204.88,161.0
204.94,146.0
205.0,142.0
205.06,124.0
205.13,151.0
205.19,141.0
205.25,134.0
205.32,126.0
205.38,123.0
205.44,135.0
205.51,130.0
205.57,120.0
205.63,115.0
205.69,121.0
205.76,134.0
205.82,127.0
205.88,137.0
205.95,113.0
206.01,122.0
206.07,117.0
206.14,138.0
206.2,141.0
206.26,135.0
206.32,136.0
206.39,114.0
206.45,122.0
206.51,115.0
206.58,126.0
206.64,114.0
206.7,107.0
206.77,126.0
206.83,117.0
206.89,96.0
206.95,112.0
207.02,110.0
207.08,108.0
207.14,116.0
207.21,103.0
207.27,121.0
207.33,143.0
207.4,125.0
207.46,152.0
207.52,148.0
207.58,115.0
207.65,126.0
207.71,148.0
207.77,140.0
207.84,132.0
207.9,136.0
207.96,135.0
208.03,102.0
208.09,113.0
208.15,107.0
208.21,104.0
208.28,103.0
208.34,97.0
208.4,83.0
208.47,94.0
208.53,77.0
208.59,64.0
208.66,45.0
208.72,53.0
208.78,47.0
208.84,17.0
208.91,6.0
208.97,7.0
209.03,8.0
209.1,-20.0
209.16,-6.0
209.22,-5.0
209.29,0.0
209.35,-6.0
209.41,-6.0
209.47,-29.0
209.54,-40.0
209.6,-20.0
209.66,-20.0
209.73,-10.0
209.79,2.0
209.85,8.0
209.92,3.0
209.98,-2.0
210.04,-13.0
210.1,-13.0
210.17,-9.0
210.23,-1.0
210.29,-13.0
210.36,17.0
210.42,18.0
210.48,7.0
210.55,-16.0
210.61,-10.0
210.67,-3.0
210.73,0.0
210.8,33.0
210.86,21.0
210.92,30.0
210.99,17.0
211.05,34.0
211.11,44.0
211.18,48.0
211.24,54.0
211.3,41.0
211.36,57.0
211.43,73.0
211.49,71.0
211.55,79.0
211.62,107.0
211.68,91.0
211.74,83.0
211.81,87.0
211.87,92.0
211.93,83.0
211.99,85.0
212.06,93.0
212.12,108.0
212.18,82.0
212.25,91.0
212.31,84.0
212.37,65.0
212.44,57.0
212.5,73.0
212.56,62.0
212.62,44.0
212.69,48.0
212.75,46.0
212.81,41.0
212.88,36.0
212.94,22.0
213.0,13.0
213.07,-1.0
213.13,-3.0
213.19,6.0
213.25,18.0
213.32,3.0
213.38,9.0
213.44,24.0
213.51,33.0
213.57,17.0
213.63,19.0
213.7,36.0
213.76,38.0
213.82,40.0
213.88,49.0
213.95,24.0
214.01,43.0
214.07,30.0
214.14,21.0
214.2,46.0
214.26,31.0
214.33,37.0
214.39,63.0
214.45,83.0
214.51,62.0
214.58,70.0
214.64,85.0
214.7,91.0
214.77,108.0
214.83,71.0
214.89,52.0
214.96,90.0
215.02,107.0
215.08,106.0
215.14,66.0
215.21,61.0
215.27,91.0
215.33,64.0
215.4,53.0
215.46,81.0
215.52,91.0
215.59,79.0
215.65,85.0
215.71,85.0
215.77,76.0
215.84,73.0
215.9,77.0
215.96,54.0
216.03,54.0
216.09,58.0
216.15,50.0
216.22,61.0
216.28,50.0
216.34,43.0
216.4,45.0
216.47,32.0
216.53,43.0
216.59,42.0
216.66,50.0
216.72,54.0
216.78,57.0
216.85,55.0
216.91,57.0
216.97,57.0
217.03,53.0
217.1,65.0
217.16,53.0
217.22,57.0
217.29,55.0
217.35,42.0
217.41,13.0
217.48,25.0
217.54,28.0
217.6,30.0
217.66,29.0
217.73,42.0
217.79,33.0
217.85,54.0
217.92,43.0
217.98,50.0
218.04,71.0
218.11,78.0
218.17,69.0
218.23,69.0
218.29,67.0
218.36,64.0
218.42,73.0
218.48,87.0
218.55,108.0
218.61,93.0
218.67,104.0
218.74,106.0
218.8,121.0
218.86,123.0
218.92,119.0
218.99,113.0
219.05,107.0
219.11,127.0
219.18,119.0
219.24,120.0
219.3,127.0
219.37,131.0
219.43,141.0
219.49,160.0
219.55,142.0
219.62,112.0
219.68,107.0
219.74,108.0
219.81,115.0
219.87,132.0
219.93,127.0
220.0,162.0
220.06,141.0
220.12,146.0
220.18,156.0
220.25,160.0
220.31,151.0
220.37,160.0
220.44,170.0
220.5,167.0
220.56,152.0
220.63,156.0
220.69,177.0
220.75,182.0
220.81,160.0
220.88,165.0
220.94,162.0
221.0,178.0
221.07,164.0
221.13,143.0
221.19,158.0
221.26,151.0
221.32,153.0
221.38,163.0
221.44,148.0
221.51,160.0
221.57,141.0
221.63,162.0
221.7,157.0
221.76,159.0
221.82,179.0
221.89,161.0
221.95,162.0
222.01,163.0
222.07,162.0
222.14,194.0
222.2,182.0
222.26,181.0
222.33,182.0
222.39,183.0
222.45,183.0
222.52,186.0
222.58,182.0
222.64,190.0
222.7,181.0
222.77,176.0
222.83,166.0
222.89,174.0
222.96,194.0
223.02,158.0
223.08,189.0
223.15,166.0
223.21,160.0
223.27,201.0
223.33,173.0
223.4,160.0
223.46,179.0
223.52,183.0
223.59,161.0
223.65,173.0
223.71,167.0
223.78,140.0
223.84,138.0
223.9,138.0
223.96,159.0
224.03,148.0
224.09,145.0
224.15,161.0
224.22,163.0
224.28,128.0
224.34,132.0
224.41,142.0
224.47,142.0
224.53,140.0
224.59,145.0
224.66,138.0
224.72,135.0
224.78,118.0
224.85,140.0
224.91,151.0
224.97,129.0
225.04,106.0
225.1,121.0
225.16,97.0
225.22,124.0
225.29,123.0
225.35,136.0
225.41,126.0
225.48,132.0
225.54,134.0
225.6,154.0
225.67,178.0
225.73,165.0
225.79,166.0
225.85,162.0
225.92,159.0
225.98,163.0
226.04,171.0
226.11,164.0
226.17,187.0
226.23,194.0
226.3,189.0
226.36,193.0
226.42,198.0
226.48,189.0
226.55,185.0
226.61,174.0
226.67,191.0
226.74,200.0
226.8,179.0
226.86,191.0
226.93,162.0
226.99,156.0
227.05,157.0
227.11,166.0
227.18,152.0
227.24,139.0
227.3,133.0
227.37,101.0
227.43,101.0
227.49,112.0
227.56,128.0
227.62,103.0
227.68,85.0
227.74,75.0
227.81,76.0
227.87,84.0
227.93,82.0
228.0,61.0
228.06,102.0
228.12,103.0
228.19,83.0
228.25,77.0
228.31,78.0
228.37,50.0
228.44,57.0
228.5,50.0
228.56,63.0
228.63,55.0
228.69,53.0
228.75,61.0
228.82,61.0
228.88,72.0
228.94,69.0
229.0,71.0
229.07,66.0
229.13,83.0
229.19,58.0
229.26,59.0
229.32,58.0
229.38,66.0
229.45,71.0
229.51,73.0
229.57,65.0
229.63,74.0
229.7,60.0
229.76,59.0
229.82,58.0
229.89,71.0
229.95,72.0
230.01,75.0
230.08,63.0
230.14,72.0
230.2,92.0
230.26,97.0
230.33,109.0
230.39,103.0
230.45,109.0
230.52,98.0
230.58,101.0
230.64,83.0
230.71,74.0
230.77,72.0
230.83,67.0
230.89,69.0
230.96,72.0
231.02,73.0
231.08,75.0
231.15,48.0
231.21,39.0
231.27,47.0
231.34,9.0
231.4,17.0
231.46,16.0
231.52,11.0
231.59,15.0
231.65,-5.0
231.71,20.0
231.78,25.0
231.84,11.0
231.9,31.0
231.97,34.0
232.03,28.0
232.09,26.0
232.15,27.0
232.22,19.0
232.28,29.0
232.34,42.0
232.41,18.0
232.47,27.0
232.53,20.0
232.6,38.0
232.66,54.0
232.72,14.0
232.78,9.0
232.85,25.0
232.91,30.0
232.97,49.0
233.04,34.0
233.1,24.0
233.16,27.0
233.23,15.0
233.29,42.0
233.35,33.0
233.41,26.0
233.48,18.0
233.54,20.0
233.6,13.0
233.67,-14.0
233.73,26.0
233.79,17.0
233.86,10.0
233.92,-3.0
233.98,-19.0
234.04,-39.0
234.11,-37.0
234.17,-12.0
234.23,-20.0
234.3,-27.0
234.36,-33.0
234.42,-32.0
234.49,-31.0
234.55,-20.0
234.61,-6.0
234.67,-19.0
234.74,-16.0
234.8,-25.0
234.86,-37.0
234.93,-33.0
234.99,-44.0
235.05,-22.0
235.12,-23.0
235.18,-22.0
235.24,-16.0
235.3,-1.0
235.37,-5.0
235.43,0.0
235.49,3.0
235.56,-1.0
235.62,-15.0
235.68,-6.0
235.75,23.0
235.81,23.0
235.87,18.0
235.93,12.0
236.0,27.0
236.06,17.0
236.12,19.0
236.19,18.0
236.25,24.0
236.31,20.0
236.38,26.0
236.44,46.0
236.5,38.0
236.56,18.0
236.63,41.0
236.69,50.0
236.75,41.0
236.82,34.0
236.88,39.0
236.94,59.0
237.01,61.0
237.07,35.0
237.13,52.0
237.19,51.0
237.26,52.0
237.32,50.0
237.38,65.0
237.45,64.0
237.51,40.0
237.57,73.0
237.64,52.0
237.7,56.0
237.76,54.0
237.82,79.0
237.89,83.0
237.95,78.0
238.01,97.0
238.08,86.0
238.14,89.0
238.2,94.0
238.27,104.0
238.33,86.0
238.39,79.0
238.45,97.0
238.52,93.0
238.58,97.0
238.64,108.0
238.71,111.0
238.77,115.0
238.83,97.0
238.9,111.0
238.96,113.0
239.02,103.0
239.08,98.0
239.15,79.0
239.21,82.0
239.27,100.0
239.34,93.0
239.4,100.0
239.46,76.0
239.53,63.0
239.59,70.0
239.65,79.0
239.71,85.0
239.78,82.0
239.84,79.0
239.9,90.0
239.97,91.0
240.03,99.0
240.09,105.0
240.16,115.0
240.22,102.0
240.28,100.0
240.34,120.0
240.41,93.0
240.47,93.0
240.53,90.0
240.6,98.0
240.66,119.0
240.72,133.0
240.79,133.0
240.85,146.0
240.91,144.0
240.97,163.0
241.04,158.0
241.1,151.0
241.16,156.0
241.23,148.0
241.29,146.0
241.35,135.0
241.42,156.0
241.48,169.0
241.54,158.0
241.6,151.0
241.67,155.0
241.73,147.0
241.79,151.0
241.86,161.0
241.92,154.0
241.98,146.0
242.05,142.0
242.11,137.0
242.17,151.0
242.23,122.0
242.3,122.0
242.36,140.0
242.42,117.0
242.49,110.0
242.55,111.0
242.61,99.0
242.68,74.0
242.74,89.0
242.8,79.0
242.86,69.0
242.93,45.0
242.99,51.0
243.05,46.0
243.12,71.0
243.18,79.0
243.24,68.0
243.31,73.0
243.37,62.0
243.43,82.0
243.49,78.0
243.56,90.0
243.62,86.0
243.68,89.0
243.75,94.0
243.81,86.0
243.87,60.0
243.94,62.0
244.0,60.0
244.06,80.0
244.12,78.0
244.19,89.0
244.25,62.0
244.31,52.0
244.38,66.0
244.44,84.0
244.5,75.0
244.57,83.0
244.63,90.0
244.69,94.0
244.75,108.0
244.82,110.0
244.88,113.0
244.94,96.0
245.01,74.0
245.07,93.0
245.13,85.0
245.2,84.0
245.26,105.0
245.32,107.0
245.38,107.0
245.45,94.0
245.51,99.0
245.57,103.0
245.64,102.0
245.7,115.0
245.76,117.0
245.83,106.0
245.89,126.0
245.95,114.0
246.01,123.0
246.08,134.0
246.14,137.0
246.2,125.0
246.27,133.0
246.33,140.0
246.39,134.0
246.46,130.0
246.52,113.0
246.58,117.0
246.64,112.0
246.71,100.0
246.77,115.0
246.83,95.0
246.9,88.0
246.96,84.0
247.02,90.0
247.09,70.0
247.15,68.0
247.21,68.0
247.27,58.0
247.34,60.0
247.4,81.0
247.46,62.0
247.53,61.0
247.59,47.0
247.65,53.0
247.72,46.0
247.78,77.0
247.84,67.0
247.9,68.0
247.97,73.0
248.03,55.0
248.09,70.0
248.16,77.0
248.22,66.0
248.28,67.0
248.35,74.0
248.41,52.0
248.47,45.0
248.53,49.0
248.6,52.0
248.66,54.0
248.72,42.0
248.79,29.0
248.85,32.0
248.91,34.0
248.98,46.0
249.04,48.0
249.1,56.0
249.16,46.0
249.23,30.0
249.29,16.0
249.35,31.0
249.42,29.0
249.48,40.0
249.54,45.0
249.61,22.0
249.67,57.0
249.73,45.0
249.79,59.0
249.86,73.0
249.92,44.0
249.98,28.0
250.05,38.0
250.11,23.0
250.17,13.0
250.24,8.0
250.3,15.0
250.36,28.0
250.42,34.0
250.49,49.0
250.55,31.0
250.61,43.0
250.68,43.0
250.74,40.0
250.8,37.0
250.87,43.0
250.93,51.0
250.99,49.0
251.05,56.0
251.12,54.0
251.18,52.0
251.24,50.0
251.31,43.0
251.37,38.0
251.43,31.0
251.5,16.0
251.56,27.0
251.62,-3.0
251.68,19.0
251.75,27.0
251.81,7.0
251.87,7.0
251.94,9.0
252.0,32.0
252.06,45.0
252.13,43.0
252.19,62.0
252.25,61.0
252.31,77.0
252.38,107.0
252.44,107.0
252.5,100.0
252.57,121.0
252.63,101.0
252.69,103.0
252.76,123.0
252.82,122.0
252.88,121.0
252.94,136.0
253.01,118.0
253.07,117.0
253.13,104.0
253.2,113.0
253.26,133.0
253.32,113.0
253.39,103.0
253.45,88.0
253.51,88.0
253.57,81.0
253.64,73.0
253.7,72.0
253.76,81.0
253.83,86.0
253.89,99.0
253.95,80.0
254.02,67.0
254.08,81.0
254.14,80.0
254.2,66.0
254.27,59.0
254.33,82.0
254.39,66.0
254.46,59.0
254.52,62.0
254.58,65.0
254.65,57.0
254.71,32.0
254.77,52.0
254.83,57.0
254.9,54.0
254.96,44.0
255.02,28.0
255.09,57.0
255.15,48.0
255.21,34.0
255.28,40.0
255.34,28.0
255.4,54.0
255.46,62.0
255.53,73.0
255.59,77.0
255.65,66.0
255.72,70.0
255.78,54.0
255.84,70.0
255.91,96.0
255.97,90.0
256.03,95.0
256.09,101.0
256.16,94.0
256.22,95.0
256.28,89.0
256.35,114.0
256.41,109.0
256.47,106.0
256.54,104.0
256.6,121.0
256.66,117.0
256.72,124.0
256.79,118.0
256.85,117.0
256.91,109.0
256.98,99.0
257.04,90.0
257.1,93.0
257.17,103.0
257.23,113.0
257.29,96.0
257.35,97.0
257.42,89.0
257.48,95.0
257.54,76.0
257.61,82.0
257.67,80.0
257.73,105.0
257.8,102.0
257.86,102.0
257.92,97.0
257.98,107.0
258.05,120.0
258.11,126.0
258.17,133.0
258.24,161.0
258.3,148.0
258.36,130.0
258.43,156.0
258.49,177.0
258.55,164.0
258.61,175.0
258.68,174.0
258.74,172.0
258.8,139.0
258.87,125.0
258.93,121.0
258.99,120.0
259.06,124.0
259.12,110.0
259.18,99.0
259.24,105.0
259.31,77.0
259.37,69.0
259.43,80.0
259.5,61.0
259.56,68.0
259.62,82.0
259.69,99.0
259.75,87.0
259.81,93.0
259.87,73.0
259.94,78.0
260.0,96.0
260.06,70.0
260.13,73.0
260.19,99.0
260.25,80.0
260.32,73.0
260.38,95.0
260.44,98.0
260.5,95.0
260.57,62.0
260.63,58.0
260.69,63.0
260.76,84.0
260.82,66.0
260.88,67.0
260.95,66.0
261.01,60.0
261.07,56.0
261.13,54.0
261.2,63.0
261.26,41.0
261.32,41.0
261.39,38.0
261.45,37.0
261.51,29.0
261.58,40.0
261.64,42.0
261.7,46.0
261.76,45.0
261.83,40.0
261.89,54.0
261.95,55.0
262.02,52.0
262.08,55.0
262.14,49.0
262.21,48.0
262.27,74.0
262.33,88.0
262.39,102.0
262.46,106.0
262.52,114.0
262.58,110.0
262.65,98.0
262.71,124.0
262.77,134.0
262.84,143.0
262.9,151.0
262.96,136.0
263.02,129.0
263.09,132.0
263.15,145.0
263.21,134.0
263.28,131.0
263.34,128.0
263.4,128.0
263.47,147.0
263.53,142.0
263.59,135.0
263.65,150.0
263.72,147.0
263.78,149.0
263.84,147.0
263.91,139.0
263.97,137.0
264.03,151.0
264.1,149.0
264.16,151.0
264.22,146.0
264.28,151.0
264.35,149.0
264.41,144.0
264.47,129.0
264.54,142.0
264.6,152.0
264.66,154.0
264.73,161.0
264.79,171.0
264.85,169.0
264.91,180.0
264.98,193.0
265.04,184.0
265.1,173.0
265.17,162.0
265.23,175.0
265.29,169.0
265.36,159.0
265.42,166.0
265.48,178.0
265.54,169.0
265.61,173.0
265.67,162.0
265.73,169.0
265.8,172.0
265.86,169.0
265.92,158.0
265.99,159.0
266.05,153.0
266.11,139.0
266.17,155.0
266.24,133.0
266.3,150.0
266.36,164.0
266.43,140.0
266.49,146.0
266.55,145.0
266.62,118.0
266.68,137.0
266.74,129.0
266.8,122.0
266.87,124.0
266.93,129.0
266.99,118.0
267.06,108.0
267.12,140.0
267.18,125.0
267.25,89.0
267.31,95.0
267.37,111.0
267.43,78.0
267.5,92.0
267.56,100.0
267.62,82.0
267.69,71.0
267.75,70.0
267.81,68.0
267.88,86.0
267.94,59.0
268.0,88.0
268.06,105.0
268.13,96.0
268.19,112.0
268.25,82.0
268.32,87.0
268.38,79.0
268.44,95.0
268.51,82.0
268.57,85.0
268.63,106.0
268.69,107.0
268.76,99.0
268.82,82.0
268.88,70.0
268.95,77.0
269.01,74.0
269.07,81.0
269.14,70.0
269.2,62.0
269.26,79.0
269.32,56.0
269.39,68.0
269.45,40.0
269.51,51.0
269.58,61.0
269.64,72.0
269.7,69.0
269.77,53.0
269.83,55.0
269.89,41.0
269.95,37.0
270.02,49.0
270.08,47.0
270.14,82.0
270.21,67.0
270.27,56.0
270.33,73.0
270.4,93.0
270.46,85.0
270.52,75.0
270.58,99.0
270.65,94.0
270.71,85.0
270.77,72.0
270.84,88.0
270.9,86.0
270.96,82.0
271.03,78.0
271.09,85.0
271.15,88.0
271.21,76.0
271.28,90.0
271.34,87.0
271.4,77.0
271.47,95.0
271.53,94.0
271.59,90.0
271.66,102.0
271.72,107.0
271.78,135.0
271.84,125.0
271.91,119.0
271.97,115.0
272.03,140.0
272.1,113.0
272.16,133.0
272.22,127.0
272.29,140.0
272.35,154.0
272.41,140.0
272.47,166.0
272.54,153.0
272.6,164.0
272.66,158.0
272.73,137.0
272.79,141.0
272.85,137.0
272.92,150.0
272.98,147.0
273.04,139.0
273.1,117.0
273.17,118.0
273.23,120.0
273.29,117.0
273.36,124.0
273.42,133.0
273.48,125.0
273.55,146.0
273.61,148.0
273.67,123.0
273.73,136.0
273.8,114.0
273.86,132.0
273.92,148.0
273.99,144.0
274.05,139.0
274.11,157.0
274.18,126.0
274.24,145.0
274.3,127.0
274.36,125.0
274.43,120.0
274.49,107.0
274.55,109.0
274.62,123.0
274.68,106.0
274.74,107.0
274.81,118.0
274.87,118.0
274.93,124.0
274.99,129.0
275.06,128.0
275.12,139.0
275.18,148.0
275.25,158.0
275.31,151.0
275.37,161.0
275.44,158.0
275.5,175.0
275.56,142.0
275.62,146.0
275.69,158.0
275.75,147.0
275.81,138.0
275.88,147.0
275.94,129.0
276.0,134.0
276.07,139.0
276.13,132.0
276.19,122.0
276.25,120.0
276.32,142.0
276.38,129.0
276.44,137.0
276.51,139.0
276.57,125.0
276.63,117.0
276.7,114.0
276.76,109.0
276.82,123.0
276.88,129.0
276.95,118.0
277.01,83.0
277.07,89.0
277.14,96.0
277.2,89.0
277.26,113.0
277.33,123.0
277.39,112.0
277.45,94.0
277.51,98.0
277.58,111.0
277.64,123.0
277.7,107.0
277.77,117.0
277.83,123.0
277.89,123.0
277.96,92.0
278.02,93.0
278.08,90.0
278.14,93.0
278.21,89.0
278.27,93.0
278.33,72.0
278.4,80.0
278.46,80.0
278.52,79.0
278.59,76.0
278.65,66.0
278.71,65.0
278.77,65.0
278.84,64.0
278.9,37.0
278.96,43.0
279.03,52.0
279.09,54.0
279.15,32.0
279.22,38.0
279.28,43.0
279.34,48.0
279.4,69.0
279.47,57.0
279.53,45.0
279.59,70.0
279.66,65.0
279.72,63.0
279.78,54.0
279.85,59.0
279.91,46.0
279.97,36.0
280.03,53.0
280.1,62.0
280.16,62.0
280.22,58.0
280.29,49.0
280.35,51.0
280.41,32.0
280.48,30.0
280.54,35.0
280.6,46.0
280.66,15.0
280.73,15.0
280.79,17.0
280.85,1.0
280.92,-8.0
280.98,-23.0
281.04,-33.0
281.11,-16.0
281.17,-9.0
281.23,-8.0
281.29,-30.0
281.36,-36.0
281.42,-14.0
281.48,-16.0
281.55,-12.0
281.61,-8.0
281.67,13.0
281.74,21.0
281.8,-3.0
281.86,-8.0
281.92,10.0
281.99,3.0
282.05,-16.0
282.11,-5.0
282.18,8.0
282.24,28.0
282.3,-5.0
282.37,16.0
282.43,44.0
282.49,35.0
282.55,36.0
282.62,33.0
282.68,36.0
282.74,51.0
282.81,43.0
282.87,36.0
282.93,49.0
283.0,24.0
283.06,15.0
283.12,4.0
283.18,-13.0
283.25,-25.0
283.31,-29.0
283.37,-13.0
283.44,-21.0
283.5,-7.0
283.56,23.0
283.63,4.0
283.69,10.0
283.75,21.0
283.81,26.0
283.88,21.0
283.94,33.0
284.0,29.0
284.07,25.0
284.13,20.0
284.19,47.0
284.26,42.0
284.32,15.0
284.38,11.0
284.44,14.0
284.51,24.0
284.57,11.0
284.63,22.0
284.7,29.0
284.76,7.0
284.82,-6.0
284.89,-4.0
284.95,-1.0
285.01,-22.0
285.07,-29.0
285.14,0.0
285.2,-16.0
285.26,3.0
285.33,13.0
285.39,10.0
285.45,3.0
285.52,3.0
285.58,-5.0
285.64,-3.0
285.7,-5.0
285.77,27.0
285.83,34.0
285.89,18.0
285.96,23.0
286.02,44.0
286.08,40.0
286.15,38.0
286.21,45.0
286.27,56.0
286.33,52.0
286.4,59.0
286.46,71.0
286.52,66.0
286.59,43.0
286.65,56.0
286.71,45.0
286.78,34.0
286.84,43.0
286.9,26.0
286.96,12.0
287.03,23.0
287.09,23.0
287.15,16.0
287.22,19.0
287.28,21.0
287.34,-2.0
287.41,-17.0
287.47,8.0
287.53,6.0
287.59,-12.0
287.66,0.0
287.72,-1.0
287.78,2.0
287.85,-6.0
287.91,-6.0
287.97,-16.0
288.04,6.0
288.1,8.0
288.16,17.0
288.22,0.0
288.29,40.0
288.35,22.0
288.41,25.0
288.48,22.0
288.54,11.0
288.6,-5.0
288.67,-17.0
288.73,9.0
288.79,14.0
288.85,27.0
288.92,4.0
288.98,16.0
289.04,17.0
289.11,31.0
289.17,39.0
289.23,25.0
289.3,23.0
289.36,32.0
289.42,47.0
289.48,28.0
289.55,61.0
289.61,59.0
289.67,51.0
289.74,64.0
289.8,62.0
289.86,46.0
289.93,43.0
289.99,49.0
290.05,59.0
290.11,69.0
290.18,68.0
290.24,83.0
290.3,71.0
290.37,68.0
290.43,94.0
290.49,96.0
290.56,83.0
290.62,82.0
290.68,59.0
290.74,88.0
290.81,96.0
290.87,94.0
290.93,95.0
291.0,109.0
291.06,109.0
291.12,111.0
291.19,120.0
291.25,118.0
291.31,111.0
291.37,114.0
291.44,115.0
291.5,115.0
291.56,129.0
291.63,123.0
291.69,104.0
291.75,114.0
291.82,110.0
291.88,105.0
291.94,114.0
292.0,109.0
292.07,102.0
292.13,118.0
292.19,114.0
292.26,101.0
292.32,101.0
292.38,95.0
292.45,91.0
292.51,88.0
292.57,64.0
292.63,80.0
292.7,87.0
292.76,78.0
292.82,73.0
292.89,56.0
292.95,83.0
293.01,59.0
293.08,51.0
293.14,63.0
293.2,65.0
293.26,77.0
293.33,78.0
293.39,85.0
293.45,78.0
293.52,81.0
293.58,84.0
293.64,91.0
293.71,90.0
293.77,86.0
293.83,77.0
293.89,91.0
293.96,81.0
294.02,88.0
294.08,85.0
294.15,81.0
294.21,75.0
294.27,83.0
294.34,77.0
294.4,84.0
294.46,80.0
294.52,82.0
294.59,93.0
294.65,64.0
294.71,69.0
294.78,86.0
294.84,85.0
294.9,84.0
294.97,92.0
295.03,74.0
295.09,77.0
295.15,84.0
295.22,75.0
295.28,63.0
295.34,102.0
295.41,84.0
295.47,72.0
295.53,77.0
295.6,77.0
295.66,69.0
295.72,70.0
295.78,72.0
295.85,65.0
295.91,64.0
295.97,69.0
296.04,74.0
296.1,75.0
296.16,65.0
296.23,70.0
296.29,63.0
296.35,61.0
296.41,61.0
296.48,54.0
296.54,58.0
296.6,75.0
296.67,83.0
296.73,61.0
296.79,68.0
296.86,78.0
296.92,59.0
296.98,66.0
297.04,72.0
297.11,91.0
297.17,86.0
297.23,79.0
297.3,88.0
297.36,91.0
297.42,103.0
297.49,91.0
297.55,101.0
297.61,102.0
297.67,114.0
297.74,128.0
297.8,133.0
297.86,120.0
297.93,114.0
297.99,103.0
298.05,103.0
298.12,120.0
298.18,97.0
298.24,100.0
298.3,105.0
298.37,106.0
298.43,115.0
298.49,113.0
298.56,116.0
298.62,107.0
298.68,121.0
298.75,111.0
298.81,106.0
298.87,123.0
298.93,125.0
299.0,120.0
299.06,119.0
299.12,120.0
299.19,142.0
299.25,140.0
299.31,141.0
299.38,140.0
299.44,142.0
299.5,163.0
299.56,163.0
299.63,155.0
299.69,153.0
299.75,157.0
299.82,158.0
299.88,150.0
299.94,134.0
300.01,114.0
300.07,122.0
300.13,126.0
300.19,138.0
300.26,155.0
300.32,137.0
300.38,127.0
300.45,127.0
300.51,127.0
300.57,119.0
300.64,125.0
300.7,126.0
300.76,107.0
300.82,94.0
300.89,100.0
300.95,103.0
301.01,121.0
301.08,110.0
301.14,135.0
301.2,125.0
301.27,131.0
301.33,136.0
301.39,133.0
301.45,137.0
301.52,125.0
301.58,139.0
301.64,142.0
301.71,139.0
301.77,151.0
301.83,138.0
301.9,137.0
301.96,151.0
302.02,136.0
302.08,131.0
302.15,150.0
302.21,154.0
302.27,163.0
302.34,158.0
302.4,142.0
302.46,160.0
302.53,135.0
302.59,145.0
302.65,155.0
302.71,151.0
302.78,124.0
302.84,123.0
302.9,152.0
302.97,153.0
303.03,160.0
303.09,159.0
303.16,166.0
303.22,150.0
303.28,165.0
303.34,155.0
303.41,162.0
303.47,168.0
303.53,167.0
303.6,165.0
303.66,172.0
303.72,177.0
303.79,166.0
303.85,155.0
303.91,157.0
303.97,152.0
304.04,156.0
304.1,183.0
304.16,175.0
304.23,159.0
304.29,161.0
304.35,183.0
304.42,163.0
304.48,165.0
304.54,149.0
304.6,138.0
304.67,142.0
304.73,137.0
304.79,132.0
304.86,136.0
304.92,130.0
304.98,145.0
305.05,127.0
305.11,124.0
305.17,102.0
305.23,92.0
305.3,108.0
305.36,112.0
305.42,119.0
305.49,121.0
305.55,107.0
305.61,109.0
305.68,152.0
305.74,127.0
305.8,116.0
305.86,105.0
305.93,124.0
305.99,138.0
306.05,129.0
306.12,122.0
306.18,109.0
306.24,109.0
306.31,120.0
306.37,110.0
306.43,124.0
306.49,110.0
306.56,97.0
306.62,116.0
306.68,111.0
306.75,89.0
306.81,92.0
306.87,81.0
306.94,106.0
307.0,75.0
307.06,55.0
307.12,54.0
307.19,48.0
307.25,74.0
307.31,41.0
307.38,53.0
307.44,45.0
307.5,42.0
307.57,59.0
307.63,52.0
307.69,50.0
307.75,40.0
307.82,42.0
307.88,62.0
307.94,46.0
308.01,59.0
308.07,53.0
308.13,54.0
308.2,75.0
308.26,71.0
308.32,54.0
308.38,61.0
308.45,62.0
308.51,62.0
308.57,51.0
308.64,62.0
308.7,65.0
308.76,72.0
308.83,95.0
308.89,81.0
308.95,77.0
309.01,89.0
309.08,95.0
309.14,93.0
309.2,94.0
309.27,112.0
309.33,111.0
309.39,97.0
309.46,73.0
309.52,96.0
309.58,112.0
309.64,91.0
309.71,63.0
309.77,54.0
309.83,65.0
309.9,68.0
309.96,61.0
310.02,58.0
310.09,62.0
310.15,31.0
310.21,54.0
310.27,53.0
310.34,58.0
310.4,50.0
310.46,54.0
310.53,54.0
310.59,53.0
310.65,48.0
310.72,21.0
310.78,9.0
310.84,-12.0
310.9,-16.0
310.97,-10.0
311.03,-32.0
311.09,-41.0
311.16,-42.0
311.22,-25.0
311.28,-7.0
311.35,-30.0
311.41,-43.0
311.47,-37.0
311.53,-54.0
311.6,-30.0
311.66,-22.0
311.72,-35.0
311.79,-45.0
311.85,-37.0
311.91,-23.0
311.98,-26.0
312.04,-15.0
312.1,-35.0
312.16,-11.0
312.23,4.0
312.29,-18.0
312.35,-20.0
312.42,-29.0
312.48,-14.0
312.54,-4.0
312.61,12.0
312.67,-15.0
312.73,-7.0
312.79,18.0
312.86,10.0
312.92,5.0
312.98,3.0
313.05,20.0
313.11,-2.0
313.17,-11.0
313.24,-13.0
313.3,-26.0
313.36,-28.0
313.42,-36.0
313.49,-30.0
313.55,-16.0
313.61,-10.0
313.68,5.0
313.74,-4.0
313.8,-11.0
313.87,-3.0
313.93,22.0
313.99,0.0
314.05,1.0
314.12,22.0
314.18,11.0
314.24,-13.0
314.31,-7.0
314.37,18.0
314.43,8.0
314.5,14.0
314.56,-1.0
314.62,15.0
314.68,-8.0
314.75,-15.0
314.81,15.0
314.87,-9.0
314.94,-11.0
315.0,-9.0
315.06,-17.0
315.13,-20.0
315.19,-14.0
315.25,-26.0
315.31,-44.0
315.38,-36.0
315.44,-28.0
315.5,-32.0
315.57,-36.0
315.63,-21.0
315.69,-24.0
315.76,-26.0
315.82,-16.0
315.88,-21.0
315.94,-6.0
316.01,10.0
316.07,-7.0
316.13,-7.0
316.2,18.0
316.26,46.0
316.32,46.0
316.39,21.0
316.45,29.0
316.51,42.0
316.57,48.0
316.64,44.0
316.7,36.0
316.76,39.0
316.83,31.0
316.89,21.0
316.95,15.0
317.02,13.0
317.08,15.0
317.14,28.0
317.2,27.0
317.27,28.0
317.33,43.0
317.39,35.0
317.46,27.0
317.52,21.0
317.58,29.0
317.65,29.0
317.71,37.0
317.77,43.0
317.83,58.0
317.9,50.0
317.96,45.0
318.02,32.0
318.09,25.0
318.15,22.0
318.21,3.0
318.28,9.0
318.34,22.0
318.4,-3.0
318.46,-1.0
318.53,13.0
318.59,-9.0
318.65,-10.0
318.72,-9.0
318.78,-4.0
318.84,-13.0
318.91,-13.0
318.97,-7.0
319.03,-5.0
319.09,19.0
319.16,-7.0
319.22,-9.0
319.28,2.0
319.35,12.0
319.41,17.0
319.47,-2.0
319.54,20.0
319.6,16.0
319.66,11.0
319.72,-10.0
319.79,17.0
319.85,22.0
319.91,13.0
319.98,3.0
320.04,9.0
320.1,8.0
320.17,-15.0
320.23,-20.0
320.29,-28.0
320.35,-30.0
320.42,-35.0
320.48,-13.0
320.54,-7.0
320.61,-34.0
320.67,-59.0
320.73,-60.0
320.8,-44.0
320.86,-48.0
320.92,-70.0
320.98,-44.0
321.05,-49.0
321.11,-58.0
321.17,-57.0
321.24,-37.0
321.3,-39.0
321.36,-40.0
321.43,-33.0
321.49,-26.0
321.55,-19.0
321.61,-19.0
321.68,-20.0
321.74,-25.0
321.8,-21.0
321.87,-35.0
321.93,-24.0
321.99,-19.0
322.06,-25.0
322.12,-27.0
322.18,-18.0
322.24,-34.0
322.31,-23.0
322.37,-28.0
322.43,-27.0
322.5,1.0
322.56,9.0
322.62,-2.0
322.69,14.0
322.75,14.0
322.81,32.0
322.87,35.0
322.94,32.0
323.0,37.0
323.06,43.0
323.13,44.0
323.19,53.0
323.25,72.0
323.32,73.0
323.38,69.0
323.44,80.0
323.5,108.0
323.57,123.0
323.63,113.0
323.69,114.0
323.76,114.0
323.82,116.0
323.88,133.0
323.95,131.0
324.01,145.0
324.07,143.0
324.13,147.0
324.2,152.0
324.26,137.0
324.32,149.0
324.39,133.0
324.45,144.0
324.51,160.0
324.58,148.0
324.64,156.0
324.7,149.0
324.76,166.0
324.83,171.0
324.89,143.0
324.95,165.0
325.02,188.0
325.08,180.0
325.14,181.0
325.21,183.0
325.27,177.0
325.33,166.0
325.39,173.0
325.46,163.0
325.52,170.0
325.58,185.0
325.65,182.0
325.71,175.0
325.77,174.0
325.84,185.0
325.9,184.0
325.96,170.0
326.02,173.0
326.09,163.0
326.15,175.0
326.21,184.0
326.28,164.0
326.34,163.0
326.4,157.0
326.47,145.0
326.53,136.0
326.59,155.0
326.65,147.0
326.72,164.0
326.78,168.0
326.84,160.0
326.91,141.0
326.97,155.0
327.03,167.0
327.1,147.0
327.16,149.0
327.22,172.0
327.28,177.0
327.35,182.0
327.41,176.0
327.47,172.0
327.54,183.0
327.6,184.0
327.66,165.0
327.73,186.0
327.79,181.0
327.85,165.0
327.91,185.0
327.98,177.0
328.04,182.0
328.1,200.0
328.17,187.0
328.23,180.0
328.29,184.0
328.36,213.0
328.42,205.0
328.48,212.0
328.54,217.0
328.61,207.0
328.67,212.0
328.73,207.0
328.8,228.0
328.86,222.0
328.92,220.0
328.99,220.0
329.05,221.0
329.11,233.0
329.17,237.0
329.24,248.0
329.3,229.0
329.36,220.0
329.43,218.0
329.49,202.0
329.55,205.0
329.62,223.0
329.68,209.0
329.74,200.0
329.8,223.0
329.87,225.0
329.93,232.0
329.99,227.0
330.06,235.0
330.12,221.0
330.18,228.0
330.25,214.0
330.31,226.0
330.37,202.0
330.43,203.0
330.5,213.0
330.56,209.0
330.62,202.0
330.69,203.0
330.75,240.0
330.81,214.0
330.88,201.0
330.94,209.0
331.0,199.0
331.06,188.0
331.13,181.0
331.19,184.0
331.25,178.0
331.32,173.0
331.38,171.0
331.44,188.0
331.51,175.0
331.57,187.0
331.63,180.0
331.69,169.0
331.76,166.0
331.82,179.0
331.88,162.0
331.95,160.0
332.01,176.0
332.07,162.0
332.14,163.0
332.2,151.0
332.26,162.0
332.32,167.0
332.39,160.0
332.45,155.0
332.51,152.0
332.58,163.0
332.64,157.0
332.7,140.0
332.77,129.0
332.83,122.0
332.89,105.0
332.95,99.0
333.02,98.0
333.08,109.0
333.14,111.0
333.21,120.0
333.27,90.0
333.33,75.0
333.4,111.0
333.46,113.0
333.52,107.0
333.58,110.0
333.65,109.0
333.71,102.0
333.77,117.0
333.84,118.0
333.9,125.0
333.96,121.0
334.03,87.0
334.09,118.0
334.15,104.0
334.21,110.0
334.28,111.0
334.34,100.0
334.4,107.0
334.47,119.0
334.53,96.0
334.59,77.0
334.66,82.0
334.72,78.0
334.78,84.0
334.84,78.0
334.91,91.0
334.97,86.0
335.03,77.0
335.1,97.0
335.16,78.0
335.22,74.0
335.29,85.0
335.35,97.0
335.41,100.0
335.47,85.0
335.54,107.0
335.6,102.0
335.66,90.0
335.73,102.0
335.79,106.0
335.85,111.0
335.92,117.0
335.98,104.0
336.04,110.0
336.1,127.0
336.17,88.0
336.23,119.0
336.29,137.0
336.36,119.0
336.42,119.0
336.48,92.0
336.55,108.0
336.61,96.0
336.67,85.0
336.73,86.0
336.8,65.0
336.86,45.0
336.92,41.0
336.99,34.0
337.05,30.0
337.11,34.0
337.18,0.0
337.24,30.0
337.3,42.0
337.36,15.0
337.43,30.0
337.49,15.0
337.55,50.0
337.62,31.0
337.68,42.0
337.74,52.0
337.81,36.0
337.87,31.0
337.93,11.0
337.99,39.0
338.06,37.0
338.12,41.0
338.18,46.0
338.25,51.0
338.31,61.0
338.37,82.0
338.44,61.0
338.5,60.0
338.56,78.0
338.62,79.0
338.69,67.0
338.75,63.0
338.81,74.0
338.88,92.0
338.94,89.0
339.0,105.0
339.07,93.0
339.13,92.0
339.19,107.0
339.25,77.0
339.32,75.0
339.38,77.0
339.44,68.0
339.51,64.0
339.57,59.0
339.63,83.0
339.7,88.0
339.76,98.0
339.82,81.0
339.88,94.0
339.95,99.0
340.01,64.0
340.07,71.0
340.14,55.0
340.2,75.0
340.26,80.0
340.33,94.0
340.39,108.0
340.45,100.0
340.51,101.0
340.58,85.0
340.64,103.0
340.7,89.0
340.77,73.0
340.83,89.0
340.89,82.0
340.96,86.0
341.02,89.0
341.08,56.0
341.14,64.0
341.21,89.0
341.27,76.0
341.33,73.0
341.4,89.0
341.46,81.0
341.52,78.0
341.59,77.0
341.65,63.0
341.71,89.0
341.77,86.0
341.84,81.0
341.9,78.0
341.96,102.0
342.03,102.0
342.09,77.0
342.15,106.0
342.22,102.0
342.28,110.0
342.34,111.0
342.4,116.0
342.47,133.0
342.53,119.0
342.59,114.0
342.66,118.0
342.72,132.0
342.78,138.0
342.85,138.0
342.91,138.0
342.97,141.0
343.03,139.0
343.1,131.0
343.16,118.0
343.22,97.0
343.29,126.0
343.35,129.0
343.41,133.0
343.48,108.0
343.54,110.0
343.6,101.0
343.66,100.0
343.73,98.0
343.79,75.0
343.85,74.0
343.92,49.0
343.98,37.0
344.04,38.0
344.11,56.0
344.17,37.0
344.23,24.0
344.29,14.0
344.36,5.0
344.42,23.0
344.48,10.0
344.55,28.0
344.61,26.0
344.67,-5.0
344.74,8.0
344.8,-2.0
344.86,-2.0
344.92,-7.0
344.99,-19.0
345.05,-34.0
345.11,-42.0
345.18,-63.0
345.24,-70.0
345.3,-77.0
345.37,-95.0
345.43,-78.0
345.49,-69.0
345.55,-81.0
345.62,-73.0
345.68,-64.0
345.74,-68.0
345.81,-78.0
345.87,-81.0
345.93,-95.0
346.0,-82.0
346.06,-61.0
346.12,-64.0
346.18,-76.0
346.25,-64.0
346.31,-60.0
346.37,-35.0
346.44,-38.0
346.5,-34.0
346.56,-51.0
346.63,-41.0
346.69,-50.0
346.75,-58.0
346.81,-47.0
346.88,-51.0
346.94,-26.0
347.0,-38.0
347.07,-17.0
347.13,-22.0
347.19,-32.0
347.26,-25.0
347.32,-33.0
347.38,-25.0
347.44,-16.0
347.51,-20.0
347.57,-16.0
347.63,-4.0
347.7,8.0
347.76,3.0
347.82,10.0
347.89,17.0
347.95,52.0
348.01,67.0
348.07,43.0
348.14,69.0
348.2,73.0
348.26,75.0
348.33,75.0
348.39,67.0
348.45,57.0
348.52,73.0
348.58,88.0
348.64,79.0
348.7,76.0
348.77,85.0
348.83,94.0
348.89,89.0
348.96,93.0
349.02,79.0
349.08,76.0
349.15,83.0
349.21,96.0
349.27,94.0
349.33,81.0
349.4,76.0
349.46,96.0
349.52,91.0
349.59,92.0
349.65,91.0
349.71,76.0
349.78,63.0
349.84,79.0
349.9,87.0
349.96,99.0
350.03,95.0
350.09,99.0
350.15,94.0
350.22,125.0
350.28,120.0
350.34,114.0
350.41,109.0
350.47,105.0
350.53,132.0
350.59,121.0
350.66,107.0
350.72,109.0
350.78,118.0
350.85,115.0
350.91,127.0
350.97,113.0
351.04,127.0
351.1,138.0
351.16,112.0
351.22,120.0
351.29,94.0
351.35,106.0
351.41,111.0
351.48,90.0
351.54,89.0
351.6,93.0
351.67,86.0
351.73,98.0
351.79,86.0
351.85,89.0
351.92,113.0
351.98,102.0
352.04,109.0
352.11,95.0
352.17,96.0
352.23,128.0
352.3,105.0
352.36,111.0
352.42,109.0
352.48,99.0
352.55,130.0
352.61,136.0
352.67,145.0
352.74,146.0
352.8,131.0
352.86,140.0
352.93,131.0
352.99,138.0
353.05,133.0
353.11,119.0
353.18,128.0
353.24,130.0
353.3,124.0
353.37,144.0
353.43,134.0
353.49,145.0
353.56,146.0
353.62,144.0
353.68,144.0
353.74,139.0
353.81,151.0
353.87,156.0
353.93,153.0
354.0,148.0
354.06,142.0
354.12,153.0
354.19,168.0
354.25,153.0
354.31,149.0
354.37,159.0
354.44,154.0
354.5,139.0
354.56,145.0
354.63,144.0
354.69,136.0
354.75,140.0
354.82,142.0
354.88,114.0
354.94,113.0
355.0,110.0
355.07,114.0
355.13,147.0
355.19,142.0
355.26,145.0
355.32,167.0
355.38,145.0
355.45,146.0
355.51,152.0
355.57,148.0
355.63,127.0
355.7,122.0
355.76,122.0
355.82,134.0
355.89,120.0
355.95,123.0
356.01,136.0
356.08,116.0
356.14,127.0
356.2,127.0
356.26,123.0
356.33,115.0
356.39,135.0
356.45,127.0
356.52,115.0
356.58,95.0
356.64,105.0
356.71,113.0
356.77,108.0
356.83,131.0
356.89,112.0
356.96,106.0
357.02,117.0
357.08,130.0
357.15,131.0
357.21,138.0
357.27,117.0
357.34,144.0
357.4,142.0
357.46,147.0
357.52,165.0
357.59,171.0
357.65,168.0
357.71,176.0
357.78,191.0
357.84,199.0
357.9,221.0
357.97,211.0
358.03,219.0
358.09,222.0
358.15,211.0
358.22,218.0
358.28,201.0
358.34,198.0
358.41,203.0
358.47,221.0
358.53,227.0
358.6,213.0
358.66,212.0
358.72,207.0
358.78,202.0
358.85,196.0
358.91,171.0
358.97,193.0
359.04,196.0
359.1,189.0
359.16,179.0
359.23,179.0
359.29,182.0
359.35,218.0
359.41,221.0
359.48,175.0
359.54,165.0
359.6,160.0
359.67,155.0
359.73,154.0
359.79,162.0
359.86,168.0
359.92,155.0
359.98,163.0
360.04,151.0
360.11,172.0
360.17,153.0
360.23,154.0
360.3,138.0
360.36,127.0
360.42,115.0
360.49,134.0
360.55,158.0
360.61,155.0
360.67,132.0
360.74,120.0
360.8,113.0
360.86,138.0
360.93,133.0
360.99,127.0
361.05,139.0
361.12,120.0
361.18,122.0
361.24,114.0
361.3,112.0
361.37,118.0
361.43,99.0
361.49,100.0
361.56,106.0
361.62,101.0
361.68,114.0
361.75,121.0
361.81,116.0
361.87,122.0
361.93,141.0
362.0,144.0
362.06,145.0
362.12,153.0
362.19,152.0
362.25,149.0
362.31,155.0
362.38,159.0
362.44,157.0
362.5,158.0
362.56,164.0
362.63,166.0
362.69,167.0
362.75,157.0
362.82,131.0
362.88,151.0
362.94,126.0
363.01,117.0
363.07,133.0
363.13,137.0
363.19,135.0
363.26,145.0
363.32,132.0
363.38,121.0
363.45,134.0
363.51,127.0
363.57,133.0
363.64,124.0
363.7,123.0
363.76,149.0
363.82,161.0
363.89,156.0
363.95,138.0
364.01,138.0
364.08,153.0
364.14,153.0
364.2,147.0
364.27,142.0
364.33,169.0
364.39,179.0
364.45,161.0
364.52,164.0
364.58,171.0
364.64,168.0
364.71,179.0
364.77,170.0
364.83,176.0
364.9,161.0
364.96,166.0
365.02,151.0
365.08,147.0
365.15,157.0
365.21,163.0
365.27,168.0
365.34,166.0
365.4,166.0
365.46,145.0
365.53,160.0
365.59,168.0
365.65,158.0
365.71,147.0
365.78,159.0
365.84,156.0
365.9,139.0
365.97,137.0
366.03,145.0
366.09,130.0
366.16,119.0
366.22,120.0
366.28,88.0
366.34,97.0
366.41,89.0
366.47,78.0
366.53,107.0
366.6,120.0
366.66,108.0
366.72,105.0
366.79,101.0
366.85,112.0
366.91,114.0
366.97,113.0
367.04,138.0
367.1,122.0
367.16,111.0
367.23,112.0
367.29,109.0
367.35,119.0
367.42,125.0
367.48,127.0
367.54,127.0
367.6,127.0
367.67,131.0
367.73,116.0
367.79,123.0
367.86,139.0
367.92,125.0
367.98,124.0
368.05,112.0
368.11,121.0
368.17,122.0
368.23,123.0
368.3,109.0
368.36,108.0
368.42,127.0
368.49,119.0
368.55,112.0
368.61,96.0
368.68,109.0
368.74,90.0
368.8,86.0
368.86,101.0
368.93,102.0
368.99,97.0
369.05,97.0
369.12,95.0
369.18,92.0
369.24,91.0
369.31,91.0
369.37,87.0
369.43,92.0
369.49,93.0
369.56,109.0
369.62,76.0
369.68,77.0
369.75,72.0
369.81,65.0
369.87,46.0
369.94,32.0
370.0,32.0
370.06,46.0
370.12,39.0
370.19,34.0
370.25,40.0
370.31,40.0
370.38,32.0
370.44,28.0
370.5,12.0
370.57,16.0
370.63,16.0
370.69,25.0
370.75,25.0
370.82,17.0
370.88,19.0
370.94,13.0
371.01,26.0
371.07,6.0
371.13,21.0
371.2,26.0
371.26,18.0
371.32,12.0
371.38,-11.0
371.45,-7.0
371.51,2.0
371.57,19.0
371.64,7.0
371.7,28.0
371.76,24.0
371.83,8.0
371.89,15.0
371.95,10.0
372.01,23.0
372.08,21.0
372.14,9.0
372.2,11.0
372.27,-7.0
372.33,-14.0
372.39,-2.0
372.46,0.0
372.52,10.0
372.58,1.0
372.64,11.0
372.71,3.0
372.77,-15.0
372.83,14.0
372.9,9.0
372.96,11.0
373.02,11.0
373.09,22.0
373.15,0.0
373.21,10.0
373.27,28.0
373.34,24.0
373.4,41.0
373.46,22.0
373.53,21.0
373.59,34.0
373.65,47.0
373.72,59.0
373.78,50.0
373.84,67.0
373.9,72.0
373.97,71.0
374.03,67.0
374.09,69.0
374.16,73.0
374.22,77.0
374.28,71.0
374.35,68.0
374.41,92.0
374.47,90.0
374.53,71.0
374.6,98.0
374.66,75.0
374.72,86.0
374.79,82.0
374.85,66.0
374.91,89.0
374.98,67.0
375.04,76.0
375.1,106.0
375.16,98.0
375.23,84.0
375.29,90.0
375.35,102.0
375.42,88.0
375.48,91.0
375.54,87.0
375.61,80.0
375.67,78.0
375.73,107.0
375.79,75.0
375.86,59.0
375.92,74.0
375.98,78.0
376.05,84.0
376.11,74.0
376.17,83.0
376.24,100.0
376.3,83.0
376.36,65.0
376.42,62.0
376.49,73.0
376.55,96.0
376.61,101.0
376.68,97.0
376.74,102.0
376.8,77.0
376.87,88.0
376.93,101.0
376.99,75.0
377.05,67.0
377.12,76.0
377.18,47.0
377.24,53.0
377.31,63.0
377.37,59.0
377.43,79.0
377.5,69.0
377.56,54.0
377.62,59.0
377.68,59.0
377.75,66.0
377.81,46.0
377.87,53.0
377.94,28.0
378.0,21.0
378.06,41.0
378.13,38.0
378.19,36.0
378.25,26.0
378.31,19.0
378.38,12.0
378.44,25.0
378.5,38.0
378.57,19.0
378.63,10.0
378.69,-20.0
378.76,-17.0
378.82,-12.0
378.88,17.0
378.94,-1.0
379.01,4.0
379.07,18.0
379.13,-2.0
379.2,14.0
379.26,-5.0
379.32,17.0
379.39,-16.0
379.45,-13.0
379.51,18.0
379.57,13.0
379.64,10.0
379.7,-10.0
379.76,18.0
379.83,10.0
379.89,10.0
379.95,24.0
380.02,22.0
380.08,23.0
380.14,27.0
380.2,16.0
380.27,8.0
380.33,14.0
380.39,-1.0
380.46,7.0
380.52,15.0
380.58,18.0
380.65,19.0
380.71,40.0
380.77,23.0
380.83,32.0
380.9,37.0
380.96,34.0
381.02,32.0
381.09,47.0
381.15,37.0
381.21,47.0
381.28,48.0
381.34,39.0
381.4,44.0
381.46,47.0
381.53,77.0
381.59,83.0
381.65,69.0
381.72,79.0
381.78,78.0
381.84,84.0
381.91,81.0
381.97,76.0
382.03,84.0
382.09,84.0
382.16,71.0
382.22,89.0
382.28,87.0
382.35,76.0
382.41,65.0
382.47,70.0
382.54,74.0
382.6,87.0
382.66,65.0
382.72,72.0
382.79,74.0
382.85,89.0
382.91,88.0
382.98,63.0
383.04,47.0
383.1,58.0
383.17,63.0
383.23,69.0
383.29,66.0
383.35,38.0
383.42,32.0
383.48,32.0
383.54,44.0
383.61,54.0
383.67,43.0
383.73,41.0
383.8,35.0
383.86,22.0
383.92,33.0
383.98,24.0
384.05,32.0
384.11,47.0
384.17,33.0
384.24,49.0
384.3,45.0
384.36,39.0
384.43,56.0
384.49,69.0
384.55,61.0
384.61,52.0
384.68,58.0
384.74,71.0
384.8,62.0
384.87,73.0
384.93,74.0
384.99,61.0
385.06,54.0
385.12,52.0
385.18,44.0
385.24,58.0
385.31,68.0
385.37,48.0
385.43,62.0
385.5,57.0
385.56,82.0
385.62,87.0
385.69,74.0
385.75,75.0
385.81,68.0
385.87,62.0
385.94,47.0
386.0,45.0
386.06,54.0
386.13,52.0
386.19,43.0
386.25,69.0
386.32,57.0
386.38,41.0
386.44,30.0
386.5,27.0
386.57,39.0
386.63,48.0
386.69,55.0
386.76,56.0
386.82,61.0
386.88,75.0
386.95,68.0
387.01,65.0
387.07,69.0
387.13,73.0
387.2,99.0
387.26,95.0
387.32,79.0
387.39,104.0
387.45,112.0
387.51,97.0
387.58,105.0
387.64,120.0
387.7,114.0
387.76,111.0
387.83,120.0
387.89,120.0
387.95,113.0
388.02,119.0
388.08,102.0
388.14,102.0
388.21,110.0
388.27,91.0
388.33,94.0
388.39,107.0
388.46,110.0
388.52,111.0
388.58,131.0
388.65,124.0
388.71,139.0
388.77,134.0
388.84,134.0
388.9,134.0
388.96,128.0
389.02,124.0
389.09,142.0
389.15,126.0
389.21,111.0
389.28,134.0
389.34,146.0
389.4,147.0
389.47,167.0
389.53,153.0
389.59,153.0
389.65,135.0
389.72,161.0
389.78,153.0
389.84,148.0
389.91,154.0
389.97,154.0
390.03,136.0
390.1,140.0
390.16,137.0
390.22,119.0
390.28,142.0
390.35,124.0
390.41,145.0
390.47,150.0
390.54,142.0
390.6,138.0
390.66,143.0
390.73,141.0
390.79,161.0
390.85,179.0
390.91,158.0
390.98,162.0
391.04,169.0
391.1,163.0
391.17,147.0
391.23,139.0
391.29,143.0
391.36,132.0
391.42,137.0
391.48,161.0
391.54,174.0
391.61,159.0
391.67,166.0
391.73,165.0
391.8,184.0
391.86,179.0
391.92,158.0
391.99,158.0
392.05,157.0
392.11,156.0
392.17,162.0
392.24,157.0
392.3,172.0
392.36,165.0
392.43,181.0
392.49,190.0
392.55,175.0
392.62,170.0
392.68,177.0
392.74,161.0
392.8,153.0
392.87,147.0
392.93,149.0
392.99,157.0
393.06,153.0
393.12,153.0
393.18,157.0
393.25,153.0
393.31,148.0
393.37,153.0
393.43,145.0
393.5,145.0
393.56,175.0
393.62,179.0
393.69,180.0
393.75,198.0
393.81,182.0
393.88,188.0
393.94,183.0
394.0,167.0
394.06,158.0
394.13,162.0
394.19,174.0
394.25,191.0
394.32,193.0
394.38,190.0
394.44,185.0
394.51,203.0
394.57,181.0
394.63,156.0
394.69,165.0
394.76,168.0
394.82,155.0
394.88,143.0
394.95,145.0
395.01,143.0
395.07,133.0
395.14,124.0
395.2,118.0
395.26,118.0
395.32,102.0
395.39,88.0
395.45,102.0
395.51,81.0
395.58,80.0
395.64,83.0
395.7,92.0
395.77,105.0
395.83,89.0
395.89,91.0
395.95,91.0
396.02,93.0
396.08,78.0
396.14,83.0
396.21,69.0
396.27,65.0
396.33,77.0
396.4,84.0
396.46,63.0
396.52,67.0
396.58,58.0
396.65,63.0
396.71,56.0
396.77,56.0
396.84,59.0
396.9,58.0
396.96,71.0
397.03,66.0
397.09,70.0
397.15,79.0
397.21,73.0
397.28,64.0
397.34,63.0
397.4,75.0
397.47,57.0
397.53,51.0
397.59,63.0
397.66,54.0
397.72,52.0
397.78,44.0
397.84,46.0
397.91,32.0
397.97,24.0
398.03,25.0
398.1,10.0
398.16,4.0
398.22,-3.0
398.29,0.0
398.35,13.0
398.41,16.0
398.47,22.0
398.54,35.0
398.6,39.0
398.66,22.0
398.73,19.0
398.79,24.0
398.85,47.0
398.92,41.0
398.98,47.0
399.04,65.0
399.1,66.0
399.17,84.0
399.23,86.0
399.29,89.0
399.36,83.0
399.42,82.0
399.48,83.0
399.55,80.0
399.61,85.0
399.67,78.0
399.73,108.0
399.8,92.0
399.86,86.0
399.92,104.0
399.99,83.0
400.05,79.0
400.11,73.0
400.18,58.0
400.24,57.0
400.3,57.0
400.36,56.0
400.43,53.0
400.49,49.0
400.55,54.0
400.62,57.0
400.68,60.0
400.74,66.0
400.81,56.0
400.87,53.0
400.93,54.0
400.99,57.0
401.06,61.0
401.12,64.0
401.18,66.0
401.25,72.0
401.31,77.0
401.37,72.0
401.44,73.0
401.5,65.0
401.56,74.0
401.62,64.0
401.69,68.0
401.75,61.0
401.81,54.0
401.88,67.0
401.94,65.0
402.0,60.0
402.07,54.0
402.13,55.0
402.19,62.0
402.25,70.0
402.32,70.0
402.38,76.0
402.44,73.0
402.51,78.0
402.57,57.0
402.63,44.0
402.7,46.0
402.76,68.0
402.82,79.0
402.88,84.0
402.95,96.0
403.01,95.0
403.07,79.0
403.14,76.0
403.2,90.0
403.26,68.0
403.33,87.0
403.39,105.0
403.45,102.0
403.51,88.0
403.58,85.0
403.64,71.0
403.7,79.0
403.77,77.0
403.83,85.0
403.89,91.0
403.96,79.0
404.02,87.0
404.08,83.0
404.14,72.0
404.21,79.0
404.27,56.0
404.33,55.0
404.4,69.0
404.46,55.0
404.52,32.0
404.59,35.0
404.65,50.0
404.71,55.0
404.77,46.0
404.84,52.0
404.9,61.0
404.96,52.0
405.03,43.0
405.09,45.0
405.15,42.0
405.22,46.0
405.28,34.0
405.34,35.0
405.4,32.0
405.47,29.0
405.53,45.0
405.59,26.0
405.66,18.0
405.72,17.0
405.78,15.0
405.85,20.0
405.91,21.0
405.97,12.0
406.03,9.0
406.1,-5.0
406.16,9.0
406.22,14.0
406.29,20.0
406.35,16.0
406.41,14.0
406.48,8.0
406.54,4.0
406.6,15.0
406.66,9.0
406.73,25.0
406.79,42.0
406.85,27.0
406.92,36.0
406.98,34.0
407.04,53.0
407.11,52.0
407.17,75.0
407.23,59.0
407.29,50.0
407.36,74.0
407.42,65.0
407.48,63.0
407.55,59.0
407.61,78.0
407.67,86.0
407.74,83.0
407.8,96.0
407.86,90.0
407.92,78.0
407.99,78.0
408.05,78.0
408.11,87.0
408.18,75.0
408.24,91.0
408.3,100.0
408.37,101.0
408.43,93.0
408.49,101.0
408.55,103.0
408.62,89.0
408.68,85.0
408.74,98.0
408.81,80.0
408.87,107.0
408.93,107.0
409.0,120.0
409.06,99.0
409.12,96.0
409.18,104.0
409.25,129.0
409.31,135.0
409.37,132.0
409.44,133.0
409.5,149.0
409.56,135.0
409.63,136.0
409.69,125.0
409.75,120.0
409.81,107.0
409.88,132.0
409.94,128.0
410.0,122.0
410.07,114.0
410.13,95.0
410.19,88.0
410.26,88.0
410.32,96.0
410.38,76.0
410.44,93.0
410.51,97.0
410.57,94.0
410.63,96.0
410.7,81.0
410.76,84.0
410.82,96.0
410.89,103.0
410.95,72.0
411.01,90.0
411.07,90.0
411.14,105.0
411.2,94.0
411.26,94.0
411.33,82.0
411.39,85.0
411.45,97.0
411.52,90.0
411.58,98.0
411.64,60.0
411.7,66.0
411.77,73.0
411.83,65.0
411.89,67.0
411.96,62.0
412.02,67.0
412.08,53.0
412.15,53.0
412.21,47.0
412.27,55.0
412.33,39.0
412.4,56.0
412.46,65.0
412.52,57.0
412.59,54.0
412.65,75.0
412.71,84.0
412.78,104.0
412.84,109.0
412.9,107.0
412.96,113.0
413.03,104.0
413.09,153.0
413.15,125.0
413.22,132.0
413.28,130.0
413.34,126.0
413.41,110.0
413.47,115.0
413.53,126.0
413.59,137.0
413.66,131.0
413.72,132.0
413.78,124.0
413.85,132.0
413.91,148.0
413.97,152.0
414.04,149.0
414.1,123.0
414.16,121.0
414.22,123.0
414.29,135.0
414.35,149.0
414.41,135.0
414.48,135.0
414.54,126.0
414.6,115.0
414.67,120.0
414.73,125.0
414.79,130.0
414.85,108.0
414.92,115.0
414.98,117.0
415.04,109.0
415.11,113.0
415.17,107.0
415.23,120.0
415.3,113.0
415.36,82.0
415.42,75.0
415.48,70.0
415.55,73.0
415.61,71.0
415.67,53.0
415.74,40.0
415.8,33.0
415.86,30.0
415.93,48.0
415.99,46.0
416.05,44.0
416.11,19.0
416.18,42.0
416.24,44.0
416.3,52.0
416.37,64.0
416.43,40.0
416.49,64.0
416.56,59.0
416.62,53.0
416.68,57.0
416.74,40.0
416.81,42.0
416.87,45.0
416.93,47.0
417.0,57.0
417.06,42.0
417.12,34.0
417.19,55.0
417.25,34.0
417.31,24.0
417.37,32.0
417.44,10.0
417.5,19.0
417.56,34.0
417.63,46.0
417.69,41.0
417.75,30.0
417.82,26.0
417.88,41.0
417.94,27.0
418.0,38.0
418.07,31.0
418.13,64.0
418.19,47.0
418.26,63.0
418.32,55.0
418.38,35.0
418.45,51.0
418.51,49.0
418.57,63.0
418.63,64.0
418.7,70.0
418.76,70.0
418.82,46.0
418.89,57.0
418.95,67.0
419.01,58.0
419.08,63.0
419.14,81.0
419.2,81.0
419.26,46.0
419.33,48.0
419.39,33.0
419.45,38.0
419.52,26.0
419.58,6.0
419.64,8.0
419.71,3.0
419.77,28.0
419.83,28.0
419.89,8.0
419.96,11.0
420.02,5.0
420.08,20.0
420.15,11.0
420.21,14.0
420.27,24.0
420.34,19.0
420.4,24.0
420.46,20.0
420.52,6.0
420.59,31.0
420.65,16.0
420.71,20.0
420.78,20.0
420.84,31.0
420.9,36.0
420.97,17.0
421.03,20.0
421.09,23.0
421.15,-1.0
421.22,15.0
421.28,13.0
421.34,8.0
421.41,8.0
421.47,12.0
421.53,18.0
421.6,16.0
421.66,36.0
421.72,23.0
421.78,17.0
421.85,23.0
421.91,18.0
421.97,30.0
422.04,30.0
422.1,41.0
422.16,49.0
422.23,40.0
422.29,49.0
422.35,37.0
422.41,25.0
422.48,23.0
422.54,34.0
422.6,39.0
422.67,45.0
422.73,42.0
422.79,52.0
422.86,31.0
422.92,45.0
422.98,37.0
423.04,40.0
423.11,53.0
423.17,48.0
423.23,56.0
423.3,70.0
423.36,74.0
423.42,88.0
423.49,70.0
423.55,83.0
423.61,71.0
423.67,77.0
423.74,88.0
423.8,87.0
423.86,63.0
423.93,75.0
423.99,79.0
424.05,93.0
424.12,113.0
424.18,102.0
424.24,86.0
424.3,95.0
424.37,122.0
424.43,91.0
424.49,87.0
424.56,87.0
424.62,94.0
424.68,84.0
424.75,86.0
424.81,92.0
424.87,94.0
424.93,119.0
425.0,111.0
425.06,115.0
425.12,120.0
425.19,136.0
425.25,111.0
425.31,125.0
425.38,139.0
425.44,134.0
425.5,122.0
425.56,130.0
425.63,130.0
425.69,137.0
425.75,110.0
425.82,133.0
425.88,129.0
425.94,129.0
426.01,115.0
426.07,124.0
426.13,150.0
426.19,148.0
426.26,154.0
426.32,162.0
426.38,152.0
426.45,119.0
426.51,166.0
426.57,171.0
426.64,139.0
426.7,145.0
426.76,166.0
426.82,179.0
426.89,153.0
426.95,171.0
427.01,172.0
427.08,182.0
427.14,165.0
427.2,176.0
427.27,175.0
427.33,184.0
427.39,165.0
427.45,165.0
427.52,188.0
427.58,176.0
427.64,195.0
427.71,188.0
427.77,189.0
427.83,196.0
427.9,189.0
427.96,188.0
428.02,198.0
428.08,198.0
428.15,199.0
428.21,195.0
428.27,193.0
428.34,190.0
428.4,231.0
428.46,226.0
428.53,226.0
428.59,217.0
428.65,234.0
428.71,234.0
428.78,222.0
428.84,233.0
428.9,224.0
428.97,228.0
429.03,221.0
429.09,225.0
429.16,202.0
429.22,206.0
429.28,206.0
429.34,203.0
429.41,188.0
429.47,196.0
429.53,188.0
429.6,170.0
429.66,163.0
429.72,153.0
429.79,160.0
429.85,163.0
429.91,161.0
429.97,159.0
430.04,160.0
430.1,159.0
430.16,151.0
430.23,154.0
430.29,135.0
430.35,142.0
430.42,144.0
430.48,152.0
430.54,162.0
430.6,153.0
430.67,138.0
430.73,155.0
430.79,160.0
430.86,161.0
430.92,153.0
430.98,156.0
431.05,164.0
431.11,158.0
431.17,152.0
431.23,150.0
431.3,146.0
431.36,158.0
431.42,178.0
431.49,184.0
431.55,167.0
431.61,166.0
431.68,166.0
431.74,171.0
431.8,172.0
431.86,186.0
431.93,191.0
431.99,180.0
432.05,171.0
432.12,190.0
432.18,190.0
432.24,182.0
432.31,188.0
432.37,188.0
432.43,212.0
432.49,226.0
432.56,218.0
432.62,221.0
432.68,231.0
432.75,230.0
432.81,242.0
432.87,234.0
432.94,234.0
433.0,224.0
433.06,201.0
433.12,226.0
433.19,227.0
433.25,193.0
433.31,201.0
433.38,208.0
433.44,209.0
433.5,218.0
433.57,206.0
433.63,217.0
433.69,231.0
433.75,215.0
433.82,204.0
433.88,211.0
433.94,188.0
434.01,177.0
434.07,184.0
434.13,196.0
434.2,169.0
434.26,142.0
434.32,160.0
434.38,151.0
434.45,129.0
434.51,118.0
434.57,105.0
434.64,106.0
434.7,104.0
434.76,129.0
434.83,115.0
434.89,96.0
434.95,105.0
435.01,103.0
435.08,91.0
435.14,70.0
435.2,67.0
435.27,69.0
435.33,89.0
435.39,68.0
435.46,59.0
435.52,86.0
435.58,84.0
435.64,77.0
435.71,63.0
435.77,81.0
435.83,72.0
435.9,70.0
435.96,58.0
436.02,77.0
436.09,83.0
436.15,82.0
436.21,74.0
436.27,67.0
436.34,90.0
436.4,62.0
436.46,64.0
436.53,88.0
436.59,84.0
436.65,67.0
436.72,76.0
436.78,70.0
436.84,54.0
436.9,81.0
436.97,48.0
437.03,48.0
437.09,75.0
437.16,69.0
437.22,80.0
437.28,84.0
437.35,81.0
437.41,83.0
437.47,78.0
437.53,71.0
437.6,75.0
437.66,79.0
437.72,82.0
437.79,81.0
437.85,83.0
437.91,73.0
437.98,86.0
438.04,94.0
438.1,103.0
438.16,93.0
438.23,81.0
438.29,76.0
438.35,77.0
438.42,97.0
438.48,87.0
438.54,83.0
438.61,77.0
438.67,72.0
438.73,63.0
438.79,73.0
438.86,98.0
438.92,60.0
438.98,73.0
439.05,80.0
439.11,60.0
439.17,68.0
439.24,77.0
439.3,96.0
439.36,103.0
439.42,78.0
439.49,81.0
439.55,64.0
439.61,47.0
439.68,80.0
439.74,78.0
439.8,82.0
439.87,87.0
439.93,67.0
439.99,77.0
440.05,66.0
440.12,82.0
440.18,55.0
440.24,69.0
440.31,60.0
440.37,74.0
440.43,78.0
440.5,89.0
440.56,91.0
440.62,100.0
440.68,95.0
440.75,100.0
440.81,94.0
440.87,114.0
440.94,118.0
441.0,114.0
441.06,90.0
441.13,88.0
441.19,103.0
441.25,90.0
441.31,100.0
441.38,140.0
441.44,111.0
441.5,105.0
441.57,118.0
441.63,125.0
441.69,123.0
441.76,113.0
441.82,122.0
441.88,122.0
441.94,123.0
442.01,111.0
442.07,108.0
442.13,128.0
442.2,136.0
442.26,128.0
442.32,137.0
442.39,142.0
442.45,129.0
442.51,126.0
442.57,133.0
442.64,136.0
442.7,127.0
442.76,118.0
442.83,131.0
442.89,130.0
442.95,146.0
443.02,140.0
443.08,127.0
443.14,133.0
443.2,99.0
443.27,109.0
443.33,126.0
443.39,114.0
443.46,122.0
443.52,115.0
443.58,111.0
443.65,104.0
443.71,105.0
443.77,85.0
443.83,67.0
443.9,66.0
443.96,63.0
444.02,63.0
444.09,63.0
444.15,48.0
444.21,67.0
444.28,53.0
444.34,27.0
444.4,33.0
444.46,36.0
444.53,39.0
444.59,58.0
444.65,45.0
444.72,31.0
444.78,41.0
444.84,28.0
444.91,15.0
444.97,28.0
445.03,15.0
445.09,-6.0
445.16,14.0
445.22,8.0
445.28,4.0
445.35,10.0
445.41,23.0
445.47,17.0
445.54,19.0
445.6,6.0
445.66,-5.0
445.72,-15.0
445.79,-37.0
445.85,-20.0
445.91,-21.0
445.98,-36.0
446.04,-7.0
446.1,-16.0
446.17,-31.0
446.23,-24.0
446.29,-35.0
446.35,-40.0
446.42,-40.0
446.48,-30.0
446.54,-22.0
446.61,-15.0
446.67,2.0
446.73,-14.0
446.8,-10.0
446.86,-1.0
446.92,-4.0
446.98,3.0
447.05,26.0
447.11,31.0
447.17,23.0
447.24,31.0
447.3,43.0
447.36,37.0
447.43,38.0
447.49,65.0
447.55,58.0
447.61,50.0
447.68,63.0
447.74,71.0
447.8,70.0
447.87,73.0
447.93,63.0
447.99,74.0
448.06,65.0
448.12,56.0
448.18,50.0
448.24,57.0
448.31,62.0
448.37,28.0
448.43,42.0
448.5,31.0
448.56,31.0
448.62,35.0
448.69,30.0
448.75,31.0
448.81,3.0
448.87,21.0
448.94,16.0
449.0,6.0
449.06,13.0
449.13,10.0
449.19,8.0
449.25,-6.0
449.32,-6.0
449.38,4.0
449.44,-4.0
449.5,-11.0
449.57,-13.0
449.63,0.0
449.69,-9.0
449.76,1.0
449.82,-25.0
449.88,-39.0
449.95,-20.0
450.01,-32.0
450.07,-9.0
450.13,-27.0
450.2,-25.0
450.26,-19.0
450.32,-18.0
450.39,-20.0
450.45,-8.0
450.51,-8.0
450.58,3.0
450.64,7.0
450.7,13.0
450.76,7.0
450.83,-3.0
450.89,20.0
450.95,-9.0
451.02,6.0
451.08,29.0
451.14,17.0
451.21,37.0
451.27,48.0
451.33,20.0
451.39,30.0
451.46,56.0
451.52,72.0
451.58,65.0
451.65,62.0
451.71,92.0
451.77,87.0
451.84,73.0
451.9,72.0
451.96,90.0
452.02,85.0
452.09,91.0
452.15,84.0
452.21,96.0
452.28,120.0
452.34,97.0
452.4,110.0
452.47,101.0
452.53,84.0
452.59,93.0
452.65,102.0
452.72,109.0
452.78,109.0
452.84,104.0
452.91,121.0
452.97,142.0
453.03,153.0
453.1,146.0
453.16,156.0
453.22,156.0
453.28,149.0
453.35,168.0
453.41,121.0
453.47,131.0
453.54,132.0
453.6,124.0
453.66,133.0
453.73,123.0
453.79,130.0
453.85,120.0
453.91,107.0
453.98,94.0
454.04,103.0
454.1,107.0
454.17,99.0
454.23,77.0
454.29,88.0
454.36,87.0
454.42,81.0
454.48,98.0
454.54,87.0
454.61,86.0
454.67,71.0
454.73,75.0
454.8,96.0
454.86,72.0
454.92,79.0
454.99,60.0
455.05,68.0
455.11,72.0
455.17,76.0
455.24,71.0
455.3,47.0
455.36,60.0
455.43,57.0
455.49,83.0
455.55,64.0
455.62,52.0
455.68,62.0
455.74,80.0
455.8,87.0
455.87,80.0
455.93,77.0
455.99,82.0
456.06,71.0
456.12,59.0
456.18,65.0
456.25,76.0
456.31,48.0
456.37,72.0
456.43,69.0
456.5,70.0
456.56,66.0
456.62,89.0
456.69,82.0
456.75,88.0
456.81,89.0
456.88,90.0
456.94,95.0
457.0,102.0
457.06,123.0
457.13,124.0
457.19,142.0
457.25,120.0
457.32,120.0
457.38,119.0
457.44,124.0
457.51,146.0
457.57,143.0
457.63,135.0
457.69,131.0
457.76,138.0
457.82,151.0
457.88,153.0
457.95,164.0
458.01,158.0
458.07,177.0
458.14,170.0
458.2,171.0
458.26,184.0
458.32,175.0
458.39,150.0
458.45,162.0
458.51,161.0
458.58,162.0
458.64,174.0
458.7,171.0
458.77,145.0
458.83,161.0
458.89,138.0
458.95,120.0
459.02,126.0
459.08,132.0
459.14,135.0
459.21,110.0
459.27,143.0
459.33,146.0
459.4,153.0
459.46,125.0
459.52,150.0
459.58,167.0
459.65,151.0
459.71,153.0
459.77,179.0
459.84,182.0
459.9,162.0
459.96,175.0
460.03,160.0
460.09,175.0
460.15,178.0
460.21,164.0
460.28,143.0
460.34,140.0
460.4,168.0
460.47,183.0
460.53,170.0
460.59,168.0
460.66,173.0
460.72,165.0
460.78,171.0
460.84,143.0
460.91,149.0
460.97,160.0
461.03,163.0
461.1,162.0
461.16,153.0
461.22,151.0
461.29,135.0
461.35,145.0
461.41,161.0
461.47,165.0
461.54,152.0
461.6,153.0
461.66,159.0
461.73,162.0
461.79,140.0
461.85,146.0
461.92,158.0
461.98,146.0
462.04,154.0
462.1,151.0
462.17,165.0
462.23,167.0
462.29,160.0
462.36,158.0
462.42,162.0
462.48,153.0
462.55,160.0
462.61,146.0
462.67,141.0
462.73,143.0
462.8,164.0
462.86,154.0
462.92,150.0
462.99,149.0
463.05,127.0
463.11,122.0
463.18,96.0
463.24,91.0
463.3,94.0
463.36,85.0
463.43,99.0
463.49,115.0
463.55,99.0
463.62,105.0
463.68,117.0
463.74,119.0
463.81,116.0
463.87,122.0
463.93,121.0
463.99,113.0
464.06,123.0
464.12,102.0
464.18,102.0
464.25,117.0
464.31,124.0
464.37,137.0
464.44,148.0
464.5,157.0
464.56,142.0
464.62,159.0
464.69,153.0
464.75,148.0
464.81,190.0
464.88,183.0
464.94,162.0
465.0,124.0
465.07,142.0
465.13,137.0
465.19,142.0
465.25,140.0
465.32,135.0
465.38,149.0
465.44,126.0
465.51,134.0
465.57,131.0
465.63,129.0
465.7,116.0
465.76,99.0
465.82,111.0
465.88,98.0
465.95,97.0
466.01,110.0
466.07,117.0
466.14,119.0
466.2,128.0
466.26,129.0
466.33,129.0
466.39,109.0
466.45,103.0
466.51,112.0
466.58,106.0
466.64,120.0
466.7,126.0
466.77,119.0
466.83,107.0
466.89,118.0
466.96,115.0
467.02,136.0
467.08,135.0
467.14,162.0
467.21,192.0
467.27,198.0
467.33,197.0
467.4,178.0
467.46,163.0
467.52,154.0
467.59,128.0
467.65,121.0
467.71,116.0
467.77,101.0
467.84,87.0
467.9,95.0
467.96,99.0
468.03,109.0
468.09,102.0
468.15,117.0
468.22,124.0
468.28,117.0
468.34,103.0
468.4,98.0
468.47,90.0
468.53,84.0
468.59,87.0
468.66,89.0
468.72,84.0
468.78,61.0
468.85,61.0
468.91,52.0
468.97,76.0
469.03,79.0
469.1,83.0
469.16,59.0
469.22,41.0
469.29,40.0
469.35,14.0
469.41,22.0
469.48,50.0
469.54,41.0
469.6,32.0
469.66,29.0
469.73,14.0
469.79,4.0
469.85,22.0
469.92,14.0
469.98,12.0
470.04,37.0
470.11,15.0
470.17,7.0
470.23,-8.0
470.29,-26.0
470.36,-28.0
470.42,-22.0
470.48,-22.0
470.55,-23.0
470.61,-9.0
470.67,8.0
470.74,-5.0
470.8,11.0
470.86,15.0
470.92,25.0
470.99,49.0
471.05,27.0
471.11,23.0
471.18,8.0
471.24,10.0
471.3,40.0
471.37,15.0
471.43,15.0
471.49,14.0
471.55,21.0
471.62,17.0
471.68,15.0
471.74,40.0
471.81,34.0
471.87,14.0
471.93,46.0
472.0,46.0
472.06,24.0
472.12,12.0
472.18,23.0
472.25,19.0
472.31,32.0
472.37,38.0
472.44,51.0
472.5,20.0
472.56,12.0
472.63,11.0
472.69,13.0
472.75,17.0
472.81,0.0
472.88,27.0
472.94,36.0
473.0,25.0
473.07,38.0
473.13,26.0
473.19,3.0
473.26,-10.0
473.32,-9.0
473.38,7.0
473.44,18.0
473.51,13.0
473.57,3.0
473.63,-1.0
473.7,-2.0
473.76,-12.0
473.82,-5.0
473.89,15.0
473.95,11.0
474.01,12.0
474.07,24.0
474.14,36.0
474.2,13.0
474.26,15.0
474.33,9.0
474.39,14.0
474.45,23.0
474.52,25.0
474.58,31.0
474.64,14.0
474.7,17.0
474.77,8.0
474.83,-29.0
474.89,-5.0
474.96,7.0
475.02,12.0
475.08,5.0
475.15,3.0
475.21,-6.0
475.27,7.0
475.33,13.0
475.4,-4.0
475.46,18.0
475.52,28.0
475.59,18.0
475.65,9.0
475.71,23.0
475.78,3.0
475.84,27.0
475.9,57.0
475.96,28.0
476.03,29.0
476.09,33.0
476.15,23.0
476.22,35.0
476.28,35.0
476.34,32.0
476.41,58.0
476.47,61.0
476.53,42.0
476.59,32.0
476.66,53.0
476.72,60.0
476.78,56.0
476.85,78.0
476.91,83.0
476.97,91.0
477.04,98.0
477.1,78.0
477.16,76.0
477.22,92.0
477.29,114.0
477.35,130.0
477.41,121.0
477.48,122.0
477.54,124.0
477.6,131.0
477.67,116.0
477.73,106.0
477.79,108.0
477.85,108.0
477.92,95.0
477.98,105.0
478.04,106.0
478.11,85.0
478.17,111.0
478.23,119.0
478.3,111.0
478.36,107.0
478.42,120.0
478.48,116.0
478.55,105.0
478.61,90.0
478.67,100.0
478.74,105.0
478.8,82.0
478.86,89.0
478.93,106.0
478.99,95.0
479.05,101.0
479.11,109.0
479.18,96.0
479.24,92.0
479.3,101.0
479.37,91.0
479.43,80.0
479.49,64.0
479.56,53.0
479.62,67.0
479.68,61.0
479.74,70.0
479.81,40.0
479.87,58.0
479.93,83.0
480.0,51.0
480.06,61.0
480.12,61.0
480.19,29.0
480.25,26.0
480.31,18.0
480.37,24.0
480.44,37.0
480.5,41.0
480.56,36.0
480.63,36.0
480.69,39.0
480.75,33.0
480.82,35.0
480.88,37.0
480.94,56.0
481.0,54.0
481.07,59.0
481.13,60.0
481.19,61.0
481.26,56.0
481.32,58.0
481.38,37.0
481.45,34.0
481.51,30.0
481.57,16.0
481.63,23.0
481.7,42.0
481.76,62.0
481.82,55.0
481.89,51.0
481.95,64.0
482.01,57.0
482.08,80.0
482.14,100.0
482.2,92.0
482.26,86.0
482.33,89.0
482.39,92.0
482.45,89.0
482.52,100.0
482.58,97.0
482.64,79.0
482.71,89.0
482.77,90.0
482.83,73.0
482.89,70.0
482.96,70.0
483.02,85.0
483.08,60.0
483.15,67.0
483.21,52.0
483.27,34.0
483.34,78.0
483.4,89.0
483.46,75.0
483.52,64.0
483.59,43.0
483.65,37.0
483.71,35.0
483.78,30.0
483.84,62.0
483.9,59.0
483.97,46.0
484.03,39.0
484.09,26.0
484.15,24.0
484.22,27.0
484.28,35.0
484.34,39.0
484.41,78.0
484.47,67.0
484.53,73.0
484.6,77.0
484.66,62.0
484.72,61.0
484.78,59.0
484.85,74.0
484.91,79.0
484.97,80.0
485.04,78.0
485.1,82.0
485.16,84.0
485.23,58.0
485.29,66.0
485.35,56.0
485.41,57.0
485.48,62.0
485.54,51.0
485.6,46.0
485.67,49.0
485.73,35.0
485.79,40.0
485.86,52.0
485.92,38.0
485.98,24.0
486.04,42.0
486.11,56.0
486.17,62.0
486.23,84.0
486.3,92.0
486.36,90.0
486.42,106.0
486.49,99.0
486.55,126.0
486.61,130.0
486.67,141.0
486.74,154.0
486.8,152.0
486.86,168.0
486.93,158.0
486.99,153.0
487.05,171.0
487.12,161.0
487.18,174.0
487.24,183.0
487.3,160.0
487.37,153.0
487.43,132.0
487.49,124.0
487.56,108.0
487.62,123.0
487.68,119.0
487.75,121.0
487.81,120.0
487.87,118.0
487.93,134.0
488.0,125.0
488.06,117.0
488.12,99.0
488.19,106.0
488.25,85.0
488.31,82.0
488.38,90.0
488.44,73.0
488.5,75.0
488.56,90.0
488.63,100.0
488.69,93.0
488.75,76.0
488.82,80.0
488.88,93.0
488.94,83.0
489.01,80.0
489.07,83.0
489.13,88.0
489.19,87.0
489.26,82.0
489.32,101.0
489.38,112.0
489.45,100.0
489.51,112.0
489.57,106.0
489.64,105.0
489.7,83.0
489.76,100.0
489.82,105.0
489.89,103.0
489.95,98.0
490.01,125.0
490.08,143.0
490.14,133.0
490.2,122.0
490.27,114.0
490.33,141.0
490.39,128.0
490.45,106.0
490.52,104.0
490.58,104.0
490.64,100.0
490.71,82.0
490.77,108.0
490.83,111.0
490.9,135.0
490.96,117.0
491.02,125.0
491.08,128.0
491.15,130.0
491.21,129.0
491.27,122.0
491.34,145.0
491.4,152.0
491.46,141.0
491.53,152.0
491.59,166.0
491.65,163.0
491.71,159.0
491.78,161.0
491.84,162.0
491.9,170.0
491.97,163.0
492.03,147.0
492.09,162.0
492.16,161.0
492.22,182.0
492.28,194.0
492.34,197.0
492.41,191.0
492.47,196.0
492.53,172.0
492.6,190.0
492.66,188.0
492.72,207.0
492.79,215.0
492.85,229.0
492.91,244.0
492.97,242.0
493.04,229.0
493.1,214.0
493.16,211.0
493.23,211.0
493.29,176.0
493.35,210.0
493.42,187.0
493.48,181.0
493.54,186.0
493.6,169.0
493.67,167.0
493.73,175.0
493.79,156.0
493.86,149.0
493.92,152.0
493.98,159.0
494.05,162.0
494.11,144.0
494.17,145.0
494.23,162.0
494.3,165.0
494.36,175.0
494.42,158.0
494.49,144.0
494.55,156.0
494.61,147.0
494.68,144.0
494.74,125.0
494.8,122.0
494.86,120.0
494.93,109.0
494.99,109.0
495.05,104.0
495.12,102.0
495.18,84.0
495.24,91.0
495.31,77.0
495.37,75.0
495.43,68.0
495.49,71.0
495.56,86.0
495.62,93.0
495.68,82.0
495.75,101.0
495.81,73.0
495.87,62.0
495.94,80.0
496.0,73.0
496.06,68.0
496.12,56.0
496.19,53.0
496.25,65.0
496.31,43.0
496.38,35.0
496.44,46.0
496.5,53.0
496.57,53.0
496.63,57.0
496.69,42.0
496.75,57.0
496.82,64.0
496.88,61.0
496.94,60.0
497.01,70.0
497.07,36.0
497.13,59.0
497.2,55.0
497.26,54.0
497.32,41.0
497.38,51.0
497.45,45.0
497.51,53.0
497.57,49.0
497.64,49.0
497.7,45.0
497.76,39.0
497.83,29.0
497.89,32.0
497.95,51.0
498.01,50.0
498.08,70.0
498.14,64.0
498.2,62.0
498.27,60.0
498.33,53.0
498.39,29.0
498.46,21.0
498.52,29.0
498.58,39.0
498.64,53.0
498.71,46.0
498.77,51.0
498.83,47.0
498.9,51.0
498.96,36.0
499.02,48.0
499.09,50.0
499.15,40.0
499.21,57.0
499.27,48.0
499.34,47.0
499.4,24.0
499.46,21.0
499.53,32.0
499.59,43.0
499.65,27.0
499.72,22.0
499.78,21.0
499.84,18.0
499.9,-7.0
499.97,-10.0
500.03,-18.0
500.09,-1.0
500.16,8.0
500.22,-4.0
500.28,-11.0
500.35,-1.0
500.41,14.0
500.47,-4.0
500.53,-11.0
500.6,-35.0
500.66,-51.0
500.72,-42.0
500.79,-24.0
500.85,-8.0
500.91,-14.0
500.98,-19.0
501.04,-12.0
501.1,-4.0
501.16,-18.0
501.23,-14.0
501.29,-14.0
501.35,-1.0
501.42,1.0
501.48,8.0
501.54,12.0
501.61,25.0
501.67,16.0
501.73,25.0
501.79,24.0
501.86,44.0
501.92,28.0
501.98,36.0
502.05,30.0
502.11,15.0
502.17,12.0
502.24,21.0
502.3,23.0
502.36,26.0
502.42,31.0
502.49,22.0
502.55,8.0
502.61,22.0
502.68,24.0
502.74,18.0
502.8,29.0
502.87,24.0
502.93,9.0
502.99,9.0
503.05,10.0
503.12,-19.0
503.18,-21.0
503.24,4.0
503.31,11.0
503.37,6.0
503.43,12.0
503.5,33.0
503.56,32.0
503.62,48.0
503.68,58.0
503.75,54.0
503.81,62.0
503.87,48.0
503.94,29.0
504.0,47.0
504.06,44.0
504.13,55.0
504.19,55.0
504.25,42.0
504.31,41.0
504.38,27.0
504.44,35.0
504.5,40.0
504.57,41.0
504.63,33.0
504.69,18.0
504.76,24.0
504.82,39.0
504.88,36.0
504.94,35.0
505.01,17.0
505.07,27.0
505.13,39.0
505.2,18.0
505.26,19.0
505.32,-9.0
505.39,-2.0
505.45,4.0
505.51,16.0
505.57,18.0
505.64,4.0
505.7,18.0
505.76,-13.0
505.83,-6.0
505.89,7.0
505.95,12.0
506.02,13.0
506.08,7.0
506.14,14.0
506.2,19.0
506.27,32.0
506.33,14.0
506.39,21.0
506.46,34.0
506.52,34.0
506.58,46.0
506.65,53.0
506.71,78.0
506.77,75.0
506.83,45.0
506.9,56.0
506.96,57.0
507.02,56.0
507.09,49.0
507.15,55.0
507.21,42.0
507.28,19.0
507.34,21.0
507.4,24.0
507.46,18.0
507.53,35.0
507.59,38.0
507.65,30.0
507.72,22.0
507.78,46.0
507.84,30.0
507.91,17.0
507.97,12.0
508.03,31.0
508.09,26.0
508.16,27.0
508.22,31.0
508.28,38.0
508.35,35.0
508.41,32.0
508.47,54.0
508.54,61.0
508.6,51.0
508.66,31.0
508.72,38.0
508.79,45.0
508.85,53.0
508.91,65.0
508.98,52.0
509.04,82.0
509.1,58.0
509.17,62.0
509.23,68.0
509.29,58.0
509.35,51.0
509.42,72.0
509.48,67.0
509.54,89.0
509.61,103.0
509.67,96.0
509.73,110.0
509.8,89.0
509.86,98.0
509.92,94.0
509.98,84.0
510.05,82.0
510.11,115.0
510.17,132.0
510.24,111.0
510.3,115.0
510.36,119.0
510.43,108.0
510.49,113.0
510.55,133.0
510.61,121.0
510.68,151.0
510.74,159.0
510.8,148.0
510.87,130.0
510.93,145.0
510.99,154.0
511.06,162.0
511.12,170.0
511.18,185.0
511.24,179.0
511.31,174.0
511.37,162.0
511.43,149.0
511.5,158.0
511.56,146.0
511.62,152.0
511.69,151.0
511.75,163.0
511.81,165.0
511.87,140.0
511.94,143.0
512.0,137.0
512.06,128.0
512.13,101.0
512.19,99.0
512.25,90.0
512.32,92.0
512.38,75.0
512.44,68.0
512.5,57.0
512.57,60.0
512.63,75.0
512.69,65.0
512.76,78.0
512.82,100.0
512.88,98.0
512.95,65.0
513.01,68.0
513.07,104.0
513.13,119.0
513.2,129.0
513.26,137.0
513.32,130.0
513.39,91.0
513.45,126.0
513.51,141.0
513.58,139.0
513.64,120.0
513.7,121.0
513.76,138.0
513.83,132.0
513.89,113.0
513.95,128.0
514.02,131.0
514.08,126.0
514.14,112.0
514.21,134.0
514.27,148.0
514.33,129.0
514.39,130.0
514.46,126.0
514.52,115.0
514.58,119.0
514.65,108.0
514.71,116.0
514.77,119.0
514.84,109.0
514.9,113.0
514.96,91.0
515.02,89.0
515.09,110.0
515.15,100.0
515.21,108.0
515.28,118.0
515.34,136.0
515.4,115.0
515.47,112.0
515.53,115.0
515.59,112.0
515.65,126.0
515.72,135.0
515.78,137.0
515.84,155.0
515.91,143.0
515.97,151.0
516.03,126.0
516.1,137.0
516.16,166.0
516.22,170.0
516.28,159.0
516.35,179.0
516.41,171.0
516.47,167.0
516.54,179.0
516.6,170.0
516.66,157.0
516.73,163.0
516.79,164.0
516.85,149.0
516.91,166.0
516.98,148.0
517.04,135.0
517.1,137.0
517.17,117.0
517.23,122.0
517.29,135.0
517.36,133.0
517.42,115.0
517.48,120.0
517.54,132.0
517.61,127.0
517.67,126.0
517.73,133.0
517.8,139.0
517.86,157.0
517.92,141.0
517.99,158.0
518.05,178.0
518.11,161.0
518.17,143.0
518.24,148.0
518.3,144.0
518.36,145.0
518.43,159.0
518.49,153.0
518.55,160.0
518.62,135.0
518.68,145.0
518.74,128.0
518.8,130.0
518.87,133.0
518.93,154.0
518.99,138.0
519.06,126.0
519.12,144.0
519.18,133.0
519.25,134.0
519.31,125.0
519.37,124.0
519.43,130.0
519.5,125.0
519.56,124.0
519.62,131.0
519.69,130.0
519.75,145.0
519.81,124.0
519.88,112.0
519.94,125.0
520.0,114.0
520.06,132.0
520.13,145.0
520.19,135.0
520.25,132.0
520.32,127.0
520.38,125.0
520.44,144.0
520.51,127.0
520.57,108.0
520.63,113.0
520.69,100.0
520.76,111.0
520.82,106.0
520.88,118.0
520.95,106.0
521.01,95.0
521.07,93.0
521.14,83.0
521.2,61.0
521.26,67.0
521.32,60.0
521.39,41.0
521.45,43.0
521.51,66.0
521.58,79.0
521.64,76.0
521.7,61.0
521.77,49.0
521.83,45.0
521.89,36.0
521.95,42.0
522.02,27.0
522.08,43.0
522.14,34.0
522.21,16.0
522.27,16.0
522.33,1.0
522.4,2.0
522.46,-3.0
522.52,-10.0
522.58,3.0
522.65,-5.0
522.71,-1.0
522.77,-26.0
522.84,-31.0
522.9,-13.0
522.96,-10.0
523.03,1.0
523.09,12.0
523.15,38.0
523.21,24.0
523.28,23.0
523.34,4.0
523.4,-6.0
523.47,6.0
523.53,16.0
523.59,40.0
523.66,28.0
523.72,4.0
523.78,38.0
523.84,46.0
523.91,43.0
523.97,44.0
524.03,36.0
524.1,43.0
524.16,41.0
524.22,45.0
524.29,55.0
524.35,54.0
524.41,81.0
524.47,61.0
524.54,39.0
524.6,41.0
524.66,31.0
524.73,43.0
524.79,56.0
524.85,40.0
524.92,62.0
524.98,55.0
525.04,65.0
525.1,83.0
525.17,88.0
525.23,111.0
525.29,115.0
525.36,108.0
525.42,107.0
525.48,105.0
525.55,99.0
525.61,99.0
525.67,90.0
525.73,89.0
525.8,127.0
525.86,125.0
525.92,109.0
525.99,134.0
526.05,142.0
526.11,125.0
526.18,138.0
526.24,126.0
526.3,132.0
526.36,122.0
526.43,118.0
526.49,110.0
526.55,104.0
526.62,109.0
526.68,116.0
526.74,106.0
526.81,107.0
526.87,99.0
526.93,119.0
526.99,121.0
527.06,118.0
527.12,124.0
527.18,130.0
527.25,134.0
527.31,118.0
527.37,128.0
527.44,148.0
527.5,137.0
527.56,127.0
527.62,143.0
527.69,138.0
527.75,150.0
527.81,147.0
527.88,142.0
527.94,146.0
528.0,110.0
528.07,119.0
528.13,128.0
528.19,113.0
528.25,106.0
528.32,129.0
528.38,122.0
528.44,139.0
528.51,141.0
528.57,144.0
528.63,142.0
528.7,143.0
528.76,149.0
528.82,156.0
528.88,128.0
528.95,129.0
529.01,120.0
529.07,112.0
529.14,102.0
529.2,119.0
529.26,121.0
529.33,118.0
529.39,123.0
529.45,117.0
529.51,92.0
529.58,85.0
529.64,105.0
529.7,104.0
529.77,108.0
529.83,118.0
529.89,97.0
529.96,99.0
530.02,105.0
530.08,122.0
530.14,111.0
530.21,124.0
530.27,109.0
530.33,118.0
530.4,134.0
530.46,123.0
530.52,130.0
530.59,121.0
530.65,123.0
530.71,134.0
530.77,134.0
530.84,128.0
530.9,125.0
530.96,146.0
531.03,143.0
531.09,155.0
531.15,140.0
531.22,140.0
531.28,169.0
531.34,153.0
531.4,166.0
531.47,167.0
531.53,164.0
531.59,162.0
531.66,168.0
531.72,154.0
531.78,145.0
531.85,146.0
531.91,155.0
531.97,139.0
532.03,159.0
532.1,171.0
532.16,162.0
532.22,162.0
532.29,169.0
532.35,157.0
532.41,153.0
532.48,146.0
532.54,125.0
532.6,132.0
532.66,124.0
532.73,125.0
532.79,92.0
532.85,118.0
532.92,119.0
532.98,112.0
533.04,118.0
533.11,131.0
533.17,121.0
533.23,118.0
533.29,114.0
533.36,109.0
533.42,117.0
533.48,110.0
533.55,101.0
533.61,112.0
533.67,113.0
533.74,83.0
533.8,61.0
533.86,67.0
533.92,58.0
533.99,66.0
534.05,73.0
534.11,66.0
534.18,89.0
534.24,72.0
534.3,60.0
534.37,56.0
534.43,51.0
534.49,42.0
534.55,29.0
534.62,22.0
534.68,31.0
534.74,47.0
534.81,25.0
534.87,24.0
534.93,30.0
535.0,30.0
535.06,43.0
535.12,39.0
535.18,41.0
535.25,25.0
535.31,18.0
535.37,29.0
535.44,40.0
535.5,65.0
535.56,48.0
535.63,35.0
535.69,24.0
535.75,17.0
535.81,25.0
535.88,11.0
535.94,19.0
536.0,22.0
536.07,6.0
536.13,24.0
536.19,12.0
536.26,-14.0
536.32,5.0
536.38,15.0
536.44,35.0
536.51,24.0
536.57,19.0
536.63,23.0
536.7,27.0
536.76,38.0
536.82,34.0
536.89,25.0
536.95,24.0
537.01,15.0
537.07,35.0
537.14,44.0
537.2,42.0
537.26,45.0
537.33,46.0
537.39,50.0
537.45,13.0
537.52,51.0
537.58,38.0
537.64,48.0
537.7,44.0
537.77,33.0
537.83,19.0
537.89,50.0
537.96,51.0
538.02,27.0
538.08,14.0
538.15,24.0
538.21,47.0
538.27,47.0
538.33,13.0
538.4,17.0
538.46,16.0
538.52,-1.0
538.59,41.0
538.65,41.0
538.71,22.0
538.78,28.0
538.84,28.0
538.9,27.0
538.96,2.0
539.03,2.0
539.09,16.0
539.15,26.0
539.22,24.0
539.28,35.0
539.34,34.0
539.41,19.0
539.47,15.0
539.53,8.0
539.59,20.0
539.66,32.0
539.72,23.0
539.78,38.0
539.85,23.0
539.91,15.0
539.97,28.0
540.04,38.0
540.1,47.0
540.16,42.0
540.22,60.0
540.29,54.0
540.35,57.0
540.41,64.0
540.48,54.0
540.54,59.0
540.6,49.0
540.67,46.0
540.73,38.0
540.79,27.0
540.85,56.0
540.92,37.0
540.98,31.0
541.04,30.0
541.11,29.0
541.17,25.0
541.23,14.0
541.3,21.0
541.36,33.0
541.42,39.0
541.48,20.0
541.55,26.0
541.61,0.0
541.67,-2.0
541.74,27.0
541.8,8.0
541.86,13.0
541.93,12.0
541.99,41.0
542.05,34.0
542.11,35.0
542.18,37.0
542.24,42.0
542.3,56.0
542.37,67.0
542.43,73.0
542.49,80.0
542.56,83.0
542.62,89.0
542.68,89.0
542.74,89.0
542.81,90.0
542.87,81.0
542.93,82.0
543.0,76.0
543.06,70.0
543.12,81.0
543.19,78.0
543.25,89.0
543.31,94.0
543.37,74.0
543.44,94.0
543.5,96.0
543.56,63.0
543.63,79.0
543.69,98.0
543.75,96.0
543.82,95.0
543.88,99.0
543.94,88.0
544.0,103.0
544.07,108.0
544.13,85.0
544.19,95.0
544.26,97.0
544.32,115.0
544.38,112.0
544.45,118.0
544.51,107.0
544.57,102.0
544.63,91.0
544.7,91.0
544.76,95.0
544.82,88.0
544.89,107.0
544.95,86.0
545.01,93.0
545.08,115.0
545.14,103.0
545.2,100.0
545.26,105.0
545.33,92.0
545.39,91.0
545.45,107.0
545.52,115.0
545.58,97.0
545.64,87.0
545.71,108.0
545.77,119.0
545.83,107.0
545.89,109.0
545.96,106.0
546.02,114.0
546.08,117.0
546.15,96.0
546.21,107.0
546.27,101.0
546.34,104.0
546.4,124.0
546.46,109.0
546.52,115.0
546.59,97.0
546.65,99.0
546.71,79.0
546.78,81.0
546.84,81.0
546.9,92.0
546.97,95.0
547.03,95.0
547.09,113.0
547.15,118.0
547.22,105.0
547.28,110.0
547.34,111.0
547.41,113.0
547.47,107.0
547.53,97.0
547.6,112.0
547.66,97.0
547.72,93.0
547.78,91.0
547.85,102.0
547.91,100.0
547.97,107.0
548.04,98.0
548.1,86.0
548.16,93.0
548.23,103.0
548.29,74.0
548.35,72.0
548.41,78.0
548.48,72.0
548.54,60.0
548.6,67.0
548.67,48.0
548.73,42.0
548.79,39.0
548.86,34.0
548.92,35.0
548.98,30.0
549.04,43.0
549.11,34.0
549.17,16.0
549.23,35.0
549.3,19.0
549.36,42.0
549.42,46.0
549.49,42.0
549.55,81.0
549.61,67.0
549.67,76.0
549.74,82.0
549.8,74.0
549.86,74.0
549.93,64.0
549.99,67.0
550.05,67.0
550.12,69.0
550.18,90.0
550.24,96.0
550.3,99.0
550.37,108.0
550.43,106.0
550.49,129.0
550.56,111.0
550.62,118.0
550.68,105.0
550.75,116.0
550.81,111.0
550.87,98.0
550.93,109.0
551.0,80.0
551.06,98.0
551.12,125.0
551.19,102.0
551.25,100.0
551.31,89.0
551.38,89.0
551.44,84.0
551.5,93.0
551.56,82.0
551.63,77.0
551.69,84.0
551.75,95.0
551.82,97.0
551.88,94.0
551.94,83.0
552.01,83.0
552.07,100.0
552.13,98.0
552.19,101.0
552.26,104.0
552.32,96.0
552.38,108.0
552.45,113.0
552.51,97.0
552.57,96.0
552.64,92.0
552.7,101.0
552.76,104.0
552.82,100.0
552.89,102.0
552.95,107.0
553.01,88.0
553.08,96.0
553.14,92.0
553.2,75.0
553.27,86.0
553.33,75.0
553.39,85.0
553.45,81.0
553.52,91.0
553.58,80.0
553.64,93.0
553.71,92.0
553.77,81.0
553.83,100.0
553.9,100.0
553.96,119.0
554.02,122.0
554.08,114.0
554.15,147.0
554.21,141.0
554.27,141.0
554.34,121.0
554.4,141.0
554.46,161.0
554.53,145.0
554.59,136.0
554.65,138.0
554.71,138.0
554.78,135.0
554.84,140.0
554.9,127.0
554.97,116.0
555.03,100.0
555.09,80.0
555.16,95.0
555.22,87.0
555.28,96.0
555.34,99.0
555.41,78.0
555.47,81.0
555.53,80.0
555.6,78.0
555.66,92.0
555.72,77.0
555.79,98.0
555.85,77.0
555.91,94.0
555.97,105.0
556.04,101.0
556.1,97.0
556.16,102.0
556.23,106.0
556.29,102.0
556.35,113.0
556.42,101.0
556.48,115.0
556.54,105.0
556.6,121.0
556.67,126.0
556.73,125.0
556.79,115.0
556.86,112.0
556.92,116.0
556.98,111.0
557.05,102.0
557.11,91.0
557.17,94.0
557.23,117.0
557.3,94.0
557.36,86.0
557.42,73.0
557.49,69.0
557.55,76.0
557.61,73.0
557.68,84.0
557.74,90.0
557.8,68.0
557.86,94.0
557.93,114.0
557.99,86.0
558.05,99.0
558.12,98.0
558.18,93.0
558.24,98.0
558.31,94.0
558.37,99.0
558.43,88.0
558.49,87.0
558.56,86.0
558.62,60.0
558.68,57.0
558.75,60.0
558.81,47.0
558.87,57.0
558.94,37.0
559.0,24.0
559.06,14.0
559.12,26.0
559.19,22.0
559.25,8.0
559.31,30.0
559.38,32.0
559.44,50.0
559.5,28.0
559.57,36.0
559.63,36.0
559.69,62.0
559.75,50.0
559.82,54.0
559.88,55.0
559.94,45.0
560.01,79.0
560.07,67.0
560.13,60.0
560.2,75.0
560.26,89.0
560.32,78.0
560.38,116.0
560.45,84.0
560.51,58.0
560.57,63.0
560.64,67.0
560.7,63.0
560.76,53.0
560.83,58.0
560.89,41.0
560.95,31.0
561.01,53.0
561.08,42.0
561.14,26.0
561.2,62.0
561.27,53.0
561.33,36.0
561.39,42.0
561.46,60.0
561.52,41.0
561.58,45.0
561.64,57.0
561.71,56.0
561.77,74.0
561.83,76.0
561.9,70.0
561.96,59.0
562.02,67.0
562.09,74.0
562.15,60.0
562.21,45.0
562.27,46.0
562.34,54.0
562.4,48.0
562.46,43.0
562.53,48.0
562.59,34.0
562.65,30.0
562.72,49.0
562.78,48.0
562.84,44.0
562.9,42.0
562.97,82.0
563.03,79.0
563.09,78.0
563.16,83.0
563.22,98.0
563.28,114.0
563.35,96.0
563.41,80.0
563.47,98.0
563.53,92.0
563.6,102.0
563.66,114.0
563.72,114.0
563.79,115.0
563.85,118.0
563.91,129.0
563.98,118.0
564.04,127.0
564.1,125.0
564.16,109.0
564.23,121.0
564.29,111.0
564.35,124.0
564.42,125.0
564.48,143.0
564.54,124.0
564.61,132.0
564.67,134.0
564.73,124.0
564.79,151.0
564.86,149.0
564.92,160.0
564.98,183.0
565.05,168.0
565.11,148.0
565.17,131.0
565.24,138.0
565.3,123.0
565.36,114.0
565.42,133.0
565.49,127.0
565.55,130.0
565.61,129.0
565.68,124.0
565.74,126.0
565.8,102.0
565.87,113.0
565.93,102.0
565.99,85.0
566.05,96.0
566.12,105.0
566.18,98.0
566.24,88.0
566.31,86.0
566.37,74.0
566.43,81.0
566.5,75.0
566.56,61.0
566.62,77.0
566.68,90.0
566.75,56.0
566.81,56.0
566.87,67.0
566.94,86.0
567.0,84.0
567.06,85.0
567.13,87.0
567.19,80.0
567.25,107.0
567.31,98.0
567.38,102.0
567.44,77.0
567.5,91.0
567.57,118.0
567.63,111.0
567.69,104.0
567.76,105.0
567.82,93.0
567.88,93.0
567.94,81.0
568.01,81.0
568.07,79.0
568.13,105.0
568.2,94.0
568.26,87.0
568.32,67.0
568.39,74.0
568.45,67.0
568.51,77.0
568.57,70.0
568.64,61.0
568.7,73.0
568.76,85.0
568.83,87.0
568.89,99.0
568.95,110.0
569.02,103.0
569.08,100.0
569.14,84.0
569.2,100.0
569.27,107.0
569.33,94.0
569.39,86.0
569.46,89.0
569.52,95.0
569.58,101.0
569.65,95.0
569.71,89.0
569.77,97.0
569.83,107.0
569.9,129.0
569.96,120.0
570.02,112.0
570.09,111.0
570.15,125.0
570.21,121.0
570.28,115.0
570.34,88.0
570.4,108.0
570.46,115.0
570.53,100.0
570.59,100.0
570.65,89.0
570.72,88.0
570.78,96.0
570.84,112.0
570.91,109.0
570.97,110.0
571.03,83.0
571.09,96.0
571.16,90.0
571.22,82.0
571.28,89.0
571.35,68.0
571.41,59.0
571.47,60.0
571.54,53.0
571.6,49.0
571.66,51.0
571.72,61.0
571.79,61.0
571.85,69.0
571.91,45.0
571.98,45.0
572.04,33.0
572.1,20.0
572.17,26.0
572.23,19.0
572.29,25.0
572.35,23.0
572.42,14.0
572.48,8.0
572.54,6.0
572.61,12.0
572.67,-15.0
572.73,-13.0
572.8,-33.0
572.86,-43.0
572.92,-38.0
572.98,-31.0
573.05,-29.0
573.11,-46.0
573.17,-50.0
573.24,-31.0
573.3,-26.0
573.36,-38.0
573.43,-37.0
573.49,-40.0
573.55,-63.0
573.61,-53.0
573.68,-47.0
573.74,-47.0
573.8,-42.0
573.87,-43.0
573.93,-41.0
573.99,-45.0
574.06,-45.0
574.12,-22.0
574.18,-18.0
574.24,2.0
574.31,7.0
574.37,30.0
574.43,19.0
574.5,17.0
574.56,35.0
574.62,21.0
574.69,1.0
574.75,3.0
574.81,3.0
574.87,6.0
574.94,-1.0
575.0,2.0
575.06,-29.0
575.13,-8.0
575.19,-22.0
575.25,-31.0
575.32,-19.0
575.38,-21.0
575.44,-15.0
575.5,-41.0
575.57,-36.0
575.63,-27.0
575.69,-9.0
575.76,-34.0
575.82,-47.0
575.88,-28.0
575.95,12.0
576.01,2.0
576.07,4.0
576.13,24.0
576.2,11.0
576.26,5.0
576.32,15.0
576.39,12.0
576.45,-2.0
576.51,7.0
576.58,27.0
576.64,26.0
576.7,25.0
576.76,21.0
576.83,25.0
576.89,32.0
576.95,56.0
577.02,44.0
577.08,54.0
577.14,51.0
577.21,57.0
577.27,58.0
577.33,57.0
577.39,47.0
577.46,35.0
577.52,54.0
577.58,40.0
577.65,49.0
577.71,55.0
577.77,22.0
577.84,35.0
577.9,29.0
577.96,38.0
578.02,30.0
578.09,47.0
578.15,23.0
578.21,21.0
578.28,21.0
578.34,30.0
578.4,26.0
578.47,44.0
578.53,44.0
578.59,10.0
578.65,34.0
578.72,51.0
578.78,38.0
578.84,19.0
578.91,19.0
578.97,12.0
579.03,22.0
579.1,6.0
579.16,14.0
579.22,27.0
579.28,40.0
579.35,45.0
579.41,47.0
579.47,57.0
579.54,53.0
579.6,66.0
579.66,61.0
579.73,74.0
579.79,64.0
579.85,47.0
579.91,49.0
579.98,61.0
580.04,58.0
580.1,68.0
580.17,79.0
580.23,65.0
580.29,91.0
580.36,90.0
580.42,99.0
580.48,87.0
580.54,91.0
580.61,93.0
580.67,84.0
580.73,72.0
580.8,60.0
580.86,65.0
580.92,44.0
580.99,67.0
581.05,43.0
581.11,62.0
581.17,66.0
581.24,65.0
581.3,65.0
581.36,66.0
581.43,63.0
581.49,57.0
581.55,89.0
581.62,77.0
581.68,92.0
581.74,105.0
581.8,88.0
581.87,80.0
581.93,71.0
581.99,51.0
582.06,57.0
582.12,74.0
582.18,76.0
582.25,72.0
582.31,83.0
582.37,87.0
582.43,83.0
582.5,76.0
582.56,84.0
582.62,63.0
582.69,70.0
582.75,69.0
582.81,70.0
582.88,58.0
582.94,60.0
583.0,46.0
583.06,46.0
583.13,33.0
583.19,35.0
583.25,43.0
583.32,20.0
583.38,28.0
583.44,22.0
583.51,21.0
583.57,44.0
583.63,21.0
583.69,30.0
583.76,46.0
583.82,50.0
583.88,40.0
583.95,40.0
584.01,59.0
584.07,74.0
584.14,60.0
584.2,69.0
584.26,81.0
584.32,58.0
584.39,77.0
584.45,69.0
584.51,90.0
584.58,115.0
584.64,93.0
584.7,103.0
584.77,99.0
584.83,98.0
584.89,87.0
584.95,69.0
585.02,47.0
585.08,44.0
585.14,62.0
585.21,50.0
585.27,36.0
585.33,63.0
585.4,47.0
585.46,31.0
585.52,35.0
585.58,29.0
585.65,34.0
585.71,19.0
585.77,7.0
585.84,-11.0
585.9,-3.0
585.96,0.0
586.03,11.0
586.09,17.0
586.15,-5.0
586.21,17.0
586.28,18.0
586.34,16.0
586.4,15.0
586.47,20.0
586.53,33.0
586.59,27.0
586.66,40.0
586.72,23.0
586.78,27.0
586.84,23.0
586.91,22.0
586.97,21.0
587.03,18.0
587.1,12.0
587.16,-8.0
587.22,14.0
587.29,8.0
587.35,18.0
587.41,12.0
587.47,7.0
587.54,25.0
587.6,11.0
587.66,21.0
587.73,29.0
587.79,3.0
587.85,22.0
587.92,7.0
587.98,-15.0
588.04,15.0
588.1,-9.0
588.17,-7.0
588.23,17.0
588.29,10.0
588.36,-1.0
588.42,11.0
588.48,24.0
588.55,29.0
588.61,36.0
588.67,46.0
588.73,74.0
588.8,73.0
588.86,80.0
588.92,67.0
588.99,66.0
589.05,81.0
589.11,72.0
589.18,70.0
589.24,93.0
589.3,89.0
589.36,91.0
589.43,90.0
589.49,85.0
589.55,60.0
589.62,93.0
589.68,81.0
589.74,90.0
589.81,91.0
589.87,93.0
589.93,80.0
589.99,112.0
590.06,108.0
590.12,88.0
590.18,110.0
590.25,91.0
590.31,92.0
590.37,117.0
590.44,129.0
590.5,152.0
590.56,132.0
590.62,138.0
590.69,166.0
590.75,172.0
590.81,177.0
590.88,161.0
590.94,179.0
591.0,150.0
591.07,161.0
591.13,163.0
591.19,166.0
591.25,168.0
591.32,169.0
591.38,174.0
591.44,166.0
591.51,158.0
591.57,145.0
591.63,158.0
591.7,118.0
591.76,130.0
591.82,133.0
591.88,144.0
591.95,136.0
592.01,125.0
592.07,133.0
592.14,122.0
592.2,113.0
592.26,108.0
592.33,115.0
592.39,104.0
592.45,126.0
592.51,133.0
592.58,117.0
592.64,122.0
592.7,120.0
592.77,126.0
592.83,115.0
592.89,120.0
592.96,121.0
593.02,114.0
593.08,111.0
593.14,102.0
593.21,111.0
593.27,117.0
593.33,126.0
593.4,125.0
593.46,113.0
593.52,139.0
593.59,148.0
593.65,134.0
593.71,149.0
593.77,160.0
593.84,147.0
593.9,154.0
593.96,151.0
594.03,147.0
594.09,152.0
594.15,171.0
594.22,166.0
594.28,171.0
594.34,170.0
594.4,163.0
594.47,177.0
594.53,160.0
594.59,141.0
594.66,144.0
594.72,135.0
594.78,137.0
594.85,137.0
594.91,132.0
594.97,133.0
595.03,147.0
595.1,155.0
595.16,153.0
595.22,154.0
595.29,153.0
595.35,164.0
595.41,151.0
595.48,167.0
595.54,181.0
595.6,189.0
595.66,177.0
595.73,178.0
595.79,181.0
595.85,199.0
595.92,178.0
595.98,164.0
596.04,172.0
596.11,153.0
596.17,159.0
596.23,162.0
596.29,166.0
596.36,162.0
596.42,158.0
596.48,172.0
596.55,164.0
596.61,159.0
596.67,158.0
596.74,167.0
596.8,167.0
596.86,178.0
596.92,157.0
596.99,155.0
597.05,150.0
597.11,150.0
597.18,149.0
597.24,153.0
597.3,145.0
597.37,130.0
597.43,129.0
597.49,144.0
597.55,119.0
597.62,109.0
597.68,114.0
597.74,101.0
597.81,93.0
597.87,98.0
597.93,94.0
598.0,84.0
598.06,99.0
598.12,89.0
598.18,60.0
598.25,52.0
598.31,78.0
598.37,54.0
598.44,64.0
598.5,81.0
598.56,67.0
598.63,79.0
598.69,56.0
598.75,49.0
598.81,45.0
598.88,60.0
598.94,71.0
599.0,52.0
599.07,49.0
599.13,76.0
599.19,58.0
599.26,49.0
599.32,23.0
599.38,35.0
599.44,39.0
599.51,33.0
599.57,27.0
599.63,27.0
599.7,20.0
599.76,13.0
599.82,9.0
599.89,24.0
599.95,45.0
600.01,29.0
600.07,29.0
600.14,51.0
600.2,40.0
600.26,47.0
600.33,57.0
600.39,64.0
600.45,59.0
600.52,60.0
600.58,64.0
600.64,51.0
600.7,80.0
600.77,78.0
600.83,74.0
600.89,77.0
600.96,87.0
601.02,65.0
601.08,103.0
601.15,78.0
601.21,72.0
601.27,60.0
601.33,73.0
601.4,62.0
601.46,54.0
601.52,42.0
601.59,37.0
601.65,56.0
601.71,56.0
601.78,72.0
601.84,70.0
601.9,61.0
601.96,43.0
602.03,46.0
602.09,26.0
602.15,27.0
602.22,20.0
602.28,24.0
602.34,35.0
602.41,29.0
602.47,22.0
602.53,14.0
602.59,26.0
602.66,8.0
602.72,-3.0
602.78,-7.0
602.85,12.0
602.91,8.0
602.97,-17.0
603.04,13.0
603.1,-5.0
603.16,-17.0
603.22,-18.0
603.29,-21.0
603.35,-35.0
603.41,-23.0
603.48,-20.0
603.54,-24.0
603.6,-9.0
603.67,-4.0
603.73,-12.0
603.79,-5.0
603.85,8.0
603.92,10.0
603.98,12.0
604.04,18.0
604.11,3.0
604.17,13.0
604.23,11.0
604.3,19.0
604.36,21.0
604.42,13.0
604.48,18.0
604.55,-4.0
604.61,5.0
604.67,27.0
604.74,33.0
604.8,23.0
604.86,6.0
604.93,-2.0
604.99,12.0
605.05,11.0
605.11,30.0
605.18,23.0
605.24,17.0
605.3,35.0
605.37,40.0
605.43,22.0
605.49,35.0
605.56,49.0
605.62,41.0
605.68,40.0
605.74,52.0
605.81,41.0
605.87,45.0
605.93,66.0
606.0,55.0
606.06,42.0
606.12,49.0
606.19,52.0
606.25,62.0
606.31,62.0
606.37,52.0
606.44,58.0
606.5,47.0
606.56,37.0
606.63,23.0
606.69,36.0
606.75,40.0
606.82,20.0
606.88,19.0
606.94,15.0
607.0,9.0
607.07,7.0
607.13,-7.0
607.19,9.0
607.26,19.0
607.32,6.0
607.38,4.0
607.45,8.0
607.51,2.0
607.57,17.0
607.63,16.0
607.7,33.0
607.76,44.0
607.82,44.0
607.89,51.0
607.95,45.0
608.01,51.0
608.08,55.0
608.14,44.0
608.2,52.0
608.26,70.0
608.33,85.0
608.39,95.0
608.45,110.0
608.52,107.0
608.58,91.0
608.64,77.0
608.71,81.0
608.77,72.0
608.83,78.0
608.89,67.0
608.96,68.0
609.02,72.0
609.08,68.0
609.15,54.0
609.21,40.0
609.27,46.0
609.34,29.0
609.4,45.0
609.46,55.0
609.52,44.0
609.59,45.0
609.65,31.0
609.71,17.0
609.78,16.0
609.84,-3.0
609.9,25.0
609.97,18.0
610.03,17.0
610.09,39.0
610.15,18.0
610.22,37.0
610.28,47.0
610.34,50.0
610.41,73.0
610.47,65.0
610.53,76.0
610.6,75.0
610.66,94.0
610.72,94.0
610.78,96.0
610.85,97.0
610.91,86.0
610.97,90.0
611.04,90.0
611.1,91.0
611.16,94.0
611.23,73.0
611.29,76.0
611.35,46.0
611.41,38.0
611.48,58.0
611.54,37.0
611.6,43.0
611.67,23.0
611.73,4.0
611.79,3.0
611.86,12.0
611.92,0.0
611.98,28.0
612.04,36.0
612.11,14.0
612.17,40.0
612.23,36.0
612.3,20.0
612.36,32.0
612.42,19.0
612.49,14.0
612.55,34.0
612.61,32.0
612.67,34.0
612.74,49.0
612.8,39.0
612.86,64.0
612.93,35.0
612.99,35.0
613.05,48.0
613.12,37.0
613.18,47.0
613.24,58.0
613.3,55.0
613.37,70.0
613.43,53.0
613.49,66.0
613.56,78.0
613.62,76.0
613.68,90.0
613.75,102.0
613.81,88.0
613.87,88.0
613.93,105.0
614.0,104.0
614.06,105.0
614.12,120.0
614.19,120.0
614.25,128.0
614.31,125.0
614.38,144.0
614.44,138.0
614.5,118.0
614.56,124.0
614.63,122.0
614.69,141.0
614.75,157.0
614.82,167.0
614.88,152.0
614.94,159.0
615.01,150.0
615.07,149.0
615.13,150.0
615.19,158.0
615.26,159.0
615.32,168.0
615.38,157.0
615.45,165.0
615.51,153.0
615.57,147.0
615.64,165.0
615.7,184.0
615.76,189.0
615.82,206.0
615.89,209.0
615.95,196.0
616.01,193.0
616.08,199.0
616.14,187.0
616.2,206.0
616.27,194.0
616.33,188.0
616.39,183.0
616.45,196.0
616.52,190.0
616.58,182.0
616.64,185.0
616.71,187.0
616.77,190.0
616.83,176.0
616.9,183.0
616.96,166.0
617.02,165.0
617.08,158.0
617.15,147.0
617.21,143.0
617.27,119.0
617.34,132.0
617.4,141.0
617.46,131.0
617.53,124.0
617.59,139.0
617.65,144.0
617.71,114.0
617.78,136.0
617.84,154.0
617.9,147.0
617.97,153.0
618.03,158.0
618.09,158.0
618.16,142.0
618.22,142.0
618.28,163.0
618.34,140.0
618.41,128.0
618.47,121.0
618.53,125.0
618.6,113.0
618.66,98.0
618.72,60.0
618.79,87.0
618.85,100.0
618.91,87.0
618.97,86.0
619.04,57.0
619.1,53.0
619.16,74.0
619.23,75.0
619.29,72.0
619.35,63.0
619.42,84.0
619.48,73.0
619.54,66.0
619.6,83.0
619.67,97.0
619.73,84.0
619.79,88.0
619.86,61.0
619.92,83.0
619.98,83.0
620.05,99.0
620.11,115.0
620.17,106.0
620.23,130.0
620.3,110.0
620.36,113.0
620.42,106.0
620.49,124.0
620.55,121.0
620.61,124.0
620.68,115.0
620.74,118.0
620.8,131.0
620.86,124.0
620.93,148.0
620.99,137.0
621.05,141.0
621.12,156.0
621.18,153.0
621.24,143.0
621.31,142.0
621.37,147.0
621.43,145.0
621.49,133.0
621.56,128.0
621.62,138.0
621.68,107.0
621.75,124.0
621.81,135.0
621.87,141.0
621.94,135.0
622.0,129.0
622.06,145.0
622.12,145.0
622.19,136.0
622.25,131.0
622.31,147.0
622.38,135.0
622.44,124.0
622.5,116.0
622.57,116.0
622.63,123.0
622.69,114.0
622.75,116.0
622.82,81.0
622.88,78.0
622.94,61.0
623.01,69.0
623.07,74.0
623.13,80.0
623.2,94.0
623.26,76.0
623.32,83.0
623.38,76.0
623.45,61.0
623.51,52.0
623.57,46.0
623.64,45.0
623.7,59.0
623.76,64.0
623.83,49.0
623.89,59.0
623.95,73.0
624.01,67.0
624.08,54.0
624.14,48.0
624.2,69.0
624.27,45.0
624.33,46.0
624.39,64.0
624.46,37.0
624.52,52.0
624.58,48.0
624.64,57.0
624.71,45.0
624.77,42.0
624.83,47.0
624.9,50.0
624.96,73.0
625.02,81.0
625.09,70.0
625.15,53.0
625.21,71.0
625.27,42.0
625.34,67.0
625.4,84.0
625.46,78.0
625.53,80.0
625.59,81.0
625.65,72.0
625.72,69.0
625.78,71.0
625.84,78.0
625.9,83.0
625.97,86.0
626.03,93.0
626.09,85.0
626.16,98.0
626.22,95.0
626.28,87.0
626.35,50.0
626.41,73.0
626.47,72.0
626.53,80.0
626.6,92.0
626.66,74.0
626.72,69.0
626.79,61.0
626.85,66.0
626.91,50.0
626.98,28.0
627.04,51.0
627.1,54.0
627.16,32.0
627.23,44.0
627.29,33.0
627.35,33.0
627.42,43.0
627.48,40.0
627.54,57.0
627.61,58.0
627.67,51.0
627.73,78.0
627.79,84.0
627.86,95.0
627.92,99.0
627.98,106.0
628.05,106.0
628.11,110.0
628.17,102.0
628.24,94.0
628.3,95.0
628.36,105.0
628.42,116.0
628.49,97.0
628.55,102.0
628.61,99.0
628.68,90.0
628.74,85.0
628.8,65.0
628.87,55.0
628.93,55.0
628.99,41.0
629.05,48.0
629.12,48.0
629.18,27.0
629.24,33.0
629.31,48.0
629.37,57.0
629.43,69.0
629.5,69.0
629.56,71.0
629.62,47.0
629.68,42.0
629.75,46.0
629.81,35.0
629.87,46.0
629.94,58.0
630.0,55.0
630.06,36.0
630.13,51.0
630.19,61.0
630.25,59.0
630.31,87.0
630.38,67.0
630.44,65.0
630.5,64.0
630.57,78.0
630.63,81.0
630.69,78.0
630.76,66.0
630.82,67.0
630.88,82.0
630.94,65.0
631.01,63.0
631.07,59.0
631.13,58.0
631.2,77.0
631.26,72.0
631.32,67.0
631.39,80.0
631.45,68.0
631.51,49.0
631.57,53.0
631.64,64.0
631.7,61.0
631.76,70.0
631.83,68.0
631.89,70.0
631.95,66.0
632.02,69.0
632.08,66.0
632.14,64.0
632.2,73.0
632.27,86.0
632.33,95.0
632.39,95.0
632.46,111.0
632.52,103.0
632.58,90.0
632.65,94.0
632.71,87.0
632.77,85.0
632.83,48.0
632.9,50.0
632.96,29.0
633.02,46.0
633.09,28.0
633.15,18.0
633.21,29.0
633.28,29.0
633.34,15.0
633.4,17.0
633.46,4.0
633.53,18.0
633.59,29.0
633.65,38.0
633.72,28.0
633.78,33.0
633.84,44.0
633.91,45.0
633.97,44.0
634.03,42.0
634.09,60.0
634.16,70.0
634.22,72.0
634.28,77.0
634.35,88.0
634.41,64.0
634.47,81.0
634.54,74.0
634.6,62.0
634.66,67.0
634.72,50.0
634.79,46.0
634.85,42.0
634.91,29.0
634.98,39.0
635.04,36.0
635.1,45.0
635.17,72.0
635.23,36.0
635.29,40.0
635.35,42.0
635.42,20.0
635.48,21.0
635.54,29.0
635.61,46.0
635.67,58.0
635.73,64.0
635.8,55.0
635.86,61.0
635.92,68.0
635.98,65.0
636.05,54.0
636.11,56.0
636.17,59.0
636.24,56.0
636.3,56.0
636.36,36.0
636.43,40.0
636.49,59.0
636.55,58.0
636.61,48.0
636.68,57.0
636.74,58.0
636.8,58.0
636.87,43.0
636.93,59.0
636.99,64.0
637.06,53.0
637.12,65.0
637.18,60.0
637.24,39.0
637.31,59.0
637.37,54.0
637.43,65.0
637.5,44.0
637.56,40.0
637.62,54.0
637.69,22.0
637.75,31.0
637.81,45.0
637.87,24.0
637.94,23.0
638.0,42.0
638.06,37.0
638.13,12.0
638.19,16.0
638.25,32.0
638.32,48.0
638.38,27.0
638.44,29.0
638.5,18.0
638.57,11.0
638.63,20.0
638.69,-14.0
638.76,13.0
638.82,28.0
638.88,-1.0
638.95,9.0
639.01,10.0
639.07,15.0
639.13,35.0
639.2,30.0
639.26,12.0
639.32,15.0
639.39,33.0
639.45,20.0
639.51,20.0
639.58,43.0
639.64,24.0
639.7,27.0
639.76,31.0
639.83,37.0
639.89,30.0
639.95,38.0
640.02,31.0
640.08,12.0
640.14,20.0
640.21,17.0
640.27,4.0
640.33,23.0
640.39,10.0
640.46,13.0
640.52,7.0
640.58,0.0
640.65,26.0
640.71,15.0
640.77,4.0
640.84,34.0
640.9,53.0
640.96,31.0
641.02,21.0
641.09,23.0
641.15,48.0
641.21,30.0
641.28,32.0
641.34,55.0
641.4,46.0
641.47,62.0
641.53,31.0
641.59,70.0
641.65,53.0
641.72,75.0
641.78,65.0
641.84,50.0
641.91,42.0
641.97,46.0
642.03,41.0
642.1,35.0
642.16,38.0
642.22,46.0
642.28,42.0
642.35,26.0
642.41,26.0
642.47,35.0
642.54,50.0
642.6,42.0
642.66,48.0
642.73,43.0
642.79,45.0
642.85,67.0
642.91,62.0
642.98,62.0
643.04,88.0
643.1,92.0
643.17,89.0
643.23,78.0
643.29,72.0
643.36,75.0
643.42,83.0
643.48,75.0
643.54,65.0
643.61,38.0
643.67,35.0
643.73,68.0
643.8,45.0
643.86,42.0
643.92,49.0
643.99,62.0
644.05,65.0
644.11,57.0
644.17,52.0
644.24,37.0
644.3,50.0
644.36,32.0
644.43,40.0
644.49,45.0
644.55,50.0
644.62,65.0
644.68,75.0
644.74,76.0
644.8,72.0
644.87,73.0
644.93,63.0
644.99,61.0
645.06,54.0
645.12,75.0
645.18,79.0
645.25,76.0
645.31,77.0
645.37,76.0
645.43,95.0
645.5,84.0
645.56,82.0
645.62,75.0
645.69,69.0
645.75,62.0
645.81,52.0
645.88,59.0
645.94,42.0
646.0,40.0
646.06,34.0
646.13,35.0
646.19,39.0
646.25,16.0
646.32,41.0
646.38,49.0
646.44,19.0
646.51,45.0
646.57,42.0
646.63,40.0
646.69,42.0
646.76,50.0
646.82,61.0
646.88,32.0
646.95,61.0
647.01,39.0
647.07,25.0
647.14,32.0
647.2,48.0
647.26,61.0
647.32,74.0
647.39,82.0
647.45,85.0
647.51,91.0
647.58,89.0
647.64,104.0
647.7,98.0
647.77,109.0
647.83,100.0
647.89,90.0
647.95,85.0
648.02,86.0
648.08,95.0
648.14,89.0
648.21,101.0
648.27,109.0
648.33,108.0
648.4,114.0
648.46,112.0
648.52,119.0
648.58,145.0
648.65,99.0
648.71,102.0
648.77,76.0
648.84,85.0
648.9,68.0
648.96,68.0
649.03,76.0
649.09,70.0
649.15,84.0
649.21,80.0
649.28,94.0
649.34,84.0
649.4,68.0
649.47,89.0
649.53,87.0
649.59,89.0
649.66,84.0
649.72,102.0
649.78,96.0
649.84,103.0
649.91,116.0
649.97,112.0
650.03,111.0
650.1,111.0
650.16,127.0
650.22,117.0
650.29,112.0
650.35,104.0
650.41,121.0
650.47,111.0
650.54,101.0
650.6,87.0
650.66,99.0
650.73,106.0
650.79,87.0
650.85,79.0
650.92,79.0
650.98,89.0
651.04,96.0
651.1,83.0
651.17,71.0
651.23,89.0
651.29,100.0
651.36,119.0
651.42,101.0
651.48,119.0
651.55,125.0
651.61,138.0
651.67,136.0
651.73,134.0
651.8,146.0
651.86,143.0
651.92,127.0
651.99,108.0
652.05,108.0
652.11,136.0
652.18,123.0
652.24,130.0
652.3,106.0
652.36,109.0
652.43,103.0
652.49,97.0
652.55,101.0
652.62,103.0
652.68,93.0
652.74,95.0
652.81,77.0
652.87,79.0
652.93,75.0
652.99,90.0
653.06,88.0
653.12,88.0
653.18,80.0
653.25,53.0
653.31,68.0
653.37,90.0
653.44,90.0
653.5,109.0
653.56,108.0
653.62,126.0
653.69,137.0
653.75,136.0
653.81,150.0
653.88,143.0
653.94,155.0
654.0,192.0
654.07,191.0
654.13,171.0
654.19,201.0
654.25,202.0
654.32,198.0
654.38,209.0
654.44,202.0
654.51,186.0
654.57,182.0
654.63,183.0
654.7,194.0
654.76,182.0
654.82,169.0
654.88,171.0
654.95,163.0
655.01,180.0
655.07,152.0
655.14,158.0
655.2,147.0
655.26,134.0
655.33,147.0
655.39,145.0
655.45,146.0
655.51,156.0
655.58,127.0
655.64,135.0
655.7,137.0
655.77,152.0
655.83,171.0
655.89,143.0
655.96,119.0
656.02,128.0
656.08,145.0
656.14,108.0
656.21,118.0
656.27,121.0
656.33,137.0
656.4,124.0
656.46,111.0
656.52,136.0
656.59,89.0
656.65,95.0
656.71,72.0
656.77,68.0
656.84,73.0
656.9,81.0
656.96,83.0
657.03,71.0
657.09,76.0
657.15,38.0
657.22,68.0
657.28,68.0
657.34,70.0
657.4,74.0
657.47,68.0
657.53,61.0
657.59,54.0
657.66,59.0
657.72,70.0
657.78,73.0
657.85,81.0
657.91,87.0
657.97,83.0
658.03,92.0
658.1,73.0
658.16,83.0
658.22,79.0
658.29,80.0
658.35,62.0
658.41,69.0
658.48,57.0
658.54,73.0
658.6,73.0
658.66,57.0
658.73,72.0
658.79,59.0
658.85,66.0
658.92,71.0
658.98,75.0
659.04,81.0
659.11,51.0
659.17,55.0
659.23,72.0
659.29,70.0
659.36,71.0
659.42,84.0
659.48,72.0
659.55,65.0
659.61,78.0
659.67,74.0
659.74,61.0
659.8,61.0
659.86,79.0
659.92,73.0
659.99,89.0
660.05,107.0
660.11,100.0
660.18,122.0
660.24,123.0
660.3,131.0
660.37,121.0
660.43,133.0
660.49,128.0
660.55,148.0
660.62,132.0
660.68,104.0
660.74,108.0
660.81,120.0
660.87,135.0
660.93,134.0
661.0,148.0
661.06,137.0
661.12,123.0
661.18,121.0
661.25,120.0
661.31,114.0
661.37,115.0
661.44,113.0
661.5,102.0
661.56,111.0
661.63,97.0
661.69,83.0
661.75,85.0
661.81,87.0
661.88,73.0
661.94,68.0
662.0,70.0
662.07,84.0
662.13,69.0
662.19,90.0
662.26,78.0
662.32,62.0
662.38,75.0
662.44,77.0
662.51,76.0
662.57,75.0
662.63,64.0
662.7,72.0
662.76,55.0
662.82,41.0
662.89,35.0
662.95,39.0
663.01,46.0
663.07,61.0
663.14,81.0
663.2,69.0
663.26,65.0
663.33,57.0
663.39,57.0
663.45,61.0
663.52,80.0
663.58,77.0
663.64,86.0
663.7,107.0
663.77,87.0
663.83,88.0
663.89,82.0
663.96,94.0
664.02,90.0
664.08,87.0
664.15,80.0
664.21,78.0
664.27,83.0
664.33,86.0
664.4,75.0
664.46,75.0
664.52,93.0
664.59,94.0
664.65,93.0
664.71,90.0
664.78,101.0
664.84,93.0
664.9,93.0
664.96,97.0
665.03,102.0
665.09,99.0
665.15,104.0
665.22,104.0
665.28,114.0
665.34,96.0
665.41,98.0
665.47,116.0
665.53,103.0
665.59,87.0
665.66,88.0
665.72,114.0
665.78,109.0
665.85,99.0
665.91,142.0
665.97,124.0
666.04,141.0
666.1,137.0
666.16,146.0
666.22,161.0
666.29,145.0
666.35,157.0
666.41,150.0
666.48,135.0
666.54,116.0
666.6,108.0
666.67,116.0
666.73,129.0
666.79,136.0
666.85,120.0
666.92,104.0
666.98,79.0
667.04,91.0
667.11,69.0
667.17,82.0
667.23,87.0
667.3,112.0
667.36,119.0
667.42,104.0
667.48,97.0
667.55,90.0
667.61,111.0
667.67,95.0
667.74,118.0
667.8,119.0
667.86,95.0
667.93,123.0
667.99,132.0
668.05,111.0
668.11,88.0
668.18,85.0
668.24,91.0
668.3,88.0
668.37,93.0
668.43,73.0
668.49,68.0
668.56,95.0
668.62,93.0
668.68,81.0
668.74,61.0
668.81,86.0
668.87,108.0
668.93,108.0
669.0,114.0
669.06,115.0
669.12,119.0
669.19,95.0
669.25,119.0
669.31,122.0
669.37,121.0
669.44,131.0
669.5,124.0
669.56,160.0
669.63,150.0
669.69,149.0
669.75,161.0
669.82,165.0
669.88,139.0
669.94,131.0
670.0,141.0
670.07,123.0
670.13,112.0
670.19,114.0
670.26,93.0
670.32,103.0
670.38,108.0
670.45,105.0
670.51,88.0
670.57,82.0
670.63,100.0
670.7,84.0
670.76,65.0
670.82,70.0
670.89,67.0
670.95,76.0
671.01,63.0
671.08,54.0
671.14,53.0
671.2,56.0
671.26,54.0
671.33,58.0
671.39,47.0
671.45,43.0
671.52,22.0
671.58,28.0
671.64,29.0
671.71,9.0
671.77,18.0
671.83,30.0
671.89,-4.0
671.96,3.0
672.02,22.0
672.08,-5.0
672.15,-11.0
672.21,-23.0
672.27,-36.0
672.34,-27.0
672.4,-32.0
672.46,-22.0
672.52,-48.0
672.59,-48.0
672.65,-37.0
672.71,-32.0
672.78,-42.0
672.84,-43.0
672.9,-34.0
672.97,-39.0
673.03,-35.0
673.09,-29.0
673.15,-13.0
673.22,-37.0
673.28,-18.0
673.34,-24.0
673.41,-10.0
673.47,-5.0
673.53,2.0
673.6,-4.0
673.66,-20.0
673.72,-3.0
673.78,12.0
673.85,-2.0
673.91,21.0
673.97,29.0
674.04,52.0
674.1,69.0
674.16,84.0
674.23,70.0
674.29,72.0
674.35,82.0
674.41,62.0
674.48,79.0
674.54,100.0
674.6,104.0
674.67,86.0
674.73,91.0
674.79,82.0
674.86,78.0
674.92,95.0
674.98,66.0
675.04,71.0
675.11,80.0
675.17,84.0
675.23,92.0
675.3,71.0
675.36,51.0
675.42,35.0
675.49,35.0
675.55,49.0
675.61,68.0
675.67,71.0
675.74,67.0
675.8,67.0
675.86,85.0
675.93,87.0
675.99,80.0
676.05,101.0
676.12,85.0
676.18,69.0
676.24,66.0
676.3,94.0
676.37,91.0
676.43,75.0
676.49,70.0
676.56,52.0
676.62,50.0
676.68,58.0
676.75,33.0
676.81,60.0
676.87,76.0
676.93,57.0
677.0,65.0
677.06,38.0
677.12,55.0
677.19,48.0
677.25,56.0
677.31,53.0
677.38,60.0
677.44,66.0
677.5,53.0
677.56,59.0
677.63,41.0
677.69,49.0
677.75,40.0
677.82,45.0
677.88,59.0
677.94,52.0
678.01,64.0
678.07,48.0
678.13,60.0
678.19,60.0
678.26,54.0
678.32,53.0
678.38,50.0
678.45,70.0
678.51,85.0
678.57,69.0
678.64,95.0
678.7,108.0
678.76,90.0
678.82,90.0
678.89,94.0
678.95,102.0
679.01,98.0
679.08,88.0
679.14,75.0
679.2,96.0
679.27,106.0
679.33,102.0
679.39,94.0
679.45,99.0
679.52,101.0
679.58,92.0
679.64,108.0
679.71,125.0
679.77,129.0
679.83,116.0
679.9,129.0
679.96,121.0
680.02,126.0
680.08,137.0
680.15,129.0
680.21,126.0
680.27,144.0
680.34,140.0
680.4,133.0
680.46,128.0
680.53,115.0
680.59,117.0
680.65,111.0
680.71,115.0
680.78,111.0
680.84,111.0
680.9,105.0
680.97,107.0
681.03,95.0
681.09,104.0
681.16,75.0
681.22,93.0
681.28,96.0
681.34,86.0
681.41,74.0
681.47,84.0
681.53,64.0
681.6,74.0
681.66,75.0
681.72,71.0
681.79,73.0
681.85,101.0
681.91,97.0
681.97,80.0
682.04,78.0
682.1,102.0
682.16,98.0
682.23,82.0
682.29,89.0
682.35,89.0
682.42,98.0
682.48,109.0
682.54,78.0
682.6,104.0
682.67,105.0
682.73,94.0
682.79,108.0
682.86,90.0
682.92,86.0
682.98,116.0
683.05,111.0
683.11,97.0
683.17,89.0
683.23,90.0
683.3,97.0
683.36,73.0
683.42,67.0
683.49,64.0
683.55,84.0
683.61,94.0
683.68,77.0
683.74,88.0
683.8,92.0
683.86,74.0
683.93,71.0
683.99,71.0
684.05,68.0
684.12,58.0
684.18,67.0
684.24,87.0
684.31,60.0
684.37,39.0
684.43,61.0
684.49,49.0
684.56,42.0
684.62,48.0
684.68,38.0
684.75,38.0
684.81,28.0
684.87,39.0
684.94,56.0
685.0,42.0
685.06,38.0
685.12,48.0
685.19,34.0
685.25,25.0
685.31,31.0
685.38,32.0
685.44,11.0
685.5,38.0
685.57,19.0
685.63,29.0
685.69,35.0
685.75,26.0
685.82,23.0
685.88,32.0
685.94,19.0
686.01,21.0
686.07,37.0
686.13,66.0
686.2,72.0
686.26,59.0
686.32,75.0
686.38,64.0
686.45,56.0
686.51,64.0
686.57,58.0
686.64,53.0
686.7,44.0
686.76,30.0
686.83,17.0
686.89,44.0
686.95,30.0
687.01,16.0
687.08,27.0
687.14,-4.0
687.2,-9.0
687.27,-2.0
687.33,1.0
687.39,-4.0
687.46,-9.0
687.52,3.0
687.58,15.0
687.64,5.0
687.71,18.0
687.77,16.0
687.83,1.0
687.9,9.0
687.96,27.0
688.02,28.0
688.09,30.0
688.15,41.0
688.21,27.0
688.27,24.0
688.34,23.0
688.4,24.0
688.46,7.0
688.53,21.0
688.59,4.0
688.65,3.0
688.72,12.0
688.78,6.0
688.84,28.0
688.9,24.0
688.97,10.0
689.03,12.0
689.09,4.0
689.16,15.0
689.22,26.0
689.28,16.0
689.35,26.0
689.41,13.0
689.47,3.0
689.53,22.0
689.6,32.0
689.66,29.0
689.72,34.0
689.79,41.0
689.85,22.0
689.91,26.0
689.98,16.0
690.04,19.0
690.1,26.0
690.16,21.0
690.23,25.0
690.29,28.0
690.35,11.0
690.42,34.0
690.48,31.0
690.54,23.0
690.61,34.0
690.67,20.0
690.73,34.0
690.79,42.0
690.86,31.0
690.92,29.0
690.98,31.0
691.05,25.0
691.11,36.0
691.17,15.0
691.24,29.0
691.3,28.0
691.36,38.0
691.42,57.0
691.49,50.0
691.55,31.0
691.61,20.0
691.68,39.0
691.74,55.0
691.8,54.0
691.87,49.0
691.93,44.0
691.99,45.0
692.05,34.0
692.12,60.0
692.18,40.0
692.24,54.0
692.31,68.0
692.37,45.0
692.43,40.0
692.5,43.0
692.56,48.0
692.62,51.0
692.68,53.0
692.75,57.0
692.81,43.0
692.87,30.0
692.94,38.0
693.0,47.0
693.06,31.0
693.13,31.0
693.19,46.0
693.25,53.0
693.31,75.0
693.38,71.0
693.44,98.0
693.5,119.0
693.57,116.0
693.63,123.0
693.69,98.0
693.76,104.0
693.82,98.0
693.88,105.0
693.94,104.0
694.01,123.0
694.07,155.0
694.13,161.0
694.2,145.0
694.26,145.0
694.32,133.0
694.39,150.0
694.45,126.0
694.51,132.0
694.57,121.0
694.64,128.0
694.7,128.0
694.76,106.0
694.83,101.0
694.89,112.0
694.95,135.0
695.02,112.0
695.08,120.0
695.14,109.0
695.2,116.0
695.27,107.0
695.33,90.0
695.39,93.0
695.46,100.0
695.52,98.0
695.58,103.0
695.65,100.0
695.71,97.0
695.77,85.0
695.83,79.0
695.9,69.0
695.96,69.0
696.02,77.0
696.09,88.0
696.15,71.0
696.21,75.0
696.28,96.0
696.34,81.0
696.4,83.0
696.46,61.0
696.53,56.0
696.59,39.0
696.65,33.0
696.72,62.0
696.78,39.0
696.84,34.0
696.91,34.0
696.97,35.0
697.03,45.0
697.09,29.0
697.16,31.0
697.22,24.0
697.28,16.0
697.35,21.0
697.41,21.0
697.47,23.0
697.54,6.0
697.6,0.0
697.66,7.0
697.72,20.0
697.79,13.0
697.85,17.0
697.91,33.0
697.98,22.0
698.04,16.0
698.1,13.0
698.17,34.0
698.23,53.0
698.29,75.0
698.35,68.0
698.42,76.0
698.48,87.0
698.54,93.0
698.61,92.0
698.67,98.0
698.73,120.0
698.8,86.0
698.86,124.0
698.92,119.0
698.98,116.0
699.05,123.0
699.11,109.0
699.17,144.0
699.24,144.0
699.3,149.0
699.36,163.0
699.43,133.0
699.49,134.0
699.55,153.0
699.61,161.0
699.68,147.0
699.74,134.0
699.8,142.0
699.87,152.0
699.93,153.0
699.99,141.0
700.06,140.0
700.12,159.0
700.18,148.0
700.24,136.0
700.31,150.0
700.37,148.0
700.43,144.0
700.5,136.0
700.56,145.0
700.62,135.0
700.69,136.0
700.75,144.0
700.81,157.0
700.87,165.0
700.94,171.0
701.0,181.0
701.06,154.0
701.13,131.0
701.19,149.0
701.25,137.0
701.32,131.0
701.38,143.0
701.44,141.0
701.5,134.0
701.57,126.0
701.63,120.0
701.69,121.0
701.76,138.0
701.82,112.0
701.88,95.0
701.95,91.0
702.01,78.0
702.07,98.0
702.13,89.0
702.2,109.0
702.26,114.0
702.32,101.0
702.39,115.0
702.45,123.0
702.51,125.0
702.58,139.0
702.64,147.0
702.7,128.0
702.76,133.0
702.83,127.0
702.89,135.0
702.95,134.0
703.02,134.0
703.08,140.0
703.14,156.0
703.21,147.0
703.27,145.0
703.33,156.0
703.39,144.0
703.46,159.0
703.52,156.0
703.58,144.0
703.65,161.0
703.71,183.0
703.77,161.0
703.84,165.0
703.9,175.0
703.96,178.0
704.02,153.0
704.09,160.0
704.15,156.0
704.21,162.0
704.28,166.0
704.34,147.0
704.4,152.0
704.47,142.0
704.53,140.0
704.59,156.0
704.65,155.0
704.72,146.0
704.78,156.0
704.84,125.0
704.91,127.0
704.97,153.0
705.03,136.0
705.1,141.0
705.16,136.0
705.22,141.0
705.28,136.0
705.35,147.0
705.41,153.0
705.47,131.0
705.54,145.0
705.6,146.0
705.66,151.0
705.73,161.0
705.79,149.0
705.85,135.0
705.91,142.0
705.98,140.0
706.04,131.0
706.1,130.0
706.17,125.0
706.23,126.0
706.29,117.0
706.36,109.0
706.42,103.0
706.48,108.0
706.54,90.0
706.61,87.0
706.67,74.0
706.73,75.0
706.8,62.0
706.86,51.0
706.92,49.0
706.99,32.0
707.05,44.0
707.11,48.0
707.17,48.0
707.24,35.0
707.3,43.0
707.36,48.0
707.43,26.0
707.49,21.0
707.55,35.0
707.62,35.0
707.68,35.0
707.74,15.0
707.8,24.0
707.87,21.0
707.93,25.0
707.99,23.0
708.06,20.0
708.12,28.0
708.18,29.0
708.25,39.0
708.31,48.0
708.37,42.0
708.43,41.0
708.5,48.0
708.56,58.0
708.62,51.0
708.69,44.0
708.75,30.0
708.81,47.0
708.88,53.0
708.94,37.0
709.0,26.0
709.06,46.0
709.13,60.0
709.19,36.0
709.25,38.0
709.32,39.0
709.38,31.0
709.44,46.0
709.51,5.0
709.57,17.0
709.63,12.0
709.69,-4.0
709.76,-19.0
709.82,-10.0
709.88,-19.0
709.95,-20.0
710.01,-11.0
710.07,-8.0
710.14,-14.0
710.2,-10.0
710.26,-13.0
710.32,-7.0
710.39,-7.0
710.45,5.0
710.51,23.0
710.58,13.0
710.64,30.0
710.7,31.0
710.77,18.0
710.83,39.0
710.89,25.0
710.95,26.0
711.02,50.0
711.08,31.0
711.14,27.0
711.21,26.0
711.27,32.0
711.33,8.0
711.4,18.0
711.46,-12.0
711.52,-22.0
711.58,-6.0
711.65,-25.0
711.71,-9.0
711.77,-23.0
711.84,-28.0
711.9,-21.0
711.96,-26.0
712.03,-27.0
712.09,-26.0
712.15,-32.0
712.21,-39.0
712.28,-30.0
712.34,-45.0
712.4,-46.0
712.47,-56.0
712.53,-62.0
712.59,-48.0
712.66,-35.0
712.72,-21.0
712.78,-54.0
712.84,-30.0
712.91,-34.0
712.97,-23.0
713.03,-23.0
713.1,-46.0
713.16,-44.0
713.22,-21.0
713.29,-25.0
713.35,-20.0
713.41,-30.0
713.47,-8.0
713.54,-10.0
713.6,23.0
713.66,-5.0
713.73,-5.0
713.79,14.0
713.85,10.0
713.92,21.0
713.98,39.0
714.04,47.0
714.1,41.0
714.17,36.0
714.23,12.0
714.29,5.0
714.36,44.0
714.42,28.0
714.48,32.0
714.55,36.0
714.61,39.0
714.67,55.0
714.73,65.0
714.8,73.0
714.86,62.0
714.92,69.0
714.99,37.0
715.05,35.0
715.11,54.0
715.18,46.0
715.24,55.0
715.3,79.0
715.36,81.0
715.43,89.0
715.49,79.0
715.55,86.0
715.62,84.0
715.68,79.0
715.74,68.0
715.81,60.0
715.87,55.0
715.93,76.0
715.99,62.0
716.06,60.0
716.12,37.0
716.18,45.0
716.25,37.0
716.31,33.0
716.37,21.0
716.44,25.0
716.5,39.0
716.56,44.0
716.62,65.0
716.69,65.0
716.75,51.0
716.81,65.0
716.88,70.0
716.94,89.0
717.0,103.0
717.07,87.0
717.13,80.0
717.19,100.0
717.25,99.0
717.32,100.0
717.38,94.0
717.44,113.0
717.51,110.0
717.57,129.0
717.63,137.0
717.7,131.0
717.76,120.0
717.82,142.0
717.88,153.0
717.95,142.0
718.01,135.0
718.07,140.0
718.14,152.0
718.2,149.0
718.26,142.0
718.33,142.0
718.39,142.0
718.45,129.0
718.51,124.0
718.58,129.0
718.64,131.0
718.7,120.0
718.77,126.0
718.83,118.0
718.89,128.0
718.96,119.0
719.02,112.0
719.08,113.0
719.14,118.0
719.21,121.0
719.27,114.0
719.33,129.0
719.4,97.0
719.46,132.0
719.52,173.0
719.59,161.0
719.65,191.0
719.71,197.0
719.77,187.0
719.84,170.0
719.9,182.0
719.96,197.0
720.03,198.0
720.09,161.0
720.15,176.0
720.22,160.0
720.28,165.0
720.34,187.0
720.4,175.0
720.47,163.0
720.53,142.0
720.59,134.0
720.66,109.0
720.72,101.0
720.78,147.0
720.85,109.0
720.91,104.0
720.97,122.0
721.03,129.0
721.1,151.0
721.16,148.0
721.22,118.0
721.29,106.0
721.35,79.0
721.41,55.0
721.48,96.0
721.54,102.0
721.6,114.0
721.66,104.0
721.73,72.0
721.79,95.0
721.85,20.0
721.92,-7.0
721.98,35.0
722.04,65.0
722.11,32.0
722.17,35.0
722.23,52.0
722.29,11.0
722.36,57.0
722.42,46.0
722.48,51.0
722.55,19.0
722.61,6.0
722.67,11.0
722.74,0.0
722.8,21.0
722.86,21.0
722.92,20.0
722.99,43.0
723.05,46.0
723.11,3.0
723.18,24.0
723.24,2.0
723.3,-6.0
723.37,12.0
723.43,21.0
723.49,6.0
723.55,-3.0
723.62,-41.0
723.68,-92.0
723.74,-76.0
723.81,-70.0
723.87,-73.0
723.93,-55.0
724.0,-11.0
724.06,1.0
724.12,8.0
724.18,-6.0
724.25,25.0
724.31,-5.0
724.37,1.0
724.44,42.0
724.5,32.0
724.56,41.0
724.63,2.0
724.69,-2.0
724.75,-35.0
724.81,-1.0
724.88,-30.0
724.94,3.0
725.0,-7.0
725.07,7.0
725.13,-13.0
725.19,-4.0
725.26,48.0
725.32,13.0
725.38,29.0
725.44,27.0
725.51,40.0
725.57,-6.0
725.63,36.0
725.7,74.0
725.76,90.0
725.82,92.0
725.89,80.0
725.95,30.0
726.01,6.0
726.07,15.0
726.14,57.0
726.2,77.0
726.26,98.0
726.33,65.0
726.39,-4.0
726.45,-11.0
726.52,14.0
726.58,28.0
726.64,36.0
726.7,115.0
726.77,63.0
726.83,40.0
726.89,96.0
726.96,105.0
727.02,61.0
727.08,43.0
727.15,56.0
727.21,21.0
727.27,2.0
727.33,69.0
727.4,58.0
727.46,65.0
727.52,63.0
727.59,27.0
727.65,-6.0
727.71,-24.0
727.78,30.0
727.84,72.0
727.9,112.0
727.96,74.0
728.03,64.0
728.09,103.0
728.15,79.0
728.22,77.0
728.28,95.0
728.34,95.0
728.41,84.0
728.47,49.0
728.53,20.0
728.59,0.0
728.66,34.0
728.72,61.0
728.78,69.0
728.85,90.0
728.91,85.0
728.97,56.0
729.04,89.0
729.1,67.0
729.16,58.0
729.22,102.0
729.29,56.0
729.35,78.0
729.41,56.0
729.48,52.0
729.54,79.0
729.6,67.0
729.67,102.0
729.73,89.0
729.79,77.0
729.85,64.0
729.92,71.0
729.98,83.0
730.04,98.0
730.11,147.0
730.17,131.0
730.23,122.0
730.3,122.0
730.36,85.0
730.42,126.0
730.48,82.0
730.55,119.0
730.61,104.0
730.67,107.0
730.74,128.0
730.8,57.0
730.86,27.0
730.93,36.0
730.99,24.0
731.05,101.0
731.11,80.0
731.18,58.0
731.24,49.0
731.3,57.0
731.37,13.0
731.43,27.0
731.49,64.0
731.56,24.0
731.62,26.0
731.68,6.0
731.74,3.0
731.81,3.0
731.87,27.0
731.93,62.0
732.0,65.0
732.06,28.0
732.12,37.0
732.19,75.0
732.25,82.0
732.31,97.0
732.37,115.0
732.44,123.0
732.5,145.0
732.56,140.0
732.63,95.0
732.69,99.0
732.75,129.0
732.82,135.0
732.88,165.0
732.94,162.0
733.0,150.0
733.07,137.0
733.13,93.0
733.19,55.0
733.26,56.0
733.32,61.0
733.38,107.0
733.45,105.0
733.51,114.0
733.57,126.0
733.63,109.0
733.7,111.0
733.76,75.0
733.82,97.0
733.89,97.0
733.95,127.0
734.01,139.0
734.08,116.0
734.14,81.0
734.2,94.0
734.26,97.0
734.33,100.0
734.39,101.0
734.45,113.0
734.52,130.0
734.58,112.0
734.64,91.0
734.71,94.0
734.77,100.0
734.83,110.0
734.89,148.0
734.96,134.0
735.02,119.0
735.08,130.0
735.15,74.0
735.21,79.0
735.27,90.0
735.34,80.0
735.4,50.0
735.46,75.0
735.52,107.0
735.59,74.0
735.65,127.0
735.71,86.0
735.78,101.0
735.84,89.0
735.9,94.0
735.97,106.0
736.03,77.0
736.09,89.0
736.15,72.0
736.22,74.0
736.28,83.0
736.34,86.0
736.41,110.0
736.47,101.0
736.53,100.0
736.6,89.0
736.66,103.0
736.72,79.0
736.78,54.0
736.85,83.0
736.91,64.0
736.97,73.0
737.04,64.0
737.1,83.0
737.16,102.0
737.23,86.0
737.29,93.0
737.35,121.0
737.41,95.0
737.48,68.0
737.54,112.0
737.6,59.0
737.67,98.0
737.73,82.0
737.79,106.0
737.86,127.0
737.92,113.0
737.98,123.0
738.04,88.0
738.11,115.0
738.17,149.0
738.23,167.0
738.3,152.0
738.36,148.0
738.42,171.0
738.49,147.0
738.55,124.0
738.61,137.0
738.67,145.0
738.74,150.0
738.8,123.0
738.86,101.0
738.93,127.0
738.99,107.0
739.05,104.0
739.12,141.0
739.18,140.0
739.24,128.0
739.3,117.0
739.37,135.0
739.43,96.0
739.49,93.0
739.56,78.0
739.62,65.0
739.68,88.0
739.75,73.0
739.81,87.0
739.87,61.0
739.93,83.0
740.0,61.0
740.06,53.0
740.12,38.0
740.19,49.0
740.25,76.0
740.31,93.0
740.38,102.0
740.44,116.0
740.5,108.0
740.56,86.0
740.63,86.0
740.69,112.0
740.75,68.0
740.82,74.0
740.88,119.0
740.94,147.0
741.01,166.0
741.07,137.0
741.13,134.0
741.19,163.0
741.26,104.0
741.32,90.0
741.38,90.0
741.45,83.0
741.51,75.0
741.57,69.0
741.64,79.0
741.7,77.0
741.76,63.0
741.82,35.0
741.89,73.0
741.95,55.0
742.01,18.0
742.08,60.0
742.14,44.0
742.2,41.0
742.27,40.0
742.33,27.0
742.39,42.0
742.45,61.0
742.52,87.0
742.58,84.0
742.64,107.0
742.71,103.0
742.77,101.0
742.83,74.0
742.9,68.0
742.96,89.0
743.02,94.0
743.08,108.0
743.15,121.0
743.21,148.0
743.27,156.0
743.34,139.0
743.4,121.0
743.46,149.0
743.53,148.0
743.59,160.0
743.65,134.0
743.71,156.0
743.78,137.0
743.84,137.0
743.9,129.0
743.97,94.0
744.03,93.0
744.09,133.0
744.16,148.0
744.22,111.0
744.28,89.0
744.34,84.0
744.41,93.0
744.47,99.0
744.53,71.0
744.6,58.0
744.66,79.0
744.72,83.0
744.79,111.0
744.85,34.0
744.91,73.0
744.97,95.0
745.04,80.0
745.1,77.0
745.16,71.0
745.23,71.0
745.29,36.0
745.35,90.0
745.42,89.0
745.48,111.0
745.54,138.0
745.6,124.0
745.67,117.0
745.73,94.0
745.79,66.0
745.86,42.0
745.92,39.0
745.98,50.0
746.05,67.0
746.11,104.0
746.17,53.0
746.23,58.0
746.3,27.0
746.36,35.0
746.42,29.0
746.49,10.0
746.55,-2.0
746.61,-31.0
746.68,-2.0
746.74,-3.0
746.8,18.0
746.86,13.0
746.93,29.0
746.99,38.0
747.05,25.0
747.12,31.0
747.18,53.0
747.24,59.0
747.31,43.0
747.37,53.0
747.43,36.0
747.49,75.0
747.56,104.0
747.62,70.0
747.68,78.0
747.75,90.0
747.81,92.0
747.87,86.0
747.94,83.0
748.0,73.0
748.06,54.0
748.12,66.0
748.19,57.0
748.25,35.0
748.31,6.0
748.38,20.0
748.44,12.0
748.5,-2.0
748.57,-18.0
748.63,-7.0
748.69,-40.0
748.75,-30.0
748.82,5.0
748.88,-6.0
748.94,-6.0
749.01,-14.0
749.07,0.0
749.13,5.0
749.2,14.0
749.26,8.0
749.32,15.0
749.38,14.0
749.45,28.0
749.51,30.0
749.57,55.0
749.64,51.0
749.7,35.0
749.76,71.0
749.83,59.0
749.89,78.0
749.95,96.0
750.01,83.0
750.08,78.0
750.14,71.0
750.2,47.0
750.27,51.0
750.33,61.0
750.39,57.0
750.46,78.0
750.52,68.0
750.58,70.0
750.64,59.0
750.71,56.0
750.77,55.0
750.83,64.0
750.9,66.0
750.96,66.0
751.02,85.0
751.09,74.0
751.15,84.0
751.21,89.0
751.27,83.0
751.34,73.0
751.4,84.0
751.46,81.0
751.53,115.0
751.59,111.0
751.65,95.0
751.72,81.0
751.78,53.0
751.84,34.0
751.9,36.0
751.97,43.0
752.03,45.0
752.09,62.0
752.16,62.0
752.22,92.0
752.28,83.0
752.35,64.0
752.41,85.0
752.47,70.0
752.53,76.0
752.6,91.0
752.66,70.0
752.72,74.0
752.79,113.0
752.85,111.0
752.91,119.0
752.98,132.0
753.04,140.0
753.1,109.0
753.16,100.0
753.23,90.0
753.29,112.0
753.35,71.0
753.42,67.0
753.48,72.0
753.54,63.0
753.61,110.0
753.67,131.0
753.73,123.0
753.79,127.0
753.86,101.0
753.92,91.0
753.98,94.0
754.05,85.0
754.11,85.0
754.17,89.0
754.24,88.0
754.3,100.0
754.36,90.0
754.42,88.0
754.49,96.0
754.55,88.0
754.61,83.0
754.68,104.0
754.74,95.0
754.8,123.0
754.87,116.0
754.93,124.0
754.99,165.0
755.05,134.0
755.12,113.0
755.18,131.0
755.24,130.0
755.31,132.0
755.37,133.0
755.43,127.0
755.5,155.0
755.56,143.0
755.62,118.0
755.68,119.0
755.75,119.0
755.81,100.0
755.87,82.0
755.94,86.0
756.0,87.0
756.06,102.0
756.13,98.0
756.19,103.0
756.25,139.0
756.31,125.0
756.38,107.0
756.44,99.0
756.5,84.0
756.57,80.0
756.63,81.0
756.69,95.0
756.76,116.0
756.82,108.0
756.88,107.0
756.94,132.0
757.01,109.0
757.07,119.0
757.13,117.0
757.2,144.0
757.26,143.0
757.32,116.0
757.39,128.0
757.45,112.0
757.51,129.0
757.57,132.0
757.64,144.0
757.7,132.0
757.76,127.0
757.83,158.0
757.89,133.0
757.95,121.0
758.02,139.0
758.08,130.0
758.14,135.0
758.2,133.0
758.27,125.0
758.33,98.0
758.39,122.0
758.46,113.0
758.52,146.0
758.58,162.0
758.65,173.0
758.71,187.0
758.77,178.0
758.83,171.0
758.9,148.0
758.96,144.0
759.02,149.0
759.09,144.0
759.15,166.0
759.21,169.0
759.28,191.0
759.34,171.0
759.4,169.0
759.46,144.0
759.53,131.0
759.59,141.0
759.65,146.0
759.72,144.0
759.78,116.0
759.84,132.0
759.91,142.0
759.97,141.0
760.03,147.0
760.09,160.0
760.16,184.0
760.22,158.0
760.28,149.0
760.35,147.0
760.41,146.0
760.47,155.0
760.54,160.0
760.6,151.0
760.66,136.0
760.72,112.0
760.79,146.0
760.85,129.0
760.91,136.0
760.98,115.0
761.04,128.0
761.1,117.0
761.17,90.0
761.23,62.0
761.29,76.0
761.35,81.0
761.42,77.0
761.48,73.0
761.54,56.0
761.61,45.0
761.67,32.0
761.73,30.0
761.8,22.0
761.86,36.0
761.92,47.0
761.98,42.0
762.05,43.0
762.11,76.0
762.17,82.0
762.24,81.0
762.3,57.0
762.36,50.0
762.43,56.0
762.49,48.0
762.55,71.0
762.61,66.0
762.68,114.0
762.74,116.0
762.8,113.0
762.87,101.0
762.93,72.0
762.99,65.0
763.06,56.0
763.12,40.0
763.18,33.0
763.24,48.0
763.31,47.0
763.37,53.0
763.43,71.0
763.5,89.0
763.56,81.0
763.62,44.0
763.69,44.0
763.75,0.0
763.81,28.0
763.87,21.0
763.94,36.0
764.0,42.0
764.06,56.0
764.13,53.0
764.19,65.0
764.25,75.0
764.32,94.0
764.38,89.0
764.44,88.0
764.5,92.0
764.57,99.0
764.63,84.0
764.69,80.0
764.76,114.0
764.82,83.0
764.88,82.0
764.95,106.0
765.01,102.0
765.07,88.0
765.13,78.0
765.2,81.0
765.26,86.0
765.32,62.0
765.39,33.0
765.45,16.0
765.51,44.0
765.58,54.0
765.64,39.0
765.7,72.0
765.76,80.0
765.83,73.0
765.89,55.0
765.95,59.0
766.02,63.0
766.08,67.0
766.14,55.0
766.21,77.0
766.27,91.0
766.33,94.0
766.39,91.0
766.46,88.0
766.52,130.0
766.58,152.0
766.65,131.0
766.71,124.0
766.77,138.0
766.84,114.0
766.9,90.0
766.96,99.0
767.02,81.0
767.09,91.0
767.15,107.0
767.21,87.0
767.28,94.0
767.34,107.0
767.4,90.0
767.47,119.0
767.53,115.0
767.59,121.0
767.65,121.0
767.72,148.0
767.78,138.0
767.84,129.0
767.91,130.0
767.97,115.0
768.03,113.0
768.1,125.0
768.16,111.0
768.22,100.0
768.28,112.0
768.35,100.0
768.41,96.0
768.47,115.0
768.54,144.0
768.6,141.0
768.66,146.0
768.73,130.0
768.79,123.0
768.85,115.0
768.91,105.0
768.98,104.0
769.04,127.0
769.1,123.0
769.17,97.0
769.23,89.0
769.29,115.0
769.36,124.0
769.42,117.0
769.48,125.0
769.54,122.0
769.61,119.0
769.67,103.0
769.73,122.0
769.8,117.0
769.86,104.0
769.92,97.0
769.99,103.0
770.05,125.0
770.11,118.0
770.17,111.0
770.24,121.0
770.3,96.0
770.36,100.0
770.43,106.0
770.49,77.0
770.55,88.0
770.62,109.0
770.68,119.0
770.74,112.0
770.8,108.0
770.87,116.0
770.93,110.0
770.99,75.0
771.06,90.0
771.12,109.0
771.18,138.0
771.25,129.0
771.31,134.0
771.37,147.0
771.43,157.0
771.5,123.0
771.56,119.0
771.62,111.0
771.69,102.0
771.75,113.0
771.81,100.0
771.88,109.0
771.94,111.0
772.0,123.0
772.06,137.0
772.13,114.0
772.19,154.0
772.25,148.0
772.32,114.0
772.38,106.0
772.44,110.0
772.51,107.0
772.57,93.0
772.63,99.0
772.69,96.0
772.76,105.0
772.82,67.0
772.88,72.0
772.95,87.0
773.01,57.0
773.07,38.0
773.14,16.0
773.2,28.0
773.26,58.0
773.32,47.0
773.39,50.0
773.45,46.0
773.51,-6.0
773.58,-15.0
773.64,0.0
773.7,0.0
773.77,14.0
773.83,22.0
773.89,13.0
773.95,4.0
774.02,11.0
774.08,0.0
774.14,-13.0
774.21,1.0
774.27,11.0
774.33,-19.0
774.4,-18.0
774.46,-27.0
774.52,-29.0
774.58,-7.0
774.65,4.0
774.71,17.0
774.77,17.0
774.84,14.0
774.9,-13.0
774.96,13.0
775.03,3.0
775.09,-8.0
775.15,9.0
775.21,-1.0
775.28,11.0
775.34,1.0
775.4,16.0
775.47,27.0
775.53,1.0
775.59,2.0
775.66,6.0
775.72,16.0
775.78,26.0
775.84,66.0
775.91,81.0
775.97,62.0
776.03,45.0
776.1,39.0
776.16,61.0
776.22,77.0
776.29,85.0
776.35,85.0
776.41,86.0
776.47,59.0
776.54,84.0
776.6,102.0
776.66,99.0
776.73,103.0
776.79,110.0
776.85,90.0
776.92,108.0
776.98,107.0
777.04,104.0
777.1,105.0
777.17,148.0
777.23,158.0
777.29,147.0
777.36,166.0
777.42,151.0
777.48,154.0
777.55,135.0
777.61,159.0
777.67,152.0
777.73,140.0
777.8,132.0
777.86,145.0
777.92,111.0
777.99,123.0
778.05,121.0
778.11,123.0
778.18,124.0
778.24,105.0
778.3,91.0
778.36,87.0
778.43,89.0
778.49,119.0
778.55,103.0
778.62,82.0
778.68,70.0
778.74,77.0
778.81,77.0
778.87,90.0
778.93,89.0
778.99,77.0
779.06,104.0
779.12,97.0
779.18,92.0
779.25,101.0
779.31,111.0
779.37,129.0
779.44,112.0
779.5,101.0
779.56,126.0
779.62,103.0
779.69,102.0
779.75,123.0
779.81,106.0
779.88,98.0
779.94,125.0
780.0,96.0
780.07,125.0
780.13,124.0
780.19,105.0
780.25,110.0
780.32,106.0
780.38,100.0
780.44,94.0
780.51,100.0
780.57,100.0
780.63,107.0
780.7,96.0
780.76,93.0
780.82,90.0
780.88,100.0
780.95,88.0
781.01,64.0
781.07,81.0
781.14,70.0
781.2,72.0
781.26,68.0
781.33,57.0
781.39,82.0
781.45,99.0
781.51,90.0
781.58,99.0
781.64,88.0
781.7,106.0
781.77,91.0
781.83,77.0
781.89,97.0
781.96,97.0
782.02,125.0
782.08,111.0
782.14,123.0
782.21,129.0
782.27,143.0
782.33,122.0
782.4,116.0
782.46,131.0
782.52,141.0
782.59,137.0
782.65,144.0
782.71,164.0
782.77,169.0
782.84,154.0
782.9,145.0
782.96,151.0
783.03,176.0
783.09,166.0
783.15,145.0
783.22,170.0
783.28,158.0
783.34,174.0
783.4,169.0
783.47,193.0
783.53,170.0
783.59,139.0
783.66,146.0
783.72,150.0
783.78,133.0
783.85,135.0
783.91,133.0
783.97,127.0
784.03,119.0
784.1,108.0
784.16,98.0
784.22,111.0
784.29,96.0
784.35,102.0
784.41,105.0
784.48,91.0
784.54,73.0
784.6,83.0
784.66,85.0
784.73,69.0
784.79,87.0
784.85,102.0
784.92,67.0
784.98,70.0
785.04,96.0
785.11,81.0
785.17,73.0
785.23,54.0
785.29,30.0
785.36,42.0
785.42,67.0
785.48,51.0
785.55,35.0
785.61,44.0
785.67,60.0
785.74,24.0
785.8,55.0
785.86,54.0
785.92,64.0
785.99,54.0
786.05,54.0
786.11,52.0
786.18,60.0
786.24,44.0
786.3,29.0
786.37,47.0
786.43,55.0
786.49,45.0
786.55,54.0
786.62,70.0
786.68,72.0
786.74,64.0
786.81,58.0
786.87,65.0
786.93,66.0
787.0,44.0
787.06,53.0
787.12,66.0
787.18,62.0
787.25,38.0
787.31,36.0
787.37,43.0
787.44,27.0
787.5,26.0
787.56,38.0
787.63,30.0
787.69,49.0
787.75,41.0
787.81,18.0
787.88,20.0
787.94,34.0
788.0,22.0
788.07,6.0
788.13,23.0
788.19,34.0
788.26,26.0
788.32,8.0
788.38,13.0
788.44,28.0
788.51,23.0
788.57,10.0
788.63,43.0
788.7,24.0
788.76,33.0
788.82,41.0
788.89,75.0
788.95,36.0
789.01,21.0
789.07,38.0
789.14,13.0
789.2,4.0
789.26,-3.0
789.33,1.0
789.39,1.0
789.45,-8.0
789.52,-40.0
789.58,-38.0
789.64,-24.0
789.7,-53.0
789.77,-62.0
789.83,-46.0
789.89,-56.0
789.96,-38.0
790.02,-33.0
790.08,-41.0
790.15,-49.0
790.21,-59.0
790.27,-71.0
790.33,-57.0
790.4,-62.0
790.46,-46.0
790.52,-27.0
790.59,-23.0
790.65,-41.0
790.71,-38.0
790.78,-32.0
790.84,-33.0
790.9,-62.0
790.96,-56.0
791.03,-48.0
791.09,-31.0
791.15,-27.0
791.22,-9.0
791.28,-10.0
791.34,-11.0
791.41,-32.0
791.47,-37.0
791.53,-29.0
791.59,-28.0
791.66,-33.0
791.72,-12.0
791.78,-6.0
791.85,1.0
791.91,-1.0
791.97,-2.0
792.04,-17.0
792.1,-9.0
792.16,-16.0
792.22,-41.0
792.29,-24.0
792.35,-13.0
792.41,-2.0
792.48,-13.0
792.54,-10.0
792.6,-8.0
792.67,5.0
792.73,7.0
792.79,-13.0
792.85,-9.0
792.92,6.0
792.98,10.0
793.04,11.0
793.11,6.0
793.17,33.0
793.23,39.0
793.3,57.0
793.36,57.0
793.42,47.0
793.48,51.0
793.55,45.0
793.61,36.0
793.67,40.0
793.74,46.0
793.8,50.0
793.86,63.0
793.93,56.0
793.99,73.0
794.05,65.0
794.11,65.0
794.18,67.0
794.24,66.0
794.3,64.0
794.37,68.0
794.43,67.0
794.49,58.0
794.56,65.0
794.62,90.0
794.68,81.0
794.74,47.0
794.81,55.0
794.87,62.0
794.93,47.0
795.0,52.0
795.06,50.0
795.12,51.0
795.19,42.0
795.25,74.0
795.31,74.0
795.37,65.0
795.44,88.0
795.5,87.0
795.56,81.0
795.63,87.0
795.69,72.0
795.75,72.0
795.82,74.0
795.88,88.0
795.94,73.0
796.0,79.0
796.07,86.0
796.13,94.0
796.19,102.0
796.26,99.0
796.32,97.0
796.38,92.0
796.45,88.0
796.51,92.0
796.57,88.0
796.63,62.0
796.7,58.0
796.76,73.0
796.82,64.0
796.89,85.0
796.95,83.0
797.01,49.0
797.08,66.0
797.14,63.0
797.2,91.0
797.26,118.0
797.33,90.0
797.39,107.0
797.45,96.0
797.52,96.0
797.58,118.0
797.64,110.0
797.71,120.0
797.77,117.0
797.83,114.0
797.89,115.0
797.96,116.0
798.02,98.0
798.08,109.0
798.15,112.0
798.21,105.0
798.27,126.0
798.34,97.0
798.4,80.0
798.46,89.0
798.52,100.0
798.59,79.0
798.65,84.0
798.71,80.0
798.78,72.0
798.84,72.0
798.9,60.0
798.97,60.0
799.03,47.0
799.09,53.0
799.15,46.0
799.22,62.0
799.28,69.0
799.34,57.0
799.41,48.0
799.47,63.0
799.53,58.0
799.6,79.0
799.66,48.0
799.72,30.0
799.78,10.0
799.85,22.0
799.91,46.0
799.97,54.0
800.04,41.0
800.1,43.0
800.16,53.0
800.23,46.0
800.29,69.0
800.35,46.0
800.41,49.0
800.48,62.0
800.54,61.0
800.6,57.0
800.67,48.0
800.73,68.0
800.79,57.0
800.86,50.0
800.92,46.0
800.98,50.0
801.04,57.0
801.11,57.0
801.17,63.0
801.23,39.0
801.3,69.0
801.36,84.0
801.42,64.0
801.49,99.0
801.55,83.0
801.61,87.0
801.67,100.0
801.74,77.0
801.8,69.0
801.86,78.0
801.93,61.0
801.99,79.0
802.05,66.0
802.12,63.0
802.18,60.0
802.24,73.0
802.3,68.0
802.37,72.0
802.43,64.0
802.49,66.0
802.56,66.0
802.62,61.0
802.68,78.0
802.75,68.0
802.81,76.0
802.87,83.0
802.93,97.0
803.0,111.0
803.06,100.0
803.12,98.0
803.19,100.0
803.25,101.0
803.31,96.0
803.38,88.0
803.44,94.0
803.5,108.0
803.56,98.0
803.63,124.0
803.69,121.0
803.75,115.0
803.82,132.0
803.88,116.0
803.94,113.0
804.01,126.0
804.07,123.0
804.13,124.0
804.19,120.0
804.26,104.0
804.32,126.0
804.38,135.0
804.45,140.0
804.51,145.0
804.57,124.0
804.64,123.0
804.7,135.0
804.76,150.0
804.82,151.0
804.89,137.0
804.95,135.0
805.01,169.0
805.08,147.0
805.14,159.0
805.2,132.0
805.27,151.0
805.33,157.0
805.39,185.0
805.45,164.0
805.52,136.0
805.58,147.0
805.64,150.0
805.71,134.0
805.77,130.0
805.83,130.0
805.9,133.0
805.96,134.0
806.02,114.0
806.08,121.0
806.15,130.0
806.21,138.0
806.27,114.0
806.34,85.0
806.4,109.0
806.46,112.0
806.53,125.0
806.59,139.0
806.65,128.0
806.71,106.0
806.78,106.0
806.84,94.0
806.9,105.0
806.97,80.0
807.03,72.0
807.09,79.0
807.16,65.0
807.22,65.0
807.28,74.0
807.34,57.0
807.41,57.0
807.47,49.0
807.53,37.0
807.6,41.0
807.66,34.0
807.72,30.0
807.79,25.0
807.85,-2.0
807.91,1.0
807.97,-6.0
808.04,18.0
808.1,26.0
808.16,23.0
808.23,10.0
808.29,24.0
808.35,6.0
808.42,11.0
808.48,20.0
808.54,17.0
808.6,6.0
808.67,8.0
808.73,-1.0
808.79,27.0
808.86,26.0
808.92,31.0
808.98,37.0
809.05,44.0
809.11,23.0
809.17,9.0
809.23,11.0
809.3,14.0
809.36,4.0
809.42,18.0
809.49,4.0
809.55,0.0
809.61,4.0
809.68,3.0
809.74,31.0
809.8,37.0
809.86,25.0
809.93,32.0
809.99,62.0
810.05,58.0
810.12,34.0
810.18,20.0
810.24,35.0
810.31,49.0
810.37,66.0
810.43,66.0
810.49,66.0
810.56,78.0
810.62,87.0
810.68,66.0
810.75,57.0
810.81,63.0
810.87,56.0
810.94,59.0
811.0,50.0
811.06,55.0
811.12,79.0
811.19,59.0
811.25,63.0
811.31,45.0
811.38,47.0
811.44,53.0
811.5,44.0
811.57,56.0
811.63,66.0
811.69,67.0
811.75,52.0
811.82,79.0
811.88,73.0
811.94,81.0
812.01,72.0
812.07,81.0
812.13,84.0
812.2,67.0
812.26,77.0
812.32,52.0
812.38,76.0
812.45,78.0
812.51,88.0
812.57,106.0
812.64,119.0
812.7,135.0
812.76,117.0
812.83,106.0
812.89,122.0
812.95,110.0
813.01,117.0
813.08,107.0
813.14,95.0
813.2,112.0
813.27,97.0
813.33,87.0
813.39,97.0
813.46,89.0
813.52,61.0
813.58,89.0
813.64,84.0
813.71,77.0
813.77,61.0
813.83,59.0
813.9,86.0
813.96,78.0
814.02,77.0
814.09,48.0
814.15,41.0
814.21,55.0
814.27,50.0
814.34,35.0
814.4,46.0
814.46,52.0
814.53,63.0
814.59,48.0
814.65,61.0
814.72,79.0
814.78,71.0
814.84,67.0
814.9,59.0
814.97,51.0
815.03,71.0
815.09,78.0
815.16,79.0
815.22,88.0
815.28,106.0
815.35,112.0
815.41,103.0
815.47,93.0
815.53,121.0
815.6,102.0
815.66,87.0
815.72,105.0
815.79,103.0
815.85,121.0
815.91,119.0
815.98,154.0
816.04,151.0
816.1,162.0
816.16,162.0
816.23,168.0
816.29,169.0
816.35,165.0
816.42,161.0
816.48,169.0
816.54,187.0
816.61,160.0
816.67,176.0
816.73,165.0
816.79,146.0
816.86,158.0
816.92,132.0
816.98,146.0
817.05,139.0
817.11,143.0
817.17,154.0
817.24,141.0
817.3,152.0
817.36,134.0
817.42,95.0
817.49,127.0
817.55,124.0
817.61,121.0
817.68,138.0
817.74,131.0
817.8,129.0
817.87,135.0
817.93,131.0
817.99,130.0
818.05,149.0
818.12,146.0
818.18,154.0
818.24,169.0
818.31,161.0
818.37,169.0
818.43,163.0
818.5,168.0
818.56,165.0
818.62,177.0
818.68,176.0
818.75,165.0
818.81,161.0
818.87,172.0
818.94,164.0
819.0,157.0
819.06,148.0
819.13,130.0
819.19,128.0
819.25,146.0
819.31,141.0
819.38,126.0
819.44,128.0
819.5,125.0
819.57,137.0
819.63,124.0
819.69,119.0
819.76,121.0
819.82,117.0
819.88,122.0
819.94,116.0
820.01,131.0
820.07,128.0
820.13,140.0
820.2,160.0
820.26,162.0
820.32,160.0
820.39,164.0
820.45,149.0
820.51,151.0
820.57,159.0
820.64,173.0
820.7,171.0
820.76,171.0
820.83,180.0
820.89,184.0
820.95,187.0
821.02,170.0
821.08,151.0
821.14,152.0
821.2,155.0
821.27,152.0
821.33,159.0
821.39,150.0
821.46,129.0
821.52,126.0
821.58,135.0
821.65,126.0
821.71,133.0
821.77,140.0
821.83,161.0
821.9,148.0
821.96,158.0
822.02,190.0
822.09,198.0
822.15,183.0
822.21,206.0
822.28,210.0
822.34,194.0
822.4,201.0
822.46,188.0
822.53,209.0
822.59,198.0
822.65,180.0
822.72,151.0
822.78,153.0
822.84,163.0
822.91,160.0
822.97,142.0
823.03,147.0
823.09,141.0
823.16,114.0
823.22,117.0
823.28,102.0
823.35,103.0
823.41,101.0
823.47,103.0
823.54,80.0
823.6,62.0
823.66,50.0
823.72,37.0
823.79,47.0
823.85,44.0
823.91,34.0
823.98,46.0
824.04,45.0
824.1,25.0
824.17,22.0
824.23,25.0
824.29,8.0
824.35,-18.0
824.42,-13.0
824.48,3.0
824.54,-16.0
824.61,-18.0
824.67,7.0
824.73,10.0
824.8,-15.0
824.86,-23.0
824.92,-24.0
824.98,-37.0
825.05,-24.0
825.11,-24.0
825.17,-30.0
825.24,-24.0
825.3,-29.0
825.36,0.0
825.43,15.0
825.49,20.0
825.55,4.0
825.61,20.0
825.68,34.0
825.74,28.0
825.8,30.0
825.87,29.0
825.93,35.0
825.99,28.0
826.06,32.0
826.12,25.0
826.18,48.0
826.24,43.0
826.31,28.0
826.37,31.0
826.43,22.0
826.5,33.0
826.56,39.0
826.62,40.0
826.69,50.0
826.75,70.0
826.81,62.0
826.87,69.0
826.94,83.0
827.0,84.0
827.06,88.0
827.13,87.0
827.19,89.0
827.25,94.0
827.32,105.0
827.38,116.0
827.44,122.0
827.5,119.0
827.57,138.0
827.63,115.0
827.69,95.0
827.76,139.0
827.82,140.0
827.88,142.0
827.95,123.0
828.01,127.0
828.07,135.0
828.13,118.0
828.2,122.0
828.26,120.0
828.32,116.0
828.39,128.0
828.45,136.0
828.51,128.0
828.58,122.0
828.64,132.0
828.7,116.0
828.76,122.0
828.83,129.0
828.89,99.0
828.95,103.0
829.02,110.0
829.08,112.0
829.14,105.0
829.21,129.0
829.27,122.0
829.33,131.0
829.39,139.0
829.46,136.0
829.52,135.0
829.58,156.0
829.65,161.0
829.71,151.0
829.77,136.0
829.84,147.0
829.9,144.0
829.96,147.0
830.02,151.0
830.09,135.0
830.15,141.0
830.21,157.0
830.28,138.0
830.34,135.0
830.4,130.0
830.47,123.0
830.53,127.0
830.59,138.0
830.65,136.0
830.72,128.0
830.78,124.0
830.84,118.0
830.91,115.0
830.97,124.0
831.03,114.0
831.1,135.0
831.16,132.0
831.22,134.0
831.28,116.0
831.35,108.0
831.41,108.0
831.47,124.0
831.54,106.0
831.6,112.0
831.66,97.0
831.73,78.0
831.79,76.0
831.85,81.0
831.91,94.0
831.98,118.0
832.04,122.0
832.1,114.0
832.17,104.0
832.23,96.0
832.29,102.0
832.36,98.0
832.42,81.0
832.48,102.0
832.54,121.0
832.61,127.0
832.67,141.0
832.73,116.0
832.8,104.0
832.86,117.0
832.92,109.0
832.99,114.0
833.05,104.0
833.11,117.0
833.17,106.0
833.24,108.0
833.3,115.0
833.36,101.0
833.43,83.0
833.49,87.0
833.55,88.0
833.62,84.0
833.68,57.0
833.74,70.0
833.8,79.0
833.87,71.0
833.93,57.0
833.99,91.0
834.06,64.0
834.12,76.0
834.18,57.0
834.25,57.0
834.31,53.0
834.37,41.0
834.43,43.0
834.5,35.0
834.56,36.0
834.62,50.0
834.69,43.0
834.75,42.0
834.81,39.0
834.88,37.0
834.94,57.0
835.0,42.0
835.06,44.0
835.13,46.0
835.19,52.0
835.25,66.0
835.32,56.0
835.38,71.0
835.44,48.0
835.51,42.0
835.57,43.0
835.63,23.0
835.69,34.0
835.76,30.0
835.82,61.0
835.88,77.0
835.95,68.0
836.01,67.0
836.07,84.0
836.14,79.0
836.2,62.0
836.26,105.0
836.32,121.0
836.39,118.0
836.45,140.0
836.51,126.0
836.58,122.0
836.64,153.0
836.7,155.0
836.77,146.0
836.83,122.0
836.89,120.0
836.95,138.0
837.02,126.0
837.08,129.0
837.14,143.0
837.21,162.0
837.27,165.0
837.33,156.0
837.4,162.0
837.46,160.0
837.52,161.0
837.58,152.0
837.65,145.0
837.71,163.0
837.77,166.0
837.84,151.0
837.9,159.0
837.96,172.0
838.03,157.0
838.09,145.0
838.15,150.0
838.21,133.0
838.28,138.0
838.34,121.0
838.4,123.0
838.47,123.0
838.53,110.0
838.59,129.0
838.66,116.0
838.72,94.0
838.78,99.0
838.84,101.0
838.91,98.0
838.97,94.0
839.03,79.0
839.1,78.0
839.16,90.0
839.22,55.0
839.29,61.0
839.35,78.0
839.41,61.0
839.47,22.0
839.54,44.0
839.6,17.0
839.66,7.0
839.73,10.0
839.79,9.0
839.85,21.0
839.92,21.0
839.98,21.0
840.04,10.0
840.1,-2.0
840.17,9.0
840.23,6.0
840.29,9.0
840.36,24.0
840.42,24.0
840.48,20.0
840.55,7.0
840.61,-8.0
840.67,-15.0
840.73,12.0
840.8,19.0
840.86,1.0
840.92,-5.0
840.99,0.0
841.05,21.0
841.11,47.0
841.18,35.0
841.24,29.0
841.3,26.0
841.36,24.0
841.43,38.0
841.49,40.0
841.55,43.0
841.62,27.0
841.68,19.0
841.74,21.0
841.81,41.0
841.87,34.0
841.93,30.0
841.99,29.0
842.06,34.0
842.12,40.0
842.18,59.0
842.25,62.0
842.31,71.0
842.37,70.0
842.44,72.0
842.5,93.0
842.56,107.0
842.62,95.0
842.69,71.0
842.75,87.0
842.81,71.0
842.88,59.0
842.94,81.0
843.0,45.0
843.07,75.0
843.13,55.0
843.19,63.0
843.25,45.0
843.32,59.0
843.38,86.0
843.44,41.0
843.51,41.0
843.57,51.0
843.63,42.0
843.7,47.0
843.76,67.0
843.82,54.0
843.88,51.0
843.95,55.0
844.01,76.0
844.07,81.0
844.14,85.0
844.2,92.0
844.26,84.0
844.33,110.0
844.39,112.0
844.45,107.0
844.51,115.0
844.58,120.0
844.64,118.0
844.7,133.0
844.77,141.0
844.83,154.0
844.89,180.0
844.96,180.0
845.02,169.0
845.08,168.0
845.14,153.0
845.21,157.0
845.27,152.0
845.33,135.0
845.4,126.0
845.46,142.0
845.52,143.0
845.59,132.0
845.65,130.0
845.71,140.0
845.77,123.0
845.84,100.0
845.9,121.0
845.96,114.0
846.03,111.0
846.09,107.0
846.15,106.0
846.22,110.0
846.28,110.0
846.34,118.0
846.4,104.0
846.47,90.0
846.53,94.0
846.59,95.0
846.66,119.0
846.72,108.0
846.78,125.0
846.85,143.0
846.91,144.0
846.97,150.0
847.03,135.0
847.1,152.0
847.16,136.0
847.22,125.0
847.29,128.0
847.35,123.0
847.41,118.0
847.48,118.0
847.54,127.0
847.6,121.0
847.66,104.0
847.73,92.0
847.79,109.0
847.85,106.0
847.92,88.0
847.98,110.0
848.04,112.0
848.11,100.0
848.17,93.0
848.23,114.0
848.29,101.0
848.36,92.0
848.42,73.0
848.48,84.0
848.55,76.0
848.61,57.0
848.67,68.0
848.74,82.0
848.8,90.0
848.86,77.0
848.92,73.0
848.99,84.0
849.05,79.0
849.11,88.0
849.18,98.0
849.24,88.0
849.3,62.0
849.37,59.0
849.43,67.0
849.49,68.0
849.55,49.0
849.62,44.0
849.68,40.0
849.74,26.0
849.81,23.0
849.87,35.0
849.93,42.0
850.0,32.0
850.06,25.0
850.12,22.0
850.18,22.0
850.25,26.0
850.31,29.0
850.37,37.0
850.44,29.0
850.5,46.0
850.56,46.0
850.63,45.0
850.69,45.0
850.75,26.0
850.81,24.0
850.88,25.0
850.94,52.0
851.0,48.0
851.07,27.0
851.13,42.0
851.19,49.0
851.26,29.0
851.32,35.0
851.38,41.0
851.44,26.0
851.51,40.0
851.57,22.0
851.63,25.0
851.7,46.0
851.76,19.0
851.82,39.0
851.89,46.0
851.95,33.0
852.01,43.0
852.07,25.0
852.14,43.0
852.2,47.0
852.26,69.0
852.33,70.0
852.39,69.0
852.45,71.0
852.52,67.0
852.58,77.0
852.64,81.0
852.7,102.0
852.77,103.0
852.83,93.0
852.89,84.0
852.96,99.0
853.02,112.0
853.08,117.0
853.15,112.0
853.21,102.0
853.27,111.0
853.33,120.0
853.4,106.0
853.46,103.0
853.52,121.0
853.59,137.0
853.65,128.0
853.71,128.0
853.78,121.0
853.84,131.0
853.9,138.0
853.96,142.0
854.03,134.0
854.09,145.0
854.15,147.0
854.22,126.0
854.28,125.0
854.34,121.0
854.41,121.0
854.47,123.0
854.53,109.0
854.59,97.0
854.66,117.0
854.72,100.0
854.78,103.0
854.85,116.0
854.91,104.0
854.97,89.0
855.04,120.0
855.1,112.0
855.16,106.0
855.22,100.0
855.29,114.0
855.35,116.0
855.41,111.0
855.48,116.0
855.54,135.0
855.6,120.0
855.67,120.0
855.73,114.0
855.79,122.0
855.85,116.0
855.92,139.0
855.98,143.0
856.04,150.0
856.11,158.0
856.17,146.0
856.23,159.0
856.3,153.0
856.36,147.0
856.42,155.0
856.48,179.0
856.55,170.0
856.61,165.0
856.67,155.0
856.74,161.0
856.8,164.0
856.86,148.0
856.93,146.0
856.99,142.0
857.05,145.0
857.11,146.0
857.18,121.0
857.24,121.0
857.3,109.0
857.37,106.0
857.43,93.0
857.49,74.0
857.56,91.0
857.62,69.0
857.68,54.0
857.74,71.0
857.81,59.0
857.87,48.0
857.93,52.0
858.0,19.0
858.06,19.0
858.12,31.0
858.19,35.0
858.25,45.0
858.31,40.0
858.37,44.0
858.44,29.0
858.5,17.0
858.56,24.0
858.63,30.0
858.69,36.0
858.75,26.0
858.82,40.0
858.88,32.0
858.94,25.0
859.0,40.0
859.07,37.0
859.13,41.0
859.19,58.0
859.26,59.0
859.32,85.0
859.38,57.0
859.45,66.0
859.51,86.0
859.57,85.0
859.63,95.0
859.7,80.0
859.76,94.0
859.82,74.0
859.89,91.0
859.95,91.0
860.01,110.0
860.08,101.0
860.14,109.0
860.2,117.0
860.26,124.0
860.33,110.0
860.39,100.0
860.45,104.0
860.52,113.0
860.58,116.0
860.64,113.0
860.71,111.0
860.77,93.0
860.83,107.0
860.89,106.0
860.96,129.0
861.02,124.0
861.08,123.0
861.15,121.0
861.21,112.0
861.27,123.0
861.34,116.0
861.4,129.0
861.46,124.0
861.52,149.0
861.59,155.0
861.65,150.0
861.71,172.0
861.78,169.0
861.84,145.0
861.9,148.0
861.97,164.0
862.03,178.0
862.09,180.0
862.15,176.0
862.22,190.0
862.28,186.0
862.34,178.0
862.41,159.0
862.47,173.0
862.53,165.0
862.6,152.0
862.66,145.0
862.72,134.0
862.78,136.0
862.85,124.0
862.91,121.0
862.97,95.0
863.04,124.0
863.1,110.0
863.16,86.0
863.23,110.0
863.29,105.0
863.35,87.0
863.41,81.0
863.48,82.0
863.54,91.0
863.6,90.0
863.67,101.0
863.73,90.0
863.79,59.0
863.86,88.0
863.92,87.0
863.98,94.0
864.04,107.0
864.11,115.0
864.17,117.0
864.23,96.0
864.3,95.0
864.36,124.0
864.42,125.0
864.49,135.0
864.55,136.0
864.61,125.0
864.67,121.0
864.74,106.0
864.8,99.0
864.86,110.0
864.93,99.0
864.99,85.0
865.05,89.0
865.12,104.0
865.18,104.0
865.24,96.0
865.3,114.0
865.37,97.0
865.43,104.0
865.49,99.0
865.56,101.0
865.62,89.0
865.68,96.0
865.75,84.0
865.81,94.0
865.87,110.0
865.93,101.0
866.0,103.0
866.06,83.0
866.12,88.0
866.19,88.0
866.25,66.0
866.31,80.0
866.38,66.0
866.44,79.0
866.5,102.0
866.56,113.0
866.63,88.0
866.69,73.0
866.75,88.0
866.82,82.0
866.88,67.0
866.94,91.0
867.01,87.0
867.07,58.0
867.13,77.0
867.19,73.0
867.26,69.0
867.32,62.0
867.38,88.0
867.45,76.0
867.51,77.0
867.57,66.0
867.64,76.0
867.7,77.0
867.76,77.0
867.82,90.0
867.89,87.0
867.95,87.0
868.01,85.0
868.08,88.0
868.14,85.0
868.2,99.0
868.27,78.0
868.33,80.0
868.39,105.0
868.45,110.0
868.52,117.0
868.58,109.0
868.64,121.0
868.71,126.0
868.77,134.0
868.83,95.0
868.9,107.0
868.96,118.0
869.02,144.0
869.08,168.0
869.15,163.0
869.21,172.0
869.27,186.0
869.34,170.0
869.4,167.0
869.46,153.0
869.53,132.0
869.59,139.0
869.65,150.0
869.71,153.0
869.78,172.0
869.84,167.0
869.9,176.0
869.97,169.0
870.03,161.0
870.09,152.0
870.16,154.0
870.22,173.0
870.28,157.0
870.34,150.0
870.41,157.0
870.47,187.0
870.53,172.0
870.6,153.0
870.66,193.0
870.72,178.0
870.79,153.0
870.85,151.0
870.91,161.0
870.97,167.0
871.04,155.0
871.1,136.0
871.16,146.0
871.23,136.0
871.29,148.0
871.35,136.0
871.42,123.0
871.48,150.0
871.54,154.0
871.6,161.0
871.67,157.0
871.73,165.0
871.79,148.0
871.86,145.0
871.92,143.0
871.98,144.0
872.05,153.0
872.11,141.0
872.17,148.0
872.23,128.0
872.3,117.0
872.36,126.0
872.42,115.0
872.49,107.0
872.55,106.0
872.61,112.0
872.68,115.0
872.74,120.0
872.8,132.0
872.86,120.0
872.93,112.0
872.99,99.0
873.05,90.0
873.12,99.0
873.18,96.0
873.24,84.0
873.31,95.0
873.37,98.0
873.43,67.0
873.49,82.0
873.56,90.0
873.62,81.0
873.68,92.0
873.75,80.0
873.81,78.0
873.87,78.0
873.94,68.0
874.0,69.0
874.06,52.0
874.12,34.0
874.19,39.0
874.25,38.0
874.31,28.0
874.38,33.0
874.44,33.0
874.5,44.0
874.57,38.0
874.63,31.0
874.69,3.0
874.75,15.0
874.82,44.0
874.88,50.0
874.94,41.0
875.01,33.0
875.07,40.0
875.13,51.0
875.2,55.0
875.26,33.0
875.32,32.0
875.38,32.0
875.45,29.0
875.51,44.0
875.57,51.0
875.64,44.0
875.7,58.0
875.76,38.0
875.83,48.0
875.89,68.0
875.95,86.0
876.01,62.0
876.08,75.0
876.14,81.0
876.2,62.0
876.27,85.0
876.33,96.0
876.39,93.0
876.46,85.0
876.52,86.0
876.58,96.0
876.64,97.0
876.71,87.0
876.77,98.0
876.83,98.0
876.9,94.0
876.96,78.0
877.02,76.0
877.09,85.0
877.15,90.0
877.21,96.0
877.27,73.0
877.34,68.0
877.4,59.0
877.46,87.0
877.53,84.0
877.59,91.0
877.65,106.0
877.72,90.0
877.78,81.0
877.84,96.0
877.9,87.0
877.97,95.0
878.03,125.0
878.09,116.0
878.16,112.0
878.22,89.0
878.28,101.0
878.35,98.0
878.41,93.0
878.47,97.0
878.53,95.0
878.6,95.0
878.66,73.0
878.72,78.0
878.79,91.0
878.85,101.0
878.91,96.0
878.98,101.0
879.04,97.0
879.1,101.0
879.16,99.0
879.23,74.0
879.29,80.0
879.35,73.0
879.42,96.0
879.48,106.0
879.54,115.0
879.61,101.0
879.67,100.0
879.73,79.0
879.79,95.0
879.86,85.0
879.92,77.0
879.98,73.0
880.05,92.0
880.11,88.0
880.17,90.0
880.24,96.0
880.3,95.0
880.36,101.0
880.42,119.0
880.49,111.0
880.55,93.0
880.61,129.0
880.68,124.0
880.74,147.0
880.8,131.0
880.87,110.0
880.93,106.0
880.99,123.0
881.05,133.0
881.12,115.0
881.18,143.0
881.24,128.0
881.31,126.0
881.37,114.0
881.43,115.0
881.5,124.0
881.56,116.0
881.62,119.0
881.68,117.0
881.75,118.0
881.81,131.0
881.87,105.0
881.94,91.0
882.0,100.0
882.06,93.0
882.13,95.0
882.19,89.0
882.25,98.0
882.31,96.0
882.38,98.0
882.44,97.0
882.5,70.0
882.57,69.0
882.63,62.0
882.69,59.0
882.76,70.0
882.82,65.0
882.88,42.0
882.94,70.0
883.01,92.0
883.07,46.0
883.13,55.0
883.2,47.0
883.26,37.0
883.32,43.0
883.39,41.0
883.45,59.0
883.51,52.0
883.57,54.0
883.64,46.0
883.7,51.0
883.76,58.0
883.83,48.0
883.89,44.0
883.95,32.0
884.02,21.0
884.08,23.0
884.14,24.0
884.2,10.0
884.27,-7.0
884.33,-12.0
884.39,17.0
884.46,-12.0
884.52,-28.0
884.58,-30.0
884.65,-13.0
884.71,-5.0
884.77,-22.0
884.83,-20.0
884.9,-9.0
884.96,8.0
885.02,14.0
885.09,15.0
885.15,3.0
885.21,17.0
885.28,16.0
885.34,12.0
885.4,13.0
885.46,24.0
885.53,26.0
885.59,41.0
885.65,38.0
885.72,30.0
885.78,35.0
885.84,54.0
885.91,48.0
885.97,40.0
886.03,53.0
886.09,43.0
886.16,55.0
886.22,47.0
886.28,52.0
886.35,46.0
886.41,35.0
886.47,39.0
886.54,34.0
886.6,43.0
886.66,49.0
886.72,43.0
886.79,32.0
886.85,41.0
886.91,56.0
886.98,66.0
887.04,56.0
887.1,53.0
887.17,58.0
887.23,47.0
887.29,36.0
887.35,48.0
887.42,62.0
887.48,43.0
887.54,56.0
887.61,56.0
887.67,45.0
887.73,57.0
887.8,54.0
887.86,49.0
887.92,52.0
887.98,73.0
888.05,83.0
888.11,73.0
888.17,77.0
888.24,92.0
888.3,80.0
888.36,78.0
888.43,76.0
888.49,60.0
888.55,59.0
888.61,90.0
888.68,68.0
888.74,65.0
888.8,67.0
888.87,60.0
888.93,48.0
888.99,35.0
889.06,21.0
889.12,17.0
889.18,29.0
889.24,34.0
889.31,27.0
889.37,29.0
889.43,28.0
889.5,34.0
889.56,17.0
889.62,32.0
889.69,33.0
889.75,17.0
889.81,25.0
889.87,18.0
889.94,23.0
890.0,32.0
890.06,4.0
890.13,29.0
890.19,45.0
890.25,34.0
890.32,40.0
890.38,22.0
890.44,39.0
890.5,41.0
890.57,25.0
890.63,18.0
890.69,11.0
890.76,35.0
890.82,16.0
890.88,6.0
890.95,35.0
891.01,38.0
891.07,18.0
891.13,30.0
891.2,27.0
891.26,30.0
891.32,26.0
891.39,24.0
891.45,15.0
891.51,13.0
891.58,-4.0
891.64,-7.0
891.7,-3.0
891.76,18.0
891.83,2.0
891.89,34.0
891.95,30.0
892.02,20.0
892.08,25.0
892.14,26.0
892.21,37.0
892.27,33.0
892.33,35.0
892.39,46.0
892.46,53.0
892.52,55.0
892.58,38.0
892.65,33.0
892.71,34.0
892.77,54.0
892.84,70.0
892.9,78.0
892.96,65.0
893.02,57.0
893.09,69.0
893.15,83.0
893.21,69.0
893.28,79.0
893.34,79.0
893.4,67.0
893.47,83.0
893.53,69.0
893.59,65.0
893.65,72.0
893.72,76.0
893.78,65.0
893.84,87.0
893.91,86.0
893.97,65.0
894.03,97.0
894.1,111.0
894.16,109.0
894.22,122.0
894.28,131.0
894.35,127.0
894.41,121.0
894.47,130.0
894.54,131.0
894.6,140.0
894.66,115.0
894.73,112.0
894.79,112.0
894.85,121.0
894.91,123.0
894.98,119.0
895.04,105.0
895.1,103.0
895.17,95.0
895.23,98.0
895.29,98.0
895.36,83.0
895.42,99.0
895.48,111.0
895.54,101.0
895.61,109.0
895.67,112.0
895.73,91.0
895.8,115.0
895.86,103.0
895.92,113.0
895.99,110.0
896.05,115.0
896.11,93.0
896.17,101.0
896.24,109.0
896.3,101.0
896.36,89.0
896.43,77.0
896.49,91.0
896.55,86.0
896.62,82.0
896.68,57.0
896.74,51.0
896.8,75.0
896.87,87.0
896.93,69.0
896.99,74.0
897.06,50.0
897.12,73.0
897.18,72.0
897.25,50.0
897.31,76.0
897.37,69.0
897.43,67.0
897.5,65.0
897.56,61.0
897.62,48.0
897.69,29.0
897.75,44.0
897.81,47.0
897.88,12.0
897.94,19.0
898.0,5.0
898.06,31.0
898.13,33.0
898.19,23.0
898.25,6.0
898.32,3.0
898.38,8.0
898.44,8.0
898.51,-2.0
898.57,-17.0
898.63,-24.0
898.69,-51.0
898.76,-19.0
898.82,-47.0
898.88,-39.0
898.95,-23.0
899.01,-48.0
899.07,-11.0
899.14,-43.0
899.2,-35.0
899.26,-30.0
899.32,-6.0
899.39,-14.0
899.45,-12.0
899.51,8.0
899.58,6.0
899.64,7.0
899.7,4.0
899.77,20.0
899.83,3.0
899.89,1.0
899.95,29.0
900.02,32.0
900.08,25.0
900.14,48.0
900.21,51.0
900.27,70.0
900.33,59.0
900.4,49.0
900.46,57.0
900.52,45.0
900.58,31.0
900.65,23.0
900.71,46.0
900.77,42.0
900.84,20.0
900.9,28.0
900.96,7.0
901.03,8.0
901.09,41.0
901.15,65.0
901.21,39.0
901.28,43.0
901.34,56.0
901.4,40.0
901.47,32.0
901.53,20.0
901.59,33.0
901.66,55.0
901.72,72.0
901.78,59.0
901.84,51.0
901.91,46.0
901.97,39.0
902.03,47.0
902.1,27.0
902.16,32.0
902.22,25.0
902.29,18.0
902.35,29.0
902.41,56.0
902.47,70.0
902.54,61.0
902.6,56.0
902.66,63.0
902.73,66.0
902.79,83.0
902.85,83.0
902.92,81.0
902.98,76.0
903.04,55.0
903.1,66.0
903.17,72.0
903.23,88.0
903.29,95.0
903.36,110.0
903.42,113.0
903.48,135.0
903.55,135.0
903.61,110.0
903.67,115.0
903.73,122.0
903.8,128.0
903.86,116.0
903.92,102.0
903.99,94.0
904.05,107.0
904.11,116.0
904.18,120.0
904.24,121.0
904.3,109.0
904.36,108.0
904.43,106.0
904.49,126.0
904.55,128.0
904.62,128.0
904.68,138.0
904.74,124.0
904.81,134.0
904.87,140.0
904.93,156.0
904.99,130.0
905.06,142.0
905.12,146.0
905.18,149.0
905.25,159.0
905.31,166.0
905.37,160.0
905.44,166.0
905.5,163.0
905.56,168.0
905.62,179.0
905.69,185.0
905.75,181.0
905.81,188.0
905.88,224.0
905.94,214.0
906.0,209.0
906.07,211.0
906.13,211.0
906.19,202.0
906.25,196.0
906.32,186.0
906.38,188.0
906.44,195.0
906.51,211.0
906.57,205.0
906.63,195.0
906.7,207.0
906.76,196.0
906.82,192.0
906.88,199.0
906.95,214.0
907.01,197.0
907.07,204.0
907.14,186.0
907.2,176.0
907.26,188.0
907.33,192.0
907.39,176.0
907.45,197.0
907.51,194.0
907.58,206.0
907.64,197.0
907.7,183.0
907.77,181.0
907.83,183.0
907.89,177.0
907.96,164.0
908.02,174.0
908.08,181.0
908.14,180.0
908.21,168.0
908.27,168.0
908.33,149.0
908.4,144.0
908.46,159.0
908.52,163.0
908.59,154.0
908.65,143.0
908.71,140.0
908.77,141.0
908.84,154.0
908.9,131.0
908.96,128.0
909.03,136.0
909.09,123.0
909.15,133.0
909.22,125.0
909.28,99.0
909.34,94.0
909.4,101.0
909.47,96.0
909.53,79.0
909.59,69.0
909.66,83.0
909.72,95.0
909.78,92.0
909.85,80.0
909.91,83.0
909.97,105.0
910.03,106.0
910.1,81.0
910.16,89.0
910.22,101.0
910.29,112.0
910.35,110.0
910.41,131.0
910.48,127.0
910.54,108.0
910.6,106.0
910.66,112.0
910.73,114.0
910.79,107.0
910.85,88.0
910.92,100.0
910.98,87.0
911.04,101.0
911.11,81.0
911.17,82.0
911.23,89.0
911.29,80.0
911.36,77.0
911.42,85.0
911.48,97.0
911.55,67.0
911.61,64.0
911.67,70.0
911.74,61.0
911.8,56.0
911.86,53.0
911.92,64.0
911.99,69.0
912.05,64.0
912.11,47.0
912.18,59.0
912.24,58.0
912.3,49.0
912.37,42.0
912.43,48.0
912.49,66.0
912.55,73.0
912.62,67.0
912.68,70.0
912.74,70.0
912.81,56.0
912.87,60.0
912.93,46.0
913.0,42.0
913.06,50.0
913.12,60.0
913.18,65.0
913.25,54.0
913.31,44.0
913.37,37.0
913.44,73.0
913.5,85.0
913.56,67.0
913.63,58.0
913.69,87.0
913.75,81.0
913.81,65.0
913.88,67.0
913.94,56.0
914.0,64.0
914.07,40.0
914.13,59.0
914.19,64.0
914.26,72.0
914.32,84.0
914.38,80.0
914.44,78.0
914.51,88.0
914.57,94.0
914.63,102.0
914.7,97.0
914.76,107.0
914.82,126.0
914.89,128.0
914.95,102.0
915.01,134.0
915.07,141.0
915.14,130.0
915.2,156.0
915.26,142.0
915.33,142.0
915.39,125.0
915.45,109.0
915.52,122.0
915.58,127.0
915.64,109.0
915.7,100.0
915.77,117.0
915.83,86.0
915.89,98.0
915.96,111.0
916.02,105.0
916.08,108.0
916.15,83.0
916.21,106.0
916.27,78.0
916.33,85.0
916.4,80.0
916.46,74.0
916.52,79.0
916.59,50.0
916.65,60.0
916.71,72.0
916.78,65.0
916.84,64.0
916.9,59.0
916.96,41.0
917.03,40.0
917.09,48.0
917.15,32.0
917.22,29.0
917.28,61.0
917.34,48.0
917.41,72.0
917.47,65.0
917.53,58.0
917.59,76.0
917.66,69.0
917.72,94.0
917.78,77.0
917.85,81.0
917.91,87.0
917.97,114.0
918.04,96.0
918.1,78.0
918.16,70.0
918.22,54.0
918.29,67.0
918.35,69.0
918.41,54.0
918.48,54.0
918.54,41.0
918.6,51.0
918.67,55.0
918.73,75.0
918.79,61.0
918.85,56.0
918.92,75.0
918.98,80.0
919.04,87.0
919.11,104.0
919.17,103.0
919.23,111.0
919.3,122.0
919.36,116.0
919.42,137.0
919.48,149.0
919.55,132.0
919.61,135.0
919.67,143.0
919.74,146.0
919.8,164.0
919.86,170.0
919.93,178.0
919.99,186.0
920.05,190.0
920.11,186.0
920.18,191.0
920.24,175.0
920.3,168.0
920.37,188.0
920.43,158.0
920.49,156.0
920.56,186.0
920.62,172.0
920.68,161.0
920.74,175.0
920.81,160.0
920.87,130.0
920.93,114.0
921.0,133.0
921.06,119.0
921.12,122.0
921.19,117.0
921.25,109.0
921.31,108.0
921.37,107.0
921.44,125.0
921.5,116.0
921.56,135.0
921.63,150.0
921.69,164.0
921.75,156.0
921.82,141.0
921.88,149.0
921.94,153.0
922.0,145.0
922.07,152.0
922.13,149.0
922.19,137.0
922.26,153.0
922.32,160.0
922.38,159.0
922.45,164.0
922.51,165.0
922.57,158.0
922.63,160.0
922.7,142.0
922.76,119.0
922.82,131.0
922.89,134.0
922.95,117.0
923.01,108.0
923.08,103.0
923.14,92.0
923.2,83.0
923.26,69.0
923.33,76.0
923.39,55.0
923.45,59.0
923.52,53.0
923.58,32.0
923.64,53.0
923.71,51.0
923.77,35.0
923.83,32.0
923.89,32.0
923.96,47.0
924.02,9.0
924.08,25.0
924.15,24.0
924.21,30.0
924.27,22.0
924.34,7.0
924.4,2.0
924.46,4.0
924.52,-5.0
924.59,-5.0
924.65,-3.0
924.71,10.0
924.78,-2.0
924.84,-3.0
924.9,9.0
924.97,14.0
925.03,14.0
925.09,-3.0
925.15,-1.0
925.22,2.0
925.28,1.0
925.34,13.0
925.41,13.0
925.47,6.0
925.53,16.0
925.6,1.0
925.66,-13.0
925.72,-5.0
925.78,-11.0
925.85,-11.0
925.91,0.0
925.97,4.0
926.04,4.0
926.1,37.0
926.16,31.0
926.23,34.0
926.29,35.0
926.35,53.0
926.41,47.0
926.48,64.0
926.54,80.0
926.6,69.0
926.67,82.0
926.73,72.0
926.79,60.0
926.86,72.0
926.92,69.0
926.98,62.0
927.04,53.0
927.11,56.0
927.17,82.0
927.23,72.0
927.3,88.0
927.36,97.0
927.42,86.0
927.49,66.0
927.55,76.0
927.61,98.0
927.67,62.0
927.74,72.0
927.8,78.0
927.86,83.0
927.93,83.0
927.99,85.0
928.05,95.0
928.12,103.0
928.18,89.0
928.24,76.0
928.3,65.0
928.37,54.0
928.43,58.0
928.49,67.0
928.56,50.0
928.62,56.0
928.68,26.0
928.75,37.0
928.81,59.0
928.87,39.0
928.93,61.0
929.0,43.0
929.06,46.0
929.12,72.0
929.19,90.0
929.25,72.0
929.31,81.0
929.38,71.0
929.44,77.0
929.5,86.0
929.56,92.0
929.63,111.0
929.69,119.0
929.75,124.0
929.82,112.0
929.88,130.0
929.94,159.0
930.01,171.0
930.07,157.0
930.13,166.0
930.19,156.0
930.26,151.0
930.32,170.0
930.38,152.0
930.45,160.0
930.51,160.0
930.57,156.0
930.64,159.0
930.7,142.0
930.76,155.0
930.82,130.0
930.89,137.0
930.95,128.0
931.01,135.0
931.08,120.0
931.14,125.0
931.2,127.0
931.27,126.0
931.33,119.0
931.39,138.0
931.45,140.0
931.52,137.0
931.58,130.0
931.64,105.0
931.71,111.0
931.77,122.0
931.83,131.0
931.9,158.0
931.96,145.0
932.02,119.0
932.08,135.0
932.15,131.0
932.21,103.0
932.27,103.0
932.34,127.0
932.4,98.0
932.46,107.0
932.53,117.0
932.59,127.0
932.65,109.0
932.71,105.0
932.78,116.0
932.84,123.0
932.9,101.0
932.97,109.0
933.03,95.0
933.09,115.0
933.16,111.0
933.22,138.0
933.28,133.0
933.34,137.0
933.41,133.0
933.47,129.0
933.53,143.0
933.6,139.0
933.66,133.0
933.72,153.0
933.79,138.0
933.85,149.0
933.91,141.0
933.97,121.0
934.04,136.0
934.1,127.0
934.16,119.0
934.23,108.0
934.29,104.0
934.35,111.0
934.42,105.0
934.48,116.0
934.54,127.0
934.6,124.0
934.67,117.0
934.73,123.0
934.79,109.0
934.86,111.0
934.92,107.0
934.98,94.0
935.05,105.0
935.11,110.0
935.17,129.0
935.23,123.0
935.3,109.0
935.36,123.0
935.42,130.0
935.49,124.0
935.55,96.0
935.61,74.0
935.68,83.0
935.74,73.0
935.8,65.0
935.86,75.0
935.93,72.0
935.99,70.0
936.05,64.0
936.12,58.0
936.18,52.0
936.24,78.0
936.31,65.0
936.37,68.0
936.43,87.0
936.49,79.0
936.56,95.0
936.62,90.0
936.68,70.0
936.75,91.0
936.81,97.0
936.87,97.0
936.94,106.0
937.0,95.0
937.06,107.0
937.12,107.0
937.19,95.0
937.25,92.0
937.31,107.0
937.38,120.0
937.44,128.0
937.5,116.0
937.57,131.0
937.63,122.0
937.69,115.0
937.75,113.0
937.82,108.0
937.88,111.0
937.94,105.0
938.01,105.0
938.07,90.0
938.13,95.0
938.2,90.0
938.26,87.0
938.32,83.0
938.38,66.0
938.45,62.0
938.51,65.0
938.57,68.0
938.64,85.0
938.7,79.0
938.76,85.0
938.83,87.0
938.89,95.0
938.95,89.0
939.01,81.0
939.08,94.0
939.14,102.0
939.2,94.0
939.27,117.0
939.33,101.0
939.39,116.0
939.46,116.0
939.52,114.0
939.58,108.0
939.64,113.0
939.71,100.0
939.77,106.0
939.83,131.0
939.9,116.0
939.96,150.0
940.02,152.0
940.09,159.0
940.15,163.0
940.21,142.0
940.27,122.0
940.34,141.0
940.4,137.0
940.46,132.0
940.53,136.0
940.59,136.0
940.65,139.0
940.72,130.0
940.78,126.0
940.84,136.0
940.9,127.0
940.97,127.0
941.03,136.0
941.09,113.0
941.16,136.0
941.22,140.0
941.28,123.0
941.35,132.0
941.41,141.0
941.47,142.0
941.53,114.0
941.6,131.0
941.66,136.0
941.72,131.0
941.79,136.0
941.85,155.0
941.91,157.0
941.98,134.0
942.04,133.0
942.1,131.0
942.16,105.0
942.23,106.0
942.29,97.0
942.35,83.0
942.42,86.0
942.48,94.0
942.54,87.0
942.61,65.0
942.67,69.0
942.73,53.0
942.79,51.0
942.86,65.0
942.92,32.0
942.98,31.0
943.05,35.0
943.11,35.0
943.17,45.0
943.24,46.0
943.3,47.0
943.36,56.0
943.42,64.0
943.49,69.0
943.55,68.0
943.61,66.0
943.68,74.0
943.74,68.0
943.8,72.0
943.87,64.0
943.93,84.0
943.99,98.0
944.05,76.0
944.12,91.0
944.18,103.0
944.24,101.0
944.31,74.0
944.37,90.0
944.43,102.0
944.5,120.0
944.56,117.0
944.62,130.0
944.68,125.0
944.75,128.0
944.81,116.0
944.87,147.0
944.94,153.0
945.0,145.0
945.06,155.0
945.13,141.0
945.19,155.0
945.25,149.0
945.31,130.0
945.38,128.0
945.44,136.0
945.5,122.0
945.57,131.0
945.63,149.0
945.69,134.0
945.76,130.0
945.82,108.0
945.88,117.0
945.94,122.0
946.01,115.0
946.07,101.0
946.13,109.0
946.2,111.0
946.26,106.0
946.32,99.0
946.39,121.0
946.45,116.0
946.51,109.0
946.57,118.0
946.64,111.0
946.7,95.0
946.76,91.0
946.83,114.0
946.89,90.0
946.95,83.0
947.02,86.0
947.08,89.0
947.14,94.0
947.2,80.0
947.27,104.0
947.33,100.0
947.39,79.0
947.46,72.0
947.52,86.0
947.58,75.0
947.65,72.0
947.71,88.0
947.77,62.0
947.83,70.0
947.9,78.0
947.96,48.0
948.02,59.0
948.09,40.0
948.15,41.0
948.21,68.0
948.28,56.0
948.34,51.0
948.4,40.0
948.46,40.0
948.53,32.0
948.59,40.0
948.65,47.0
948.72,40.0
948.78,53.0
948.84,53.0
948.91,28.0
948.97,54.0
949.03,55.0
949.09,32.0
949.16,37.0
949.22,53.0
949.28,57.0
949.35,48.0
949.41,47.0
949.47,36.0
949.54,30.0
949.6,29.0
949.66,40.0
949.72,38.0
949.79,31.0
949.85,40.0
949.91,44.0
949.98,32.0
950.04,32.0
950.1,34.0
950.17,38.0
950.23,11.0
950.29,29.0
950.35,50.0
950.42,42.0
950.48,26.0
950.54,15.0
950.61,21.0
950.67,7.0
950.73,27.0
950.8,11.0
950.86,-12.0
950.92,-16.0
950.98,-13.0
951.05,5.0
951.11,-15.0
951.17,-38.0
951.24,-19.0
951.3,-11.0
951.36,-17.0
951.43,-25.0
951.49,-33.0
951.55,-21.0
951.61,-24.0
951.68,-24.0
951.74,-10.0
951.8,-8.0
951.87,-11.0
951.93,-20.0
951.99,2.0
952.06,-4.0
952.12,-38.0
952.18,-22.0
952.24,-11.0
952.31,9.0
952.37,3.0
952.43,-8.0
952.5,20.0
952.56,27.0
952.62,17.0
952.69,39.0
952.75,25.0
952.81,26.0
952.87,42.0
952.94,34.0
953.0,37.0
953.06,51.0
953.13,55.0
953.19,56.0
953.25,67.0
953.32,69.0
953.38,74.0
953.44,68.0
953.5,76.0
953.57,79.0
953.63,78.0
953.69,70.0
953.76,69.0
953.82,79.0
953.88,76.0
953.95,79.0
954.01,61.0
954.07,63.0
954.13,83.0
954.2,70.0
954.26,80.0
954.32,68.0
954.39,79.0
954.45,82.0
954.51,58.0
954.58,75.0
954.64,76.0
954.7,83.0
954.76,81.0
954.83,61.0
954.89,76.0
954.95,90.0
955.02,116.0
955.08,101.0
955.14,102.0
955.21,108.0
955.27,108.0
955.33,132.0
955.39,136.0
955.46,115.0
955.52,122.0
955.58,117.0
955.65,116.0
955.71,131.0
955.77,117.0
955.84,99.0
955.9,119.0
955.96,112.0
956.02,133.0
956.09,122.0
956.15,112.0
956.21,122.0
956.28,138.0
956.34,131.0
956.4,119.0
956.47,109.0
956.53,111.0
956.59,102.0
956.65,105.0
956.72,104.0
956.78,114.0
956.84,116.0
956.91,110.0
956.97,79.0
957.03,89.0
957.1,97.0
957.16,105.0
957.22,76.0
957.28,65.0
957.35,72.0
957.41,66.0
957.47,79.0
957.54,68.0
957.6,48.0
957.66,59.0
957.73,51.0
957.79,55.0
957.85,45.0
957.91,40.0
957.98,39.0
958.04,53.0
958.1,57.0
958.17,83.0
958.23,62.0
958.29,62.0
958.36,71.0
958.42,80.0
958.48,90.0
958.54,81.0
958.61,83.0
958.67,98.0
958.73,104.0
958.8,116.0
958.86,130.0
958.92,132.0
958.99,143.0
959.05,150.0
959.11,139.0
959.17,140.0
959.24,137.0
959.3,164.0
959.36,160.0
959.43,162.0
959.49,175.0
959.55,151.0
959.62,139.0
959.68,158.0
959.74,157.0
959.8,150.0
959.87,133.0
959.93,135.0
959.99,132.0
960.06,140.0
960.12,126.0
960.18,130.0
960.25,120.0
960.31,130.0
960.37,127.0
960.43,136.0
960.5,105.0
960.56,109.0
960.62,113.0
960.69,118.0
960.75,115.0
960.81,114.0
960.88,120.0
960.94,118.0
961.0,110.0
961.06,113.0
961.13,88.0
961.19,117.0
961.25,105.0
961.32,101.0
961.38,92.0
961.44,83.0
961.51,86.0
961.57,68.0
961.63,54.0
961.69,68.0
961.76,63.0
961.82,64.0
961.88,59.0
961.95,46.0
962.01,45.0
962.07,50.0
962.14,50.0
962.2,38.0
962.26,38.0
962.32,47.0
962.39,40.0
962.45,48.0
962.51,32.0
962.58,43.0
962.64,50.0
962.7,72.0
962.77,58.0
962.83,61.0
962.89,36.0
962.95,65.0
963.02,76.0
963.08,74.0
963.14,66.0
963.21,76.0
963.27,103.0
963.33,92.0
963.4,84.0
963.46,92.0
963.52,89.0
963.58,70.0
963.65,87.0
963.71,89.0
963.77,96.0
963.84,103.0
963.9,111.0
963.96,97.0
964.03,119.0
964.09,103.0
964.15,91.0
964.21,115.0
964.28,109.0
964.34,128.0
964.4,119.0
964.47,108.0
964.53,125.0
964.59,148.0
964.66,133.0
964.72,129.0
964.78,131.0
964.84,113.0
964.91,116.0
964.97,130.0
965.03,129.0
965.1,131.0
965.16,133.0
965.22,133.0
965.29,131.0
965.35,150.0
965.41,145.0
965.47,147.0
965.54,153.0
965.6,156.0
965.66,157.0
965.73,132.0
965.79,119.0
965.85,138.0
965.92,125.0
965.98,138.0
966.04,133.0
966.1,153.0
966.17,172.0
966.23,172.0
966.29,172.0
966.36,193.0
966.42,193.0
966.48,182.0
966.55,185.0
966.61,187.0
966.67,175.0
966.73,178.0
966.8,175.0
966.86,177.0
966.92,155.0
966.99,135.0
967.05,145.0
967.11,142.0
967.18,159.0
967.24,159.0
967.3,130.0
967.36,127.0
967.43,126.0
967.49,138.0
967.55,109.0
967.62,114.0
967.68,116.0
967.74,122.0
967.81,116.0
967.87,122.0
967.93,111.0
967.99,106.0
968.06,98.0
968.12,105.0
968.18,91.0
968.25,98.0
968.31,84.0
968.37,78.0
968.44,98.0
968.5,97.0
968.56,106.0
968.62,102.0
968.69,116.0
968.75,123.0
968.81,113.0
968.88,103.0
968.94,110.0
969.0,117.0
969.07,105.0
969.13,89.0
969.19,80.0
969.25,95.0
969.32,95.0
969.38,101.0
969.44,83.0
969.51,86.0
969.57,82.0
969.63,116.0
969.7,112.0
969.76,105.0
969.82,116.0
969.88,124.0
969.95,108.0
970.01,125.0
970.07,120.0
970.14,114.0
970.2,120.0
970.26,119.0
970.33,112.0
970.39,116.0
970.45,115.0
970.51,138.0
970.58,130.0
970.64,130.0
970.7,133.0
970.77,115.0
970.83,119.0
970.89,113.0
970.96,128.0
971.02,111.0
971.08,95.0
971.14,122.0
971.21,92.0
971.27,101.0
971.33,89.0
971.4,86.0
971.46,86.0
971.52,81.0
971.59,63.0
971.65,56.0
971.71,76.0
971.77,79.0
971.84,75.0
971.9,105.0
971.96,96.0
972.03,76.0
972.09,88.0
972.15,75.0
972.22,71.0
972.28,71.0
972.34,78.0
972.4,80.0
972.47,68.0
972.53,80.0
972.59,92.0
972.66,65.0
972.72,54.0
972.78,61.0
972.85,31.0
972.91,58.0
972.97,53.0
973.03,46.0
973.1,36.0
973.16,32.0
973.22,32.0
973.29,44.0
973.35,13.0
973.41,25.0
973.48,37.0
973.54,26.0
973.6,23.0
973.66,22.0
973.73,15.0
973.79,32.0
973.85,18.0
973.92,26.0
973.98,14.0
974.04,15.0
974.11,21.0
974.17,32.0
974.23,28.0
974.29,38.0
974.36,32.0
974.42,26.0
974.48,41.0
974.55,54.0
974.61,58.0
974.67,56.0
974.74,35.0
974.8,24.0
974.86,39.0
974.92,29.0
974.99,50.0
975.05,57.0
975.11,45.0
975.18,45.0
975.24,40.0
975.3,35.0
975.37,54.0
975.43,24.0
975.49,26.0
975.55,15.0
975.62,17.0
975.68,19.0
975.74,17.0
975.81,-10.0
975.87,-2.0
975.93,-21.0
976.0,-13.0
976.06,3.0
976.12,10.0
976.18,19.0
976.25,-3.0
976.31,-12.0
976.37,-8.0
976.44,-6.0
976.5,-22.0
976.56,-37.0
976.63,-29.0
976.69,-31.0
976.75,-41.0
976.81,-31.0
976.88,-15.0
976.94,-11.0
977.0,-14.0
977.07,1.0
977.13,-31.0
977.19,-6.0
977.26,2.0
977.32,-2.0
977.38,-2.0
977.44,-7.0
977.51,0.0
977.57,-5.0
977.63,20.0
977.7,20.0
977.76,26.0
977.82,33.0
977.89,47.0
977.95,41.0
978.01,24.0
978.07,21.0
978.14,14.0
978.2,39.0
978.26,46.0
978.33,46.0
978.39,51.0
978.45,31.0
978.52,35.0
978.58,48.0
978.64,9.0
978.7,16.0
978.77,31.0
978.83,21.0
978.89,43.0
978.96,33.0
979.02,40.0
979.08,41.0
979.15,29.0
979.21,39.0
979.27,50.0
979.33,58.0
979.4,46.0
979.46,46.0
979.52,37.0
979.59,46.0
979.65,66.0
979.71,47.0
979.78,53.0
979.84,39.0
979.9,64.0
979.96,69.0
980.03,52.0
980.09,60.0
980.15,88.0
980.22,87.0
980.28,86.0
980.34,108.0
980.41,82.0
980.47,92.0
980.53,86.0
980.59,64.0
980.66,79.0
980.72,89.0
980.78,74.0
980.85,61.0
980.91,66.0
980.97,56.0
981.04,46.0
981.1,60.0
981.16,50.0
981.22,36.0
981.29,46.0
981.35,75.0
981.41,87.0
981.48,83.0
981.54,68.0
981.6,70.0
981.67,87.0
981.73,102.0
981.79,90.0
981.85,87.0
981.92,62.0
981.98,60.0
982.04,82.0
982.11,61.0
982.17,81.0
982.23,86.0
982.3,97.0
982.36,110.0
982.42,104.0
982.48,102.0
982.55,94.0
982.61,106.0
982.67,106.0
982.74,87.0
982.8,74.0
982.86,106.0
982.93,89.0
982.99,95.0
983.05,89.0
983.11,88.0
983.18,99.0
983.24,97.0
983.3,89.0
983.37,87.0
983.43,115.0
983.49,112.0
983.56,101.0
983.62,117.0
983.68,114.0
983.74,125.0
983.81,148.0
983.87,141.0
983.93,128.0
984.0,121.0
984.06,129.0
984.12,133.0
984.19,119.0
984.25,101.0
984.31,106.0
984.37,123.0
984.44,108.0
984.5,120.0
984.56,108.0
984.63,118.0
984.69,109.0
984.75,118.0
984.82,119.0
984.88,112.0
984.94,105.0
985.0,126.0
985.07,124.0
985.13,114.0
985.19,114.0
985.26,127.0
985.32,138.0
985.38,108.0
985.45,119.0
985.51,108.0
985.57,112.0
985.63,105.0
985.7,111.0
985.76,122.0
985.82,109.0
985.89,116.0
985.95,90.0
986.01,108.0
986.08,112.0
986.14,107.0
986.2,114.0
986.26,104.0
986.33,109.0
986.39,111.0
986.45,131.0
986.52,134.0
986.58,124.0
986.64,120.0
986.71,132.0
986.77,123.0
986.83,105.0
986.89,84.0
986.96,105.0
987.02,115.0
987.08,100.0
987.15,96.0
987.21,87.0
987.27,95.0
987.34,114.0
987.4,102.0
987.46,106.0
987.52,81.0
987.59,68.0
987.65,82.0
987.71,110.0
987.78,125.0
987.84,113.0
987.9,99.0
987.97,93.0
988.03,100.0
988.09,77.0
988.15,76.0
988.22,83.0
988.28,76.0
988.34,60.0
988.41,82.0
988.47,74.0
988.53,89.0
988.6,75.0
988.66,62.0
988.72,66.0
988.78,59.0
988.85,76.0
988.91,96.0
988.97,90.0
989.04,78.0
989.1,64.0
989.16,73.0
989.23,74.0
989.29,65.0
989.35,68.0
989.41,68.0
989.48,90.0
989.54,87.0
989.6,93.0
989.67,68.0
989.73,75.0
989.79,86.0
989.86,98.0
989.92,96.0
989.98,93.0
990.04,88.0
990.11,100.0
990.17,110.0
990.23,111.0
990.3,108.0
990.36,109.0
990.42,119.0
990.49,114.0
990.55,124.0
990.61,119.0
990.67,133.0
990.74,142.0
990.8,156.0
990.86,155.0
990.93,161.0
990.99,148.0
991.05,144.0
991.12,150.0
991.18,176.0
991.24,164.0
991.3,154.0
991.37,145.0
991.43,130.0
991.49,141.0
991.56,139.0
991.62,145.0
991.68,118.0
991.75,108.0
991.81,112.0
991.87,90.0
991.93,94.0
992.0,73.0
992.06,95.0
992.12,97.0
992.19,62.0
992.25,73.0
992.31,62.0
992.38,67.0
992.44,71.0
992.5,76.0
992.56,109.0
992.63,103.0
992.69,93.0
992.75,110.0
992.82,98.0
992.88,93.0
992.94,109.0
993.01,103.0
993.07,101.0
993.13,93.0
993.19,109.0
993.26,101.0
993.32,87.0
993.38,111.0
993.45,136.0
993.51,111.0
993.57,119.0
993.64,130.0
993.7,131.0
993.76,132.0
993.82,128.0
993.89,149.0
993.95,124.0
994.01,115.0
994.08,122.0
994.14,106.0
994.2,129.0
994.27,101.0
994.33,106.0
994.39,90.0
994.45,101.0
994.52,109.0
994.58,106.0
994.64,113.0
994.71,119.0
994.77,110.0
994.83,115.0
994.9,115.0
994.96,92.0
995.02,89.0
995.08,80.0
995.15,66.0
995.21,80.0
995.27,67.0
995.34,67.0
995.4,49.0
995.46,51.0
995.53,63.0
995.59,76.0
995.65,71.0
995.71,74.0
995.78,79.0
995.84,53.0
995.9,51.0
995.97,52.0
996.03,64.0
996.09,67.0
996.16,53.0
996.22,61.0
996.28,56.0
996.34,72.0
996.41,86.0
996.47,80.0
996.53,73.0
996.6,86.0
996.66,81.0
996.72,75.0
996.79,87.0
996.85,92.0
996.91,80.0
996.97,97.0
997.04,88.0
997.1,89.0
997.16,99.0
997.23,104.0
997.29,115.0
997.35,111.0
997.42,148.0
997.48,140.0
997.54,109.0
997.6,123.0
997.67,116.0
997.73,127.0
997.79,120.0
997.86,130.0
997.92,135.0
997.98,138.0
998.05,111.0
998.11,114.0
998.17,119.0
998.23,121.0
998.3,100.0
998.36,99.0
998.42,108.0
998.49,79.0
998.55,86.0
998.61,82.0
998.68,82.0
998.74,92.0
998.8,97.0
998.86,98.0
998.93,84.0
998.99,94.0
999.05,62.0
999.12,62.0
999.18,66.0
999.24,103.0
999.31,105.0
999.37,96.0
999.43,87.0
999.49,87.0
999.56,104.0
999.62,87.0
999.68,89.0
999.75,81.0
999.81,83.0
999.87,92.0
